* Measurement data measured by REW V5.31.3
* Source: EXCL: Headset (USB-C to 3.5mm Headphone Jack Adapter), MICROPHONE (Master Volume), 0, volume: 0.200
* Format: 256k Log Swept Sine, 1 sweep at -12.0 dBFS with no timing reference
* Dated: Jun 13, 2025 2:28:45 PM
* REW Settings:
*  C-weighting compensation: Off
*  Target level: 75.0 dB
* Note: ; 
* Measurement: Arya Stealth 2 L3
* Smoothing: 1/6 octave
* Frequency Step: 96 ppo
* Start Frequency: 20.0 Hz
*
* Freq(Hz) SPL(dB) Phase(degrees)
20.187378 65.610 -94.2513
20.333664 65.634 -94.4709
20.481010 65.666 -94.7663
20.629424 65.707 -95.1299
20.778913 65.755 -95.5536
20.929486 65.810 -96.0288
21.081150 65.871 -96.5473
21.233912 65.938 -97.1009
21.387782 66.009 -97.6823
21.542767 66.086 -98.2844
21.698874 66.165 -98.9007
21.856113 66.248 -99.5253
22.014492 66.332 -100.1527
22.174018 66.418 -100.7780
22.334700 66.504 -101.3971
22.496546 66.589 -102.0066
22.659566 66.672 -102.6035
22.823766 66.752 -103.1861
22.989157 66.829 -103.7531
23.155745 66.901 -104.3040
23.323542 66.968 -104.8388
23.492554 67.029 -105.3583
23.662790 67.082 -105.8634
23.834261 67.129 -106.3557
24.006973 67.168 -106.8367
24.180938 67.200 -107.3082
24.356163 67.225 -107.7720
24.532658 67.242 -108.2300
24.710431 67.254 -108.6841
24.889493 67.259 -109.1359
25.069853 67.259 -109.5868
25.251519 67.254 -110.0381
25.434502 67.246 -110.4906
25.618811 67.236 -110.9447
25.804456 67.223 -111.4005
25.991445 67.209 -111.8576
26.179790 67.196 -112.3158
26.369500 67.183 -112.7744
26.560584 67.171 -113.2330
26.753053 67.162 -113.6915
26.946917 67.155 -114.1499
27.142185 67.151 -114.6084
27.338869 67.149 -115.0673
27.536977 67.150 -115.5266
27.736522 67.153 -115.9857
27.937512 67.158 -116.4436
28.139959 67.163 -116.8980
28.343872 67.168 -117.3459
28.549264 67.173 -117.7841
28.756143 67.178 -118.2089
28.964522 67.183 -118.6177
29.174411 67.188 -119.0090
29.385821 67.196 -119.3831
29.598763 67.207 -119.7430
29.813248 67.222 -120.0934
30.029287 67.243 -120.4412
30.246891 67.269 -120.7938
30.466073 67.303 -121.1584
30.686842 67.342 -121.5409
30.909212 67.388 -121.9442
31.133193 67.438 -122.3686
31.358797 67.491 -122.8108
31.586035 67.548 -123.2649
31.814921 67.605 -123.7234
32.045465 67.664 -124.1782
32.277680 67.723 -124.6220
32.511577 67.782 -125.0493
32.747169 67.840 -125.4572
32.984469 67.899 -125.8456
33.223488 67.957 -126.2168
33.464239 68.016 -126.5754
33.706735 68.074 -126.9268
33.950987 68.133 -127.2767
34.197010 68.191 -127.6300
34.444816 68.250 -127.9905
34.694417 68.309 -128.3604
34.945827 68.369 -128.7401
35.199059 68.430 -129.1287
35.454126 68.492 -129.5241
35.711041 68.556 -129.9234
35.969818 68.620 -130.3233
36.230470 68.686 -130.7207
36.493011 68.751 -131.1125
36.757455 68.817 -131.4966
37.023814 68.881 -131.8715
37.292104 68.944 -132.2364
37.562338 69.006 -132.5915
37.834530 69.066 -132.9379
38.108695 69.125 -133.2768
38.384846 69.183 -133.6097
38.662999 69.241 -133.9381
38.943167 69.299 -134.2630
39.225365 69.357 -134.5853
39.509608 69.416 -134.9050
39.795911 69.474 -135.2225
40.084289 69.533 -135.5379
40.374756 69.591 -135.8516
40.667328 69.647 -136.1640
40.962020 69.700 -136.4759
41.258848 69.751 -136.7881
41.557827 69.798 -137.1012
41.858972 69.841 -137.4153
42.162299 69.881 -137.7301
42.467824 69.917 -138.0450
42.775564 69.951 -138.3592
43.085533 69.982 -138.6718
43.397749 70.013 -138.9826
43.712227 70.042 -139.2915
44.028983 70.071 -139.5993
44.348036 70.098 -139.9073
44.669400 70.125 -140.2171
44.993093 70.151 -140.5305
45.319131 70.175 -140.8487
45.647532 70.197 -141.1724
45.978313 70.218 -141.5012
46.311491 70.236 -141.8335
46.647083 70.253 -142.1666
46.985107 70.267 -142.4974
47.325581 70.279 -142.8231
47.668521 70.290 -143.1421
48.013947 70.298 -143.4548
48.361876 70.305 -143.7639
48.712326 70.311 -144.0742
49.065315 70.316 -144.3912
49.420863 70.320 -144.7202
49.778987 70.325 -145.0645
50.139706 70.331 -145.4240
50.503039 70.338 -145.7952
50.869005 70.346 -146.1719
51.237623 70.357 -146.5459
51.608912 70.368 -146.9087
51.982891 70.380 -147.2529
52.359580 70.391 -147.5734
52.739000 70.400 -147.8672
53.121168 70.407 -148.1342
53.506106 70.411 -148.3765
53.893833 70.413 -148.5979
54.284370 70.412 -148.8033
54.677737 70.409 -148.9977
55.073955 70.406 -149.1851
55.473043 70.404 -149.3682
55.875024 70.404 -149.5481
56.279917 70.405 -149.7247
56.687745 70.409 -149.8970
57.098527 70.416 -150.0645
57.512287 70.425 -150.2274
57.929045 70.437 -150.3877
58.348822 70.451 -150.5500
58.771642 70.468 -150.7218
59.197525 70.488 -150.9125
59.626495 70.511 -151.1314
60.058573 70.536 -151.3856
60.493782 70.563 -151.6775
60.932145 70.592 -152.0041
61.373685 70.622 -152.3578
61.818424 70.654 -152.7285
62.266386 70.687 -153.1062
62.717593 70.723 -153.4826
63.172071 70.761 -153.8519
63.629842 70.800 -154.2109
64.090930 70.842 -154.5587
64.555359 70.885 -154.8962
65.023154 70.929 -155.2250
65.494339 70.974 -155.5471
65.968938 71.020 -155.8647
66.446976 71.067 -156.1798
66.928478 71.113 -156.4943
67.413469 71.159 -156.8101
67.901975 71.204 -157.1286
68.394021 71.248 -157.4511
68.889632 71.291 -157.7779
69.388835 71.333 -158.1091
69.891655 71.373 -158.4443
70.398118 71.412 -158.7830
70.908252 71.448 -159.1247
71.422083 71.482 -159.4691
71.939636 71.514 -159.8160
72.460941 71.543 -160.1655
72.986023 71.570 -160.5176
73.514909 71.593 -160.8725
74.047629 71.613 -161.2300
74.584208 71.630 -161.5903
75.124676 71.644 -161.9529
75.669061 71.654 -162.3179
76.217390 71.662 -162.6845
76.769692 71.667 -163.0524
77.325997 71.669 -163.4206
77.886333 71.669 -163.7885
78.450730 71.667 -164.1555
79.019216 71.663 -164.5210
79.591822 71.657 -164.8843
80.168577 71.650 -165.2449
80.749512 71.642 -165.6021
81.334656 71.632 -165.9553
81.924040 71.622 -166.3040
82.517696 71.610 -166.6479
83.115653 71.598 -166.9871
83.717943 71.585 -167.3216
84.324598 71.571 -167.6517
84.935649 71.555 -167.9781
85.551128 71.540 -168.3012
86.171066 71.523 -168.6215
86.795497 71.506 -168.9393
87.424453 71.489 -169.2547
88.057967 71.471 -169.5679
88.696071 71.452 -169.8788
89.338800 71.434 -170.1872
89.986185 71.415 -170.4931
90.638262 71.395 -170.7962
91.295065 71.376 -171.0965
91.956626 71.356 -171.3940
92.622982 71.337 -171.6886
93.294166 71.317 -171.9807
93.970214 71.297 -172.2706
94.651161 71.277 -172.5588
95.337042 71.257 -172.8463
96.027894 71.237 -173.1337
96.723752 71.216 -173.4220
97.424652 71.196 -173.7116
98.130631 71.175 -174.0029
98.841726 71.154 -174.2957
99.557974 71.133 -174.5895
100.279412 71.112 -174.8831
101.006078 71.091 -175.1746
101.738010 71.070 -175.4617
102.475245 71.049 -175.7416
103.217823 71.028 -176.0114
103.965782 71.009 -176.2690
104.719161 70.990 -176.5131
105.477999 70.973 -176.7444
106.242336 70.957 -176.9646
107.012212 70.943 -177.1760
107.787666 70.931 -177.3808
108.568740 70.921 -177.5809
109.355474 70.912 -177.7774
110.147909 70.905 -177.9715
110.946086 70.899 -178.1638
111.750047 70.894 -178.3548
112.559834 70.891 -178.5447
113.375489 70.888 -178.7338
114.197055 70.887 -178.9220
115.024574 70.886 -179.1092
115.858089 70.887 -179.2953
116.697645 70.888 -179.4802
117.543284 70.890 -179.6640
118.395051 70.893 -179.8469
119.252990 70.896 179.9709
120.117147 70.899 179.7890
120.987565 70.902 179.6065
121.864291 70.904 179.4225
122.747370 70.905 179.2356
123.636848 70.906 179.0445
124.532771 70.905 178.8481
125.435187 70.904 178.6454
126.344142 70.901 178.4363
127.259684 70.897 178.2208
128.181860 70.891 177.9993
129.110718 70.883 177.7726
130.046308 70.874 177.5411
130.988677 70.863 177.3049
131.937875 70.851 177.0640
132.893951 70.838 176.8188
133.856956 70.823 176.5699
134.826938 70.807 176.3177
135.803950 70.790 176.0626
136.788041 70.770 175.8041
137.779264 70.748 175.5412
138.777669 70.724 175.2727
139.783309 70.696 174.9983
140.796237 70.665 174.7192
141.816504 70.631 174.4377
142.844165 70.593 174.1571
143.879273 70.552 173.8811
144.921881 70.507 173.6133
145.972045 70.460 173.3568
147.029819 70.409 173.1144
148.095257 70.356 172.8883
149.168417 70.300 172.6809
150.249353 70.241 172.4944
151.338121 70.181 172.3307
152.434780 70.118 172.1907
153.539385 70.055 172.0748
154.651995 69.990 171.9827
155.772667 69.926 171.9132
156.901460 69.861 171.8657
158.038432 69.798 171.8398
159.183644 69.736 171.8360
160.337154 69.675 171.8548
161.499023 69.616 171.8970
162.669312 69.560 171.9628
163.848081 69.505 172.0521
165.035392 69.453 172.1638
166.231306 69.403 172.2961
167.435887 69.357 172.4463
168.649196 69.314 172.6111
169.871298 69.275 172.7872
171.102255 69.239 172.9715
172.342133 69.208 173.1613
173.590995 69.180 173.3545
174.848907 69.157 173.5490
176.115934 69.137 173.7435
177.392143 69.121 173.9367
178.677599 69.108 174.1277
179.972371 69.099 174.3158
181.276525 69.092 174.5001
182.590129 69.088 174.6795
183.913252 69.086 174.8527
185.245964 69.085 175.0175
186.588332 69.086 175.1714
187.940428 69.087 175.3113
189.302322 69.089 175.4340
190.674085 69.091 175.5363
192.055788 69.094 175.6165
193.447503 69.097 175.6745
194.849303 69.100 175.7120
196.261262 69.104 175.7321
197.683452 69.107 175.7382
199.115948 69.111 175.7338
200.558824 69.115 175.7218
202.012156 69.120 175.7039
203.476019 69.125 175.6809
204.950490 69.130 175.6530
206.435646 69.135 175.6204
207.931564 69.141 175.5841
209.438322 69.146 175.5453
210.955998 69.151 175.5052
212.484672 69.157 175.4641
214.024424 69.162 175.4221
215.575333 69.168 175.3787
217.137481 69.174 175.3330
218.710948 69.181 175.2844
220.295818 69.189 175.2319
221.892172 69.199 175.1750
223.500094 69.209 175.1129
225.119668 69.220 175.0452
226.750978 69.232 174.9717
228.394109 69.245 174.8922
230.049147 69.259 174.8067
231.716178 69.273 174.7152
233.395289 69.288 174.6182
235.086567 69.304 174.5161
236.790102 69.321 174.4096
238.505980 69.338 174.2993
240.234293 69.355 174.1857
241.975130 69.374 174.0687
243.728581 69.393 173.9481
245.494739 69.412 173.8233
247.273695 69.432 173.6934
249.065542 69.453 173.5573
250.870374 69.475 173.4141
252.688284 69.497 173.2631
254.519367 69.519 173.1042
256.363720 69.541 172.9379
258.221437 69.563 172.7650
260.092616 69.584 172.5861
261.977354 69.603 172.4015
263.875750 69.623 172.2109
265.787903 69.641 172.0133
267.713911 69.659 171.8073
269.653877 69.676 171.5913
271.607900 69.693 171.3644
273.576083 69.709 171.1257
275.558528 69.726 170.8748
277.555338 69.742 170.6110
279.566619 69.758 170.3337
281.592474 69.772 170.0424
283.633009 69.786 169.7368
285.688331 69.797 169.4169
287.758546 69.807 169.0837
289.843763 69.813 168.7388
291.944090 69.816 168.3845
294.059638 69.815 168.0240
296.190515 69.810 167.6604
298.336833 69.800 167.2975
300.498705 69.786 166.9391
302.676243 69.766 166.5894
304.869559 69.742 166.2526
307.078770 69.713 165.9332
309.303989 69.680 165.6357
311.545334 69.642 165.3643
313.802919 69.601 165.1225
316.076865 69.557 164.9139
318.367288 69.510 164.7415
320.674309 69.461 164.6080
322.998047 69.411 164.5151
325.338624 69.360 164.4639
327.696162 69.309 164.4541
330.070783 69.259 164.4844
332.462612 69.210 164.5524
334.871773 69.164 164.6550
337.298392 69.120 164.7881
339.742595 69.078 164.9474
342.204510 69.040 165.1284
344.684265 69.006 165.3267
347.181989 68.975 165.5386
349.697813 68.948 165.7609
352.231868 68.925 165.9910
354.784285 68.905 166.2264
357.355198 68.890 166.4653
359.944741 68.878 166.7059
362.553049 68.869 166.9465
365.180258 68.864 167.1854
367.826505 68.862 167.4206
370.491927 68.862 167.6504
373.176665 68.864 167.8735
375.880856 68.869 168.0889
378.604644 68.875 168.2955
381.348169 68.884 168.4924
384.111575 68.894 168.6783
386.895006 68.907 168.8518
389.698607 68.921 169.0115
392.522524 68.936 169.1561
395.366904 68.954 169.2845
398.231895 68.972 169.3960
401.117648 68.992 169.4901
404.024312 69.012 169.5663
406.952038 69.033 169.6238
409.900981 69.053 169.6619
412.871292 69.074 169.6797
415.863128 69.094 169.6768
418.876643 69.113 169.6525
421.911996 69.132 169.6069
424.969344 69.150 169.5403
428.048847 69.167 169.4529
431.150666 69.183 169.3448
434.274961 69.198 169.2158
437.421897 69.211 169.0649
440.591636 69.224 168.8911
443.784345 69.235 168.6927
447.000189 69.245 168.4686
450.239337 69.253 168.2176
453.501956 69.260 167.9391
456.788219 69.265 167.6321
460.098294 69.268 167.2960
463.432356 69.268 166.9298
466.790578 69.265 166.5327
470.173135 69.259 166.1040
473.580203 69.248 165.6437
477.011961 69.232 165.1527
480.468586 69.211 164.6329
483.950259 69.182 164.0878
487.457163 69.145 163.5226
490.989478 69.099 162.9446
494.547390 69.043 162.3632
498.131084 68.978 161.7894
501.740748 68.901 161.2358
505.376568 68.815 160.7153
509.038735 68.719 160.2413
512.727439 68.614 159.8259
516.442874 68.503 159.4795
520.185232 68.386 159.2102
523.954708 68.267 159.0232
527.751500 68.146 158.9210
531.575805 68.027 158.9033
535.427822 67.911 158.9681
539.307753 67.799 159.1116
543.215800 67.694 159.3293
547.152165 67.596 159.6160
551.117055 67.506 159.9658
555.110677 67.425 160.3731
559.133237 67.354 160.8317
563.184947 67.293 161.3350
567.266018 67.242 161.8759
571.376661 67.203 162.4469
575.517092 67.174 163.0405
579.687526 67.157 163.6491
583.888181 67.150 164.2652
588.119275 67.153 164.8813
592.381030 67.167 165.4901
596.673667 67.189 166.0846
600.997410 67.220 166.6593
605.352485 67.258 167.2094
609.739119 67.303 167.7316
614.157540 67.354 168.2231
618.607979 67.411 168.6813
623.090667 67.474 169.1032
627.605839 67.543 169.4846
632.153730 67.616 169.8205
636.734576 67.695 170.1046
641.348617 67.779 170.3296
645.996094 67.867 170.4879
650.677248 67.957 170.5720
655.392323 68.049 170.5756
660.141566 68.141 170.4937
664.925224 68.231 170.3233
669.743546 68.316 170.0640
674.596784 68.395 169.7181
679.485191 68.466 169.2903
684.409020 68.526 168.7881
689.368530 68.573 168.2207
694.363979 68.606 167.5996
699.395626 68.624 166.9380
704.463736 68.624 166.2508
709.568570 68.607 165.5544
714.710396 68.572 164.8660
719.889483 68.521 164.2031
725.106099 68.452 163.5820
730.360516 68.369 163.0177
735.653010 68.273 162.5229
740.983855 68.165 162.1086
746.353329 68.047 161.7843
751.761713 67.922 161.5587
757.209288 67.792 161.4393
762.696339 67.658 161.4327
768.223151 67.523 161.5429
773.790013 67.391 161.7708
779.397214 67.264 162.1125
785.045047 67.146 162.5591
790.733808 67.039 163.0963
796.463791 66.947 163.7047
802.235296 66.871 164.3614
808.048623 66.813 165.0418
813.904077 66.773 165.7220
819.801961 66.750 166.3807
825.742584 66.743 167.0008
831.726255 66.752 167.5681
837.753287 66.775 168.0707
843.823992 66.810 168.4983
849.938689 66.855 168.8411
856.097695 66.909 169.0916
862.301332 66.968 169.2440
868.549922 67.030 169.2959
874.843793 67.092 169.2484
881.183272 67.151 169.1066
887.568689 67.205 168.8798
894.000378 67.252 168.5803
900.478673 67.290 168.2226
907.003913 67.319 167.8218
913.576437 67.339 167.3926
920.196588 67.350 166.9482
926.864712 67.353 166.4995
933.581156 67.348 166.0555
940.346270 67.338 165.6227
947.160407 67.321 165.2067
954.023921 67.300 164.8122
960.937172 67.275 164.4436
967.900519 67.248 164.1052
974.914325 67.218 163.8003
981.978956 67.188 163.5315
989.094780 67.159 163.2990
996.262169 67.133 163.1001
1003.481495 67.111 162.9288
1010.753136 67.094 162.7755
1018.077470 67.083 162.6288
1025.454879 67.076 162.4775
1032.885748 67.072 162.3130
1040.370463 67.071 162.1312
1047.909417 67.069 161.9328
1055.503000 67.065 161.7228
1063.151610 67.059 161.5091
1070.855645 67.049 161.3008
1078.615506 67.035 161.1078
1086.431599 67.018 160.9390
1094.304330 66.999 160.8013
1102.234110 66.978 160.6984
1110.221353 66.958 160.6301
1118.266475 66.940 160.5923
1126.369895 66.925 160.5778
1134.532035 66.913 160.5768
1142.753322 66.905 160.5794
1151.034184 66.900 160.5760
1159.375052 66.896 160.5593
1167.776361 66.893 160.5256
1176.238550 66.888 160.4747
1184.762060 66.881 160.4102
1193.347334 66.870 160.3385
1201.994821 66.855 160.2676
1210.704971 66.836 160.2067
1219.478238 66.814 160.1644
1228.315080 66.788 160.1484
1237.215957 66.761 160.1630
1246.181334 66.734 160.2091
1255.211678 66.708 160.2841
1264.307459 66.684 160.3829
1273.469152 66.662 160.4999
1282.697235 66.642 160.6302
1291.992188 66.624 160.7703
1301.354495 66.608 160.9181
1310.784647 66.594 161.0721
1320.283132 66.582 161.2307
1329.850448 66.573 161.3905
1339.487093 66.564 161.5473
1349.193569 66.558 161.6969
1358.970381 66.551 161.8361
1368.818041 66.544 161.9644
1378.737061 66.536 162.0848
1388.727958 66.525 162.2033
1398.791253 66.511 162.3279
1408.927471 66.495 162.4675
1419.137140 66.476 162.6296
1429.420793 66.456 162.8204
1439.778965 66.435 163.0449
1450.212197 66.414 163.3082
1460.721033 66.394 163.6154
1471.306019 66.375 163.9715
1481.967709 66.360 164.3808
1492.706658 66.349 164.8450
1503.523426 66.345 165.3615
1514.418576 66.347 165.9224
1525.392678 66.359 166.5154
1536.446302 66.379 167.1254
1547.580025 66.406 167.7366
1558.794428 66.441 168.3347
1570.090095 66.481 168.9076
1581.467615 66.525 169.4458
1592.927581 66.570 169.9423
1604.470591 66.616 170.3914
1616.097246 66.659 170.7894
1627.808153 66.698 171.1346
1639.603922 66.731 171.4295
1651.485168 66.755 171.6823
1663.452510 66.767 171.9072
1675.506573 66.768 172.1241
1687.647984 66.756 172.3562
1699.877377 66.731 172.6273
1712.195390 66.697 172.9599
1724.602663 66.655 173.3730
1737.099845 66.608 173.8799
1749.687587 66.561 174.4867
1762.366544 66.517 175.1917
1775.137379 66.480 175.9850
1788.000756 66.454 176.8490
1800.957346 66.439 177.7593
1814.007826 66.438 178.6869
1827.152874 66.449 179.6016
1840.393177 66.472 -179.5236
1853.729425 66.503 -178.7083
1867.162312 66.538 -177.9623
1880.692540 66.575 -177.2849
1894.320813 66.610 -176.6665
1908.047843 66.641 -176.0920
1921.874344 66.668 -175.5446
1935.801038 66.689 -175.0087
1949.828650 66.707 -174.4717
1963.957912 66.722 -173.9249
1978.189561 66.736 -173.3648
1992.524338 66.750 -172.7942
2006.962991 66.766 -172.2210
2021.506272 66.786 -171.6573
2036.154940 66.808 -171.1160
2050.909758 66.832 -170.6091
2065.771495 66.857 -170.1448
2080.740927 66.882 -169.7260
2095.818833 66.904 -169.3494
2111.006001 66.922 -169.0049
2126.303220 66.934 -168.6769
2141.711290 66.940 -168.3460
2157.231013 66.941 -167.9917
2172.863198 66.939 -167.5965
2188.608660 66.937 -167.1494
2204.468221 66.939 -166.6489
2220.442706 66.947 -166.1043
2236.532950 66.966 -165.5341
2252.739789 66.996 -164.9619
2269.064070 67.036 -164.4117
2285.506644 67.088 -163.9034
2302.068367 67.147 -163.4507
2318.750104 67.213 -163.0612
2335.552723 67.283 -162.7366
2352.477101 67.354 -162.4741
2369.524119 67.425 -162.2667
2386.694668 67.495 -162.1037
2403.989641 67.563 -161.9721
2421.409941 67.628 -161.8576
2438.956476 67.692 -161.7456
2456.630160 67.754 -161.6220
2474.431915 67.818 -161.4747
2492.362668 67.885 -161.2964
2510.423356 67.959 -161.0868
2528.614918 68.043 -160.8537
2546.938304 68.137 -160.6127
2565.394469 68.245 -160.3848
2583.984375 68.364 -160.1933
2602.708991 68.493 -160.0595
2621.569293 68.630 -159.9994
2640.566265 68.771 -160.0208
2659.700897 68.913 -160.1231
2678.974186 69.053 -160.2982
2698.387137 69.189 -160.5332
2717.940763 69.322 -160.8140
2737.636082 69.449 -161.1277
2757.474121 69.572 -161.4640
2777.455915 69.692 -161.8158
2797.582506 69.808 -162.1794
2817.854942 69.921 -162.5545
2838.274281 70.031 -162.9430
2858.841586 70.137 -163.3472
2879.557931 70.238 -163.7677
2900.424394 70.333 -164.2022
2921.442065 70.420 -164.6455
2942.612039 70.499 -165.0896
2963.935418 70.569 -165.5239
2985.413316 70.630 -165.9371
3007.046852 70.683 -166.3197
3028.837153 70.730 -166.6661
3050.785356 70.771 -166.9756
3072.892604 70.808 -167.2519
3095.160050 70.841 -167.5035
3117.588856 70.871 -167.7418
3140.180190 70.895 -167.9782
3162.935230 70.914 -168.2205
3185.855163 70.923 -168.4712
3208.941182 70.922 -168.7274
3232.194493 70.907 -168.9811
3255.616307 70.878 -169.2191
3279.207844 70.832 -169.4240
3302.970336 70.769 -169.5743
3326.905021 70.690 -169.6466
3351.013146 70.596 -169.6169
3375.295969 70.489 -169.4638
3399.754755 70.374 -169.1705
3424.390779 70.254 -168.7278
