* Measurement data measured by REW V5.31.3
* Source: EXCL: Headset (USB-C to 3.5mm Headphone Jack Adapter), MICROPHONE (Master Volume), 0, volume: 0.750
* Format: 256k Log Swept Sine, 1 sweep at -12.0 dBFS with no timing reference
* Dated: May 28, 2025 2:31:18 PM
* REW Settings:
*  C-weighting compensation: Off
*  Target level: 75.0 dB
* Note: ; 
* Measurement: Arya Stealth R3
* Smoothing: 1/6 octave
* Frequency Step: 96 ppo
* Start Frequency: 20.0 Hz
*
* Freq(Hz) SPL(dB) Phase(degrees)
20.187378 80.692 -140.2750
20.333664 80.709 -140.3707
20.481010 80.731 -140.4996
20.629424 80.759 -140.6586
20.778913 80.793 -140.8445
20.929486 80.833 -141.0544
21.081150 80.877 -141.2853
21.233912 80.926 -141.5347
21.387782 80.979 -141.8003
21.542767 81.035 -142.0798
21.698874 81.092 -142.3707
21.856113 81.150 -142.6705
22.014492 81.208 -142.9764
22.174018 81.265 -143.2855
22.334700 81.319 -143.5949
22.496546 81.371 -143.9016
22.659566 81.419 -144.2032
22.823766 81.462 -144.4977
22.989157 81.501 -144.7838
23.155745 81.536 -145.0612
23.323542 81.566 -145.3307
23.492554 81.592 -145.5938
23.662790 81.614 -145.8530
23.834261 81.631 -146.1111
24.006973 81.645 -146.3713
24.180938 81.654 -146.6362
24.356163 81.660 -146.9078
24.532658 81.662 -147.1874
24.710431 81.660 -147.4746
24.889493 81.654 -147.7682
25.069853 81.644 -148.0658
25.251519 81.630 -148.3643
25.434502 81.613 -148.6604
25.618811 81.593 -148.9508
25.804456 81.572 -149.2331
25.991445 81.549 -149.5061
26.179790 81.526 -149.7698
26.369500 81.504 -150.0252
26.560584 81.483 -150.2747
26.753053 81.464 -150.5211
26.946917 81.447 -150.7675
27.142185 81.433 -151.0164
27.338869 81.421 -151.2693
27.536977 81.411 -151.5270
27.736522 81.403 -151.7886
27.937512 81.396 -152.0526
28.139959 81.391 -152.3167
28.343872 81.388 -152.5786
28.549264 81.385 -152.8360
28.756143 81.384 -153.0876
28.964522 81.384 -153.3329
29.174411 81.384 -153.5721
29.385821 81.385 -153.8063
29.598763 81.387 -154.0367
29.813248 81.388 -154.2648
30.029287 81.390 -154.4918
30.246891 81.392 -154.7184
30.466073 81.394 -154.9450
30.686842 81.396 -155.1718
30.909212 81.400 -155.3986
31.133193 81.406 -155.6257
31.358797 81.416 -155.8533
31.586035 81.429 -156.0819
31.814921 81.447 -156.3122
32.045465 81.470 -156.5445
32.277680 81.499 -156.7788
32.511577 81.532 -157.0146
32.747169 81.571 -157.2504
32.984469 81.613 -157.4845
33.223488 81.659 -157.7146
33.464239 81.708 -157.9386
33.706735 81.759 -158.1549
33.950987 81.811 -158.3625
34.197010 81.865 -158.5610
34.444816 81.919 -158.7512
34.694417 81.975 -158.9343
34.945827 82.030 -159.1116
35.199059 82.086 -159.2845
35.454126 82.142 -159.4542
35.711041 82.198 -159.6214
35.969818 82.254 -159.7863
36.230470 82.311 -159.9488
36.493011 82.367 -160.1089
36.757455 82.424 -160.2661
37.023814 82.480 -160.4202
37.292104 82.535 -160.5711
37.562338 82.590 -160.7187
37.834530 82.643 -160.8631
38.108695 82.695 -161.0045
38.384846 82.745 -161.1435
38.662999 82.793 -161.2808
38.943167 82.840 -161.4177
39.225365 82.884 -161.5555
39.509608 82.926 -161.6953
39.795911 82.967 -161.8382
40.084289 83.005 -161.9846
40.374756 83.041 -162.1344
40.667328 83.075 -162.2869
40.962020 83.107 -162.4412
41.258848 83.136 -162.5965
41.557827 83.164 -162.7526
41.858972 83.190 -162.9096
42.162299 83.215 -163.0687
42.467824 83.239 -163.2311
42.775564 83.262 -163.3984
43.085533 83.285 -163.5717
43.397749 83.307 -163.7517
43.712227 83.328 -163.9385
44.028983 83.348 -164.1318
44.348036 83.368 -164.3311
44.669400 83.386 -164.5355
44.993093 83.405 -164.7443
45.319131 83.422 -164.9561
45.647532 83.438 -165.1695
45.978313 83.454 -165.3826
46.311491 83.469 -165.5935
46.647083 83.484 -165.8003
46.985107 83.498 -166.0016
47.325581 83.511 -166.1968
47.668521 83.523 -166.3857
48.013947 83.535 -166.5686
48.361876 83.546 -166.7456
48.712326 83.555 -166.9168
49.065315 83.564 -167.0816
49.420863 83.571 -167.2392
49.778987 83.578 -167.3883
50.139706 83.585 -167.5279
50.503039 83.591 -167.6573
50.869005 83.596 -167.7769
51.237623 83.602 -167.8882
51.608912 83.607 -167.9948
51.982891 83.611 -168.1018
52.359580 83.614 -168.2157
52.739000 83.615 -168.3432
53.121168 83.615 -168.4901
53.506106 83.612 -168.6604
53.893833 83.607 -168.8553
54.284370 83.599 -169.0736
54.677737 83.590 -169.3123
55.073955 83.580 -169.5675
55.473043 83.570 -169.8353
55.875024 83.559 -170.1132
56.279917 83.550 -170.3997
56.687745 83.541 -170.6943
57.098527 83.534 -170.9967
57.512287 83.528 -171.3056
57.929045 83.524 -171.6174
58.348822 83.522 -171.9260
58.771642 83.522 -172.2221
59.197525 83.525 -172.4946
59.626495 83.530 -172.7332
60.058573 83.539 -172.9308
60.493782 83.551 -173.0863
60.932145 83.566 -173.2042
61.373685 83.584 -173.2944
61.818424 83.606 -173.3685
62.266386 83.631 -173.4377
62.717593 83.658 -173.5106
63.172071 83.687 -173.5928
63.629842 83.718 -173.6866
64.090930 83.750 -173.7926
64.555359 83.783 -173.9097
65.023154 83.817 -174.0365
65.494339 83.850 -174.1716
65.968938 83.882 -174.3138
66.446976 83.914 -174.4623
66.928478 83.945 -174.6165
67.413469 83.975 -174.7760
67.901975 84.004 -174.9400
68.394021 84.032 -175.1080
68.889632 84.058 -175.2790
69.388835 84.083 -175.4523
69.891655 84.106 -175.6271
70.398118 84.127 -175.8029
70.908252 84.147 -175.9790
71.422083 84.165 -176.1546
71.939636 84.181 -176.3288
72.460941 84.196 -176.5010
72.986023 84.209 -176.6702
73.514909 84.220 -176.8361
74.047629 84.230 -176.9982
74.584208 84.239 -177.1566
75.124676 84.245 -177.3115
75.669061 84.251 -177.4637
76.217390 84.254 -177.6141
76.769692 84.256 -177.7636
77.325997 84.256 -177.9132
77.886333 84.254 -178.0634
78.450730 84.250 -178.2146
79.019216 84.244 -178.3669
79.591822 84.237 -178.5201
80.168577 84.229 -178.6742
80.749512 84.220 -178.8292
81.334656 84.211 -178.9850
81.924040 84.202 -179.1413
82.517696 84.192 -179.2979
83.115653 84.184 -179.4547
83.717943 84.176 -179.6120
84.324598 84.169 -179.7704
84.935649 84.164 -179.9312
85.551128 84.159 179.9046
86.171066 84.154 179.7359
86.795497 84.151 179.5619
87.424453 84.148 179.3822
88.057967 84.145 179.1966
88.696071 84.142 179.0051
89.338800 84.138 178.8078
89.986185 84.134 178.6048
90.638262 84.130 178.3960
91.295065 84.125 178.1814
91.956626 84.119 177.9609
92.622982 84.112 177.7343
93.294166 84.104 177.5015
93.970214 84.096 177.2624
94.651161 84.087 177.0174
95.337042 84.077 176.7673
96.027894 84.066 176.5130
96.723752 84.054 176.2560
97.424652 84.042 175.9980
98.130631 84.028 175.7404
98.841726 84.014 175.4846
99.557974 83.999 175.2321
100.279412 83.985 174.9834
101.006078 83.970 174.7393
101.738010 83.955 174.4999
102.475245 83.940 174.2655
103.217823 83.926 174.0367
103.965782 83.911 173.8137
104.719161 83.897 173.5972
105.477999 83.883 173.3871
106.242336 83.868 173.1833
107.012212 83.853 172.9850
107.787666 83.838 172.7913
108.568740 83.823 172.6015
109.355474 83.808 172.4145
110.147909 83.794 172.2296
110.946086 83.780 172.0465
111.750047 83.767 171.8654
112.559834 83.755 171.6866
113.375489 83.743 171.5111
114.197055 83.732 171.3397
115.024574 83.723 171.1731
115.858089 83.714 171.0121
116.697645 83.706 170.8571
117.543284 83.698 170.7088
118.395051 83.692 170.5674
119.252990 83.686 170.4333
120.117147 83.681 170.3064
120.987565 83.676 170.1862
121.864291 83.672 170.0712
122.747370 83.667 169.9596
123.636848 83.663 169.8489
124.532771 83.658 169.7366
125.435187 83.653 169.6208
126.344142 83.648 169.5002
127.259684 83.642 169.3741
128.181860 83.635 169.2425
129.110718 83.627 169.1055
130.046308 83.617 168.9632
130.988677 83.606 168.8157
131.937875 83.594 168.6630
132.893951 83.579 168.5049
133.856956 83.561 168.3414
134.826938 83.541 168.1727
135.803950 83.518 167.9998
136.788041 83.493 167.8236
137.779264 83.465 167.6460
138.777669 83.434 167.4686
139.783309 83.401 167.2932
140.796237 83.365 167.1215
141.816504 83.327 166.9549
142.844165 83.287 166.7947
143.879273 83.246 166.6422
144.921881 83.202 166.4986
145.972045 83.156 166.3654
147.029819 83.109 166.2439
148.095257 83.060 166.1354
149.168417 83.010 166.0409
150.249353 82.958 165.9615
151.338121 82.905 165.8981
152.434780 82.851 165.8516
153.539385 82.796 165.8228
154.651995 82.741 165.8124
155.772667 82.686 165.8209
156.901460 82.631 165.8485
158.038432 82.577 165.8952
159.183644 82.524 165.9608
160.337154 82.473 166.0449
161.499023 82.424 166.1470
162.669312 82.378 166.2663
163.848081 82.334 166.4014
165.035392 82.292 166.5502
166.231306 82.254 166.7110
167.435887 82.219 166.8815
168.649196 82.186 167.0601
169.871298 82.157 167.2449
171.102255 82.130 167.4344
172.342133 82.105 167.6268
173.590995 82.083 167.8204
174.848907 82.063 168.0139
176.115934 82.045 168.2058
177.392143 82.030 168.3951
178.677599 82.016 168.5809
179.972371 82.004 168.7622
181.276525 81.995 168.9386
182.590129 81.988 169.1094
183.913252 81.983 169.2744
185.245964 81.979 169.4333
186.588332 81.977 169.5859
187.940428 81.977 169.7316
189.302322 81.977 169.8692
190.674085 81.979 169.9977
192.055788 81.981 170.1158
193.447503 81.984 170.2227
194.849303 81.987 170.3182
196.261262 81.991 170.4027
197.683452 81.996 170.4768
199.115948 82.000 170.5411
200.558824 82.006 170.5963
202.012156 82.011 170.6430
203.476019 82.018 170.6815
204.950490 82.024 170.7120
206.435646 82.031 170.7342
207.931564 82.038 170.7476
209.438322 82.046 170.7518
210.955998 82.053 170.7468
212.484672 82.060 170.7329
214.024424 82.068 170.7108
215.575333 82.075 170.6812
217.137481 82.083 170.6450
218.710948 82.091 170.6033
220.295818 82.099 170.5568
221.892172 82.108 170.5063
223.500094 82.117 170.4520
225.119668 82.127 170.3944
226.750978 82.139 170.3335
228.394109 82.151 170.2692
230.049147 82.164 170.2016
231.716178 82.179 170.1306
233.395289 82.194 170.0561
235.086567 82.211 169.9782
236.790102 82.228 169.8969
238.505980 82.246 169.8120
240.234293 82.265 169.7231
241.975130 82.285 169.6297
243.728581 82.306 169.5310
245.494739 82.327 169.4267
247.273695 82.349 169.3165
249.065542 82.371 169.2003
250.870374 82.393 169.0785
252.688284 82.415 168.9509
254.519367 82.436 168.8176
256.363720 82.458 168.6780
258.221437 82.479 168.5316
260.092616 82.500 168.3780
261.977354 82.521 168.2168
263.875750 82.540 168.0474
265.787903 82.560 167.8690
267.713911 82.579 167.6805
269.653877 82.597 167.4805
271.607900 82.616 167.2676
273.576083 82.633 167.0406
275.558528 82.650 166.7990
277.555338 82.666 166.5423
279.566619 82.680 166.2709
281.592474 82.693 165.9853
283.633009 82.703 165.6862
285.688331 82.711 165.3749
287.758546 82.717 165.0535
289.843763 82.720 164.7239
291.944090 82.719 164.3887
294.059638 82.715 164.0502
296.190515 82.707 163.7108
298.336833 82.695 163.3730
300.498705 82.678 163.0398
302.676243 82.656 162.7148
304.869559 82.628 162.4026
307.078770 82.595 162.1085
309.303989 82.556 161.8382
311.545334 82.513 161.5979
313.802919 82.465 161.3934
316.076865 82.413 161.2303
318.367288 82.359 161.1135
320.674309 82.303 161.0463
322.998047 82.246 161.0313
325.338624 82.189 161.0692
327.696162 82.134 161.1595
330.070783 82.080 161.3000
332.462612 82.030 161.4876
334.871773 81.983 161.7182
337.298392 81.941 161.9868
339.742595 81.904 162.2879
342.204510 81.872 162.6152
344.684265 81.846 162.9622
347.181989 81.825 163.3220
349.697813 81.810 163.6881
352.231868 81.801 164.0540
354.784285 81.797 164.4135
357.355198 81.798 164.7614
359.944741 81.805 165.0928
362.553049 81.816 165.4036
365.180258 81.832 165.6903
367.826505 81.851 165.9506
370.491927 81.873 166.1826
373.176665 81.898 166.3855
375.880856 81.925 166.5586
378.604644 81.953 166.7021
381.348169 81.982 166.8167
384.111575 82.011 166.9034
386.895006 82.040 166.9641
389.698607 82.068 167.0007
392.522524 82.094 167.0156
395.366904 82.120 167.0115
398.231895 82.143 166.9910
401.117648 82.165 166.9568
404.024312 82.185 166.9114
406.952038 82.204 166.8573
409.900981 82.221 166.7966
412.871292 82.237 166.7308
415.863128 82.252 166.6606
418.876643 82.267 166.5856
421.911996 82.281 166.5046
424.969344 82.295 166.4150
428.048847 82.309 166.3135
431.150666 82.323 166.1961
434.274961 82.337 166.0587
437.421897 82.351 165.8971
440.591636 82.365 165.7073
443.784345 82.378 165.4855
447.000189 82.391 165.2283
450.239337 82.401 164.9326
453.501956 82.410 164.5957
456.788219 82.416 164.2158
460.098294 82.418 163.7916
463.432356 82.416 163.3227
466.790578 82.408 162.8101
470.173135 82.394 162.2560
473.580203 82.372 161.6646
477.011961 82.340 161.0421
480.468586 82.298 160.3969
483.950259 82.244 159.7395
487.457163 82.177 159.0826
490.989478 82.096 158.4407
494.547390 82.002 157.8302
498.131084 81.893 157.2688
501.740748 81.772 156.7750
505.376568 81.640 156.3671
509.038735 81.498 156.0623
512.727439 81.349 155.8752
516.442874 81.196 155.8166
520.185232 81.043 155.8925
523.954708 80.894 156.1033
527.751500 80.753 156.4432
531.575805 80.624 156.9008
535.427822 80.509 157.4593
539.307753 80.412 158.0984
543.215800 80.333 158.7957
547.152165 80.274 159.5281
551.117055 80.235 160.2733
555.110677 80.215 161.0111
559.133237 80.214 161.7236
563.184947 80.229 162.3961
567.266018 80.259 163.0165
571.376661 80.302 163.5758
575.517092 80.354 164.0675
579.687526 80.415 164.4883
583.888181 80.481 164.8376
588.119275 80.550 165.1174
592.381030 80.620 165.3312
596.673667 80.690 165.4843
600.997410 80.758 165.5826
605.352485 80.824 165.6320
609.739119 80.887 165.6381
614.157540 80.947 165.6057
618.607979 81.003 165.5381
623.090667 81.055 165.4374
627.605839 81.105 165.3044
632.153730 81.151 165.1390
636.734576 81.193 164.9404
641.348617 81.232 164.7071
645.996094 81.267 164.4368
650.677248 81.296 164.1271
655.392323 81.320 163.7760
660.141566 81.337 163.3832
664.925224 81.345 162.9511
669.743546 81.343 162.4854
674.596784 81.329 161.9951
679.485191 81.302 161.4926
684.409020 81.261 160.9924
689.368530 81.205 160.5110
694.363979 81.135 160.0660
699.395626 81.050 159.6756
704.463736 80.952 159.3578
709.568570 80.843 159.1302
714.710396 80.724 159.0085
719.889483 80.599 159.0053
725.106099 80.470 159.1278
730.360516 80.343 159.3763
735.653010 80.220 159.7433
740.983855 80.104 160.2142
746.353329 80.000 160.7699
751.761713 79.908 161.3887
757.209288 79.830 162.0488
762.696339 79.766 162.7295
768.223151 79.717 163.4122
773.790013 79.680 164.0807
779.397214 79.656 164.7216
785.045047 79.644 165.3245
790.733808 79.642 165.8818
796.463791 79.649 166.3881
802.235296 79.664 166.8395
808.048623 79.686 167.2327
813.904077 79.714 167.5647
819.801961 79.747 167.8325
825.742584 79.785 168.0339
831.726255 79.825 168.1677
837.753287 79.866 168.2346
843.823992 79.909 168.2365
849.938689 79.950 168.1761
856.097695 79.990 168.0565
862.301332 80.028 167.8801
868.549922 80.063 167.6492
874.843793 80.093 167.3654
881.183272 80.118 167.0312
887.568689 80.137 166.6497
894.000378 80.149 166.2258
900.478673 80.151 165.7662
907.003913 80.143 165.2797
913.576437 80.124 164.7777
920.196588 80.092 164.2751
926.864712 80.048 163.7896
933.581156 79.990 163.3417
940.346270 79.921 162.9533
947.160407 79.841 162.6448
954.023921 79.755 162.4325
960.937172 79.666 162.3261
967.900519 79.578 162.3273
974.914325 79.496 162.4297
981.978956 79.422 162.6204
989.094780 79.359 162.8820
996.262169 79.310 163.1954
1003.481495 79.273 163.5421
1010.753136 79.250 163.9062
1018.077470 79.240 164.2758
1025.454879 79.242 164.6425
1032.885748 79.254 165.0001
1040.370463 79.277 165.3431
1047.909417 79.311 165.6652
1055.503000 79.354 165.9577
1063.151610 79.406 166.2102
1070.855645 79.467 166.4109
1078.615506 79.533 166.5482
1086.431599 79.602 166.6124
1094.304330 79.673 166.5979
1102.234110 79.741 166.5040
1110.221353 79.803 166.3358
1118.266475 79.857 166.1034
1126.369895 79.901 165.8214
1134.532035 79.933 165.5073
1142.753322 79.952 165.1815
1151.034184 79.959 164.8650
1159.375052 79.953 164.5789
1167.776361 79.937 164.3426
1176.238550 79.912 164.1718
1184.762060 79.884 164.0775
1193.347334 79.853 164.0640
1201.994821 79.825 164.1284
1210.704971 79.802 164.2603
1219.478238 79.787 164.4431
1228.315080 79.781 164.6561
1237.215957 79.784 164.8765
1246.181334 79.796 165.0832
1255.211678 79.815 165.2594
1264.307459 79.837 165.3948
1273.469152 79.862 165.4859
1282.697235 79.884 165.5356
1291.992188 79.904 165.5523
1301.354495 79.920 165.5476
1310.784647 79.930 165.5341
1320.283132 79.936 165.5229
1329.850448 79.938 165.5224
1339.487093 79.937 165.5370
1349.193569 79.934 165.5686
1358.970381 79.929 165.6180
1368.818041 79.923 165.6859
1378.737061 79.916 165.7740
1388.727958 79.909 165.8845
1398.791253 79.902 166.0208
1408.927471 79.896 166.1864
1419.137140 79.891 166.3843
1429.420793 79.890 166.6152
1439.778965 79.894 166.8767
1450.212197 79.904 167.1635
1460.721033 79.921 167.4667
1471.306019 79.945 167.7744
1481.967709 79.975 168.0723
1492.706658 80.012 168.3458
1503.523426 80.052 168.5838
1514.418576 80.093 168.7799
1525.392678 80.132 168.9338
1536.446302 80.167 169.0505
1547.580025 80.196 169.1388
1558.794428 80.216 169.2103
1570.090095 80.227 169.2785
1581.467615 80.229 169.3575
1592.927581 80.220 169.4611
1604.470591 80.202 169.6024
1616.097246 80.176 169.7928
1627.808153 80.142 170.0418
1639.603922 80.102 170.3572
1651.485168 80.057 170.7454
1663.452510 80.011 171.2107
1675.506573 79.964 171.7546
1687.647984 79.921 172.3742
1699.877377 79.882 173.0614
1712.195390 79.851 173.8033
1724.602663 79.829 174.5826
1737.099845 79.817 175.3790
1749.687587 79.815 176.1709
1762.366544 79.823 176.9387
1775.137379 79.839 177.6664
1788.000756 79.860 178.3429
1800.957346 79.885 178.9622
1814.007826 79.911 179.5233
1827.152874 79.936 -179.9706
1840.393177 79.958 -179.5127
1853.729425 79.976 -179.0938
1867.162312 79.987 -178.7021
1880.692540 79.992 -178.3250
1894.320813 79.989 -177.9494
1908.047843 79.980 -177.5630
1921.874344 79.965 -177.1547
1935.801038 79.945 -176.7154
1949.828650 79.921 -176.2397
1963.957912 79.896 -175.7253
1978.189561 79.870 -175.1740
1992.524338 79.847 -174.5909
2006.962991 79.826 -173.9844
2021.506272 79.810 -173.3660
2036.154940 79.800 -172.7505
2050.909758 79.795 -172.1547
2065.771495 79.796 -171.5950
2080.740927 79.801 -171.0855
2095.818833 79.807 -170.6344
2111.006001 79.812 -170.2430
2126.303220 79.815 -169.9057
2141.711290 79.812 -169.6110
2157.231013 79.803 -169.3427
2172.863198 79.787 -169.0826
2188.608660 79.764 -168.8121
2204.468221 79.735 -168.5150
2220.442706 79.702 -168.1792
2236.532950 79.668 -167.7979
2252.739789 79.634 -167.3689
2269.064070 79.602 -166.8936
2285.506644 79.575 -166.3755
2302.068367 79.553 -165.8193
2318.750104 79.538 -165.2312
2335.552723 79.531 -164.6185
2352.477101 79.533 -163.9899
2369.524119 79.545 -163.3552
2386.694668 79.567 -162.7253
2403.989641 79.600 -162.1119
2421.409941 79.642 -161.5265
2438.956476 79.694 -160.9790
2456.630160 79.753 -160.4757
2474.431915 79.817 -160.0183
2492.362668 79.886 -159.6037
2510.423356 79.958 -159.2246
2528.614918 80.033 -158.8708
2546.938304 80.110 -158.5322
2565.394469 80.190 -158.2012
2583.984375 80.275 -157.8745
2602.708991 80.364 -157.5529
2621.569293 80.460 -157.2394
2640.566265 80.561 -156.9373
2659.700897 80.668 -156.6492
2678.974186 80.781 -156.3772
2698.387137 80.901 -156.1243
2717.940763 81.026 -155.8955
2737.636082 81.158 -155.6978
2757.474121 81.294 -155.5396
2777.455915 81.434 -155.4288
2797.582506 81.575 -155.3706
2817.854942 81.717 -155.3666
2838.274281 81.856 -155.4142
2858.841586 81.991 -155.5072
2879.557931 82.122 -155.6370
2900.424394 82.248 -155.7942
2921.442065 82.367 -155.9702
2942.612039 82.481 -156.1581
2963.935418 82.590 -156.3541
2985.413316 82.695 -156.5576
3007.046852 82.794 -156.7710
3028.837153 82.888 -156.9979
3050.785356 82.977 -157.2422
3072.892604 83.058 -157.5063
3095.160050 83.131 -157.7920
3117.588856 83.194 -158.0999
3140.180190 83.247 -158.4301
3162.935230 83.286 -158.7811
3185.855163 83.312 -159.1479
3208.941182 83.320 -159.5216
3232.194493 83.311 -159.8892
3255.616307 83.283 -160.2344
3279.207844 83.236 -160.5393
3302.970336 83.170 -160.7858
3326.905021 83.086 -160.9560
3351.013146 82.985 -161.0320
3375.295969 82.867 -160.9935
3399.754755 82.736 -160.8159
3424.390779 82.591 -160.4696
3449.205326 82.438 -159.9207
