* Measurement data measured by REW V5.31.3
* Source: EXCL: Headset (USB-C to 3.5mm Headphone Jack Adapter), MICROPHONE (Master Volume), 0, volume: 0.750
* Format: 256k Log Swept Sine, 1 sweep at -12.0 dBFS with no timing reference
* Dated: May 28, 2025 2:31:49 PM
* REW Settings:
*  C-weighting compensation: Off
*  Target level: 75.0 dB
* Note: ; 
* Measurement: Arya Stealth R4
* Smoothing: 1/6 octave
* Frequency Step: 96 ppo
* Start Frequency: 20.0 Hz
*
* Freq(Hz) SPL(dB) Phase(degrees)
20.187378 81.144 -144.6653
20.333664 81.155 -144.7666
20.481010 81.171 -144.9018
20.629424 81.192 -145.0662
20.778913 81.218 -145.2550
20.929486 81.250 -145.4644
21.081150 81.288 -145.6914
21.233912 81.332 -145.9343
21.387782 81.382 -146.1926
21.542767 81.436 -146.4663
21.698874 81.496 -146.7559
21.856113 81.559 -147.0620
22.014492 81.624 -147.3845
22.174018 81.689 -147.7226
22.334700 81.754 -148.0746
22.496546 81.816 -148.4375
22.659566 81.875 -148.8074
22.823766 81.929 -149.1797
22.989157 81.977 -149.5491
23.155745 82.019 -149.9101
23.323542 82.054 -150.2577
23.492554 82.082 -150.5874
23.662790 82.103 -150.8958
23.834261 82.118 -151.1807
24.006973 82.127 -151.4416
24.180938 82.130 -151.6792
24.356163 82.129 -151.8959
24.532658 82.124 -152.0953
24.710431 82.115 -152.2819
24.889493 82.103 -152.4608
25.069853 82.088 -152.6373
25.251519 82.071 -152.8167
25.434502 82.052 -153.0040
25.618811 82.031 -153.2034
25.804456 82.008 -153.4181
25.991445 81.985 -153.6508
26.179790 81.960 -153.9030
26.369500 81.935 -154.1749
26.560584 81.909 -154.4661
26.753053 81.883 -154.7750
26.946917 81.858 -155.0990
27.142185 81.833 -155.4347
27.338869 81.809 -155.7782
27.536977 81.787 -156.1250
27.736522 81.767 -156.4707
27.937512 81.748 -156.8109
28.139959 81.732 -157.1420
28.343872 81.718 -157.4610
28.549264 81.707 -157.7661
28.756143 81.698 -158.0567
28.964522 81.692 -158.3332
29.174411 81.689 -158.5972
29.385821 81.688 -158.8506
29.598763 81.689 -159.0959
29.813248 81.692 -159.3353
30.029287 81.697 -159.5709
30.246891 81.704 -159.8041
30.466073 81.713 -160.0357
30.686842 81.723 -160.2661
30.909212 81.736 -160.4949
31.133193 81.752 -160.7220
31.358797 81.770 -160.9469
31.586035 81.791 -161.1693
31.814921 81.816 -161.3893
32.045465 81.843 -161.6070
32.277680 81.874 -161.8225
32.511577 81.909 -162.0360
32.747169 81.946 -162.2475
32.984469 81.985 -162.4568
33.223488 82.027 -162.6634
33.464239 82.071 -162.8668
33.706735 82.116 -163.0663
33.950987 82.163 -163.2617
34.197010 82.211 -163.4529
34.444816 82.261 -163.6405
34.694417 82.313 -163.8254
34.945827 82.365 -164.0092
35.199059 82.419 -164.1935
35.454126 82.474 -164.3796
35.711041 82.529 -164.5686
35.969818 82.584 -164.7607
36.230470 82.638 -164.9552
36.493011 82.692 -165.1508
36.757455 82.745 -165.3455
37.023814 82.797 -165.5373
37.292104 82.849 -165.7245
37.562338 82.899 -165.9061
37.834530 82.949 -166.0821
38.108695 82.998 -166.2530
38.384846 83.047 -166.4201
38.662999 83.094 -166.5849
38.943167 83.140 -166.7487
39.225365 83.184 -166.9124
39.509608 83.225 -167.0764
39.795911 83.265 -167.2408
40.084289 83.301 -167.4057
40.374756 83.336 -167.5711
40.667328 83.368 -167.7375
40.962020 83.398 -167.9056
41.258848 83.427 -168.0760
41.557827 83.455 -168.2493
41.858972 83.482 -168.4256
42.162299 83.508 -168.6043
42.467824 83.533 -168.7845
42.775564 83.557 -168.9651
43.085533 83.581 -169.1451
43.397749 83.604 -169.3240
43.712227 83.627 -169.5022
44.028983 83.648 -169.6806
44.348036 83.669 -169.8611
44.669400 83.689 -170.0455
44.993093 83.707 -170.2359
45.319131 83.724 -170.4335
45.647532 83.740 -170.6392
45.978313 83.755 -170.8528
46.311491 83.769 -171.0731
46.647083 83.782 -171.2986
46.985107 83.796 -171.5271
47.325581 83.809 -171.7566
47.668521 83.824 -171.9852
48.013947 83.838 -172.2119
48.361876 83.854 -172.4364
48.712326 83.870 -172.6590
49.065315 83.886 -172.8807
49.420863 83.904 -173.1025
49.778987 83.921 -173.3247
50.139706 83.938 -173.5464
50.503039 83.954 -173.7656
50.869005 83.970 -173.9796
51.237623 83.984 -174.1857
51.608912 83.997 -174.3823
51.982891 84.007 -174.5692
52.359580 84.016 -174.7478
52.739000 84.021 -174.9205
53.121168 84.024 -175.0905
53.506106 84.024 -175.2608
53.893833 84.021 -175.4343
54.284370 84.017 -175.6138
54.677737 84.011 -175.8015
55.073955 84.006 -175.9996
55.473043 84.000 -176.2092
55.875024 83.996 -176.4310
56.279917 83.994 -176.6647
56.687745 83.995 -176.9095
57.098527 83.998 -177.1637
57.512287 84.005 -177.4255
57.929045 84.016 -177.6922
58.348822 84.029 -177.9610
58.771642 84.044 -178.2282
59.197525 84.060 -178.4895
59.626495 84.074 -178.7401
60.058573 84.087 -178.9762
60.493782 84.097 -179.1952
60.932145 84.106 -179.3972
61.373685 84.114 -179.5854
61.818424 84.122 -179.7648
62.266386 84.131 -179.9411
62.717593 84.143 179.8810
63.172071 84.158 179.6986
63.629842 84.176 179.5108
64.090930 84.196 179.3179
64.555359 84.219 179.1210
65.023154 84.244 178.9215
65.494339 84.270 178.7207
65.968938 84.298 178.5195
66.446976 84.326 178.3189
66.928478 84.355 178.1196
67.413469 84.383 177.9221
67.901975 84.411 177.7267
68.394021 84.439 177.5329
68.889632 84.466 177.3403
69.388835 84.491 177.1476
69.891655 84.516 176.9539
70.398118 84.539 176.7582
70.908252 84.560 176.5601
71.422083 84.579 176.3596
71.939636 84.597 176.1570
72.460941 84.612 175.9531
72.986023 84.626 175.7486
73.514909 84.637 175.5442
74.047629 84.647 175.3407
74.584208 84.654 175.1389
75.124676 84.660 174.9397
75.669061 84.663 174.7435
76.217390 84.664 174.5506
76.769692 84.663 174.3610
77.325997 84.661 174.1745
77.886333 84.658 173.9904
78.450730 84.653 173.8079
79.019216 84.648 173.6264
79.591822 84.642 173.4451
80.168577 84.636 173.2635
80.749512 84.630 173.0809
81.334656 84.624 172.8969
81.924040 84.618 172.7111
82.517696 84.612 172.5228
83.115653 84.606 172.3316
83.717943 84.601 172.1370
84.324598 84.596 171.9384
84.935649 84.590 171.7357
85.551128 84.585 171.5287
86.171066 84.580 171.3170
86.795497 84.575 171.1003
87.424453 84.570 170.8778
88.057967 84.566 170.6488
88.696071 84.562 170.4124
89.338800 84.559 170.1674
89.986185 84.555 169.9132
90.638262 84.552 169.6494
91.295065 84.548 169.3762
91.956626 84.544 169.0944
92.622982 84.538 168.8052
93.294166 84.532 168.5099
93.970214 84.525 168.2098
94.651161 84.517 167.9060
95.337042 84.507 167.5991
96.027894 84.497 167.2899
96.723752 84.485 166.9792
97.424652 84.473 166.6681
98.130631 84.459 166.3576
98.841726 84.446 166.0489
99.557974 84.432 165.7428
100.279412 84.418 165.4402
101.006078 84.404 165.1415
101.738010 84.391 164.8471
102.475245 84.378 164.5569
103.217823 84.365 164.2708
103.965782 84.353 163.9879
104.719161 84.340 163.7070
105.477999 84.327 163.4263
106.242336 84.314 163.1445
107.012212 84.300 162.8608
107.787666 84.286 162.5759
108.568740 84.271 162.2918
109.355474 84.255 162.0113
110.147909 84.240 161.7374
110.946086 84.224 161.4728
111.750047 84.209 161.2191
112.559834 84.194 160.9775
113.375489 84.179 160.7484
114.197055 84.166 160.5317
115.024574 84.154 160.3270
115.858089 84.143 160.1330
116.697645 84.132 159.9482
117.543284 84.123 159.7701
118.395051 84.114 159.5964
119.252990 84.105 159.4245
120.117147 84.097 159.2520
120.987565 84.088 159.0775
121.864291 84.080 158.8998
122.747370 84.071 158.7187
123.636848 84.063 158.5341
124.532771 84.055 158.3460
125.435187 84.047 158.1546
126.344142 84.039 157.9600
127.259684 84.031 157.7624
128.181860 84.023 157.5618
129.110718 84.014 157.3582
130.046308 84.005 157.1517
130.988677 83.993 156.9422
131.937875 83.981 156.7298
132.893951 83.966 156.5147
133.856956 83.949 156.2971
134.826938 83.929 156.0765
135.803950 83.907 155.8529
136.788041 83.882 155.6259
137.779264 83.855 155.3956
138.777669 83.826 155.1629
139.783309 83.794 154.9289
140.796237 83.760 154.6953
141.816504 83.724 154.4638
142.844165 83.685 154.2363
143.879273 83.643 154.0148
144.921881 83.600 153.8011
145.972045 83.554 153.5974
147.029819 83.506 153.4055
148.095257 83.456 153.2270
149.168417 83.405 153.0633
150.249353 83.351 152.9155
151.338121 83.296 152.7847
152.434780 83.240 152.6719
153.539385 83.183 152.5779
154.651995 83.126 152.5035
155.772667 83.069 152.4487
156.901460 83.011 152.4132
158.038432 82.955 152.3961
159.183644 82.899 152.3959
160.337154 82.845 152.4108
161.499023 82.793 152.4392
162.669312 82.742 152.4797
163.848081 82.694 152.5310
165.035392 82.648 152.5923
166.231306 82.605 152.6633
167.435887 82.565 152.7431
168.649196 82.527 152.8312
169.871298 82.493 152.9266
171.102255 82.461 153.0282
172.342133 82.432 153.1348
173.590995 82.405 153.2455
174.848907 82.381 153.3598
176.115934 82.359 153.4772
177.392143 82.338 153.5977
178.677599 82.320 153.7208
179.972371 82.303 153.8457
181.276525 82.288 153.9709
182.590129 82.275 154.0947
183.913252 82.264 154.2155
185.245964 82.255 154.3317
186.588332 82.247 154.4418
187.940428 82.241 154.5447
189.302322 82.237 154.6391
190.674085 82.235 154.7236
192.055788 82.235 154.7970
193.447503 82.236 154.8580
194.849303 82.239 154.9057
196.261262 82.243 154.9394
197.683452 82.248 154.9590
199.115948 82.253 154.9648
200.558824 82.259 154.9571
202.012156 82.265 154.9368
203.476019 82.271 154.9049
204.950490 82.276 154.8628
206.435646 82.281 154.8121
207.931564 82.287 154.7544
209.438322 82.292 154.6906
210.955998 82.298 154.6211
212.484672 82.304 154.5460
214.024424 82.312 154.4648
215.575333 82.320 154.3772
217.137481 82.329 154.2823
218.710948 82.339 154.1797
220.295818 82.350 154.0691
221.892172 82.362 153.9506
223.500094 82.375 153.8247
225.119668 82.389 153.6920
226.750978 82.404 153.5534
228.394109 82.419 153.4098
230.049147 82.434 153.2617
231.716178 82.451 153.1097
233.395289 82.468 152.9542
235.086567 82.485 152.7953
236.790102 82.503 152.6332
238.505980 82.522 152.4676
240.234293 82.541 152.2985
241.975130 82.561 152.1255
243.728581 82.582 151.9484
245.494739 82.604 151.7672
247.273695 82.626 151.5816
249.065542 82.649 151.3912
250.870374 82.672 151.1953
252.688284 82.696 150.9933
254.519367 82.719 150.7845
256.363720 82.742 150.5686
258.221437 82.765 150.3455
260.092616 82.788 150.1155
261.977354 82.810 149.8791
263.875750 82.831 149.6364
265.787903 82.852 149.3875
267.713911 82.872 149.1314
269.653877 82.891 148.8668
271.607900 82.910 148.5917
273.576083 82.927 148.3043
275.558528 82.943 148.0023
277.555338 82.958 147.6841
279.566619 82.973 147.3487
281.592474 82.985 146.9957
283.633009 82.996 146.6252
285.688331 83.005 146.2384
287.758546 83.012 145.8365
289.843763 83.016 145.4215
291.944090 83.017 144.9955
294.059638 83.016 144.5611
296.190515 83.010 144.1213
298.336833 83.000 143.6795
300.498705 82.986 143.2402
302.676243 82.966 142.8081
304.869559 82.941 142.3886
307.078770 82.910 141.9870
309.303989 82.873 141.6086
311.545334 82.832 141.2584
313.802919 82.785 140.9411
316.076865 82.735 140.6610
318.367288 82.681 140.4222
320.674309 82.624 140.2281
322.998047 82.566 140.0818
325.338624 82.508 139.9857
327.696162 82.449 139.9411
330.070783 82.393 139.9479
332.462612 82.338 140.0043
334.871773 82.287 140.1071
337.298392 82.240 140.2516
339.742595 82.198 140.4323
342.204510 82.161 140.6432
344.684265 82.130 140.8782
347.181989 82.104 141.1309
349.697813 82.085 141.3947
352.231868 82.072 141.6634
354.784285 82.064 141.9310
357.355198 82.062 142.1917
359.944741 82.065 142.4400
362.553049 82.073 142.6713
365.180258 82.085 142.8814
367.826505 82.101 143.0670
370.491927 82.120 143.2256
373.176665 82.142 143.3553
375.880856 82.167 143.4549
378.604644 82.193 143.5239
381.348169 82.221 143.5625
384.111575 82.249 143.5716
386.895006 82.277 143.5523
389.698607 82.305 143.5061
392.522524 82.332 143.4347
395.366904 82.357 143.3402
398.231895 82.382 143.2252
401.117648 82.405 143.0925
404.024312 82.426 142.9454
406.952038 82.445 142.7870
409.900981 82.463 142.6199
412.871292 82.480 142.4464
415.863128 82.495 142.2679
418.876643 82.508 142.0853
421.911996 82.521 141.8984
424.969344 82.532 141.7068
428.048847 82.542 141.5086
431.150666 82.551 141.3012
434.274961 82.560 141.0806
437.421897 82.569 140.8422
440.591636 82.579 140.5807
443.784345 82.589 140.2910
447.000189 82.599 139.9682
450.239337 82.609 139.6079
453.501956 82.618 139.2065
456.788219 82.626 138.7610
460.098294 82.632 138.2690
463.432356 82.635 137.7297
466.790578 82.634 137.1429
470.173135 82.628 136.5099
473.580203 82.614 135.8340
477.011961 82.592 135.1195
480.468586 82.560 134.3735
483.950259 82.517 133.6052
487.457163 82.462 132.8259
490.989478 82.393 132.0496
494.547390 82.309 131.2919
498.131084 82.211 130.5705
501.740748 82.099 129.9038
505.376568 81.974 129.3105
509.038735 81.838 128.8088
512.727439 81.692 128.4147
516.442874 81.541 128.1417
520.185232 81.386 127.9991
523.954708 81.233 127.9912
527.751500 81.085 128.1172
531.575805 80.945 128.3698
535.427822 80.819 128.7365
539.307753 80.708 129.1996
543.215800 80.616 129.7380
547.152165 80.543 130.3284
551.117055 80.491 130.9471
555.110677 80.459 131.5715
559.133237 80.446 132.1813
563.184947 80.451 132.7593
567.266018 80.472 133.2915
571.376661 80.508 133.7671
575.517092 80.555 134.1784
579.687526 80.610 134.5210
583.888181 80.672 134.7932
588.119275 80.738 134.9962
592.381030 80.806 135.1328
596.673667 80.875 135.2075
600.997410 80.942 135.2256
605.352485 81.008 135.1926
609.739119 81.072 135.1143
614.157540 81.132 134.9957
618.607979 81.190 134.8410
623.090667 81.245 134.6533
627.605839 81.296 134.4344
632.153730 81.345 134.1852
636.734576 81.390 133.9050
641.348617 81.432 133.5921
645.996094 81.471 133.2435
650.677248 81.506 132.8557
655.392323 81.535 132.4250
660.141566 81.559 131.9496
664.925224 81.574 131.4297
669.743546 81.580 130.8692
674.596784 81.576 130.2753
679.485191 81.559 129.6583
684.409020 81.528 129.0309
689.368530 81.484 128.4082
694.363979 81.424 127.8062
699.395626 81.350 127.2428
704.463736 81.261 126.7363
709.568570 81.158 126.3058
714.710396 81.044 125.9697
719.889483 80.920 125.7446
725.106099 80.790 125.6425
730.360516 80.658 125.6693
735.653010 80.527 125.8224
740.983855 80.402 126.0920
746.353329 80.287 126.4612
751.761713 80.183 126.9095
757.209288 80.094 127.4146
762.696339 80.019 127.9543
768.223151 79.960 128.5080
773.790013 79.915 129.0571
779.397214 79.884 129.5864
785.045047 79.866 130.0842
790.733808 79.860 130.5421
796.463791 79.864 130.9542
802.235296 79.876 131.3160
808.048623 79.898 131.6240
813.904077 79.926 131.8746
819.801961 79.960 132.0640
825.742584 80.000 132.1893
831.726255 80.044 132.2483
837.753287 80.091 132.2405
843.823992 80.140 132.1664
849.938689 80.189 132.0269
856.097695 80.239 131.8229
862.301332 80.288 131.5547
868.549922 80.336 131.2221
874.843793 80.380 130.8248
881.183272 80.420 130.3633
887.568689 80.454 129.8392
894.000378 80.481 129.2567
900.478673 80.498 128.6223
907.003913 80.504 127.9453
913.576437 80.498 127.2387
920.196588 80.477 126.5193
926.864712 80.441 125.8074
933.581156 80.389 125.1262
940.346270 80.324 124.5005
947.160407 80.246 123.9540
954.023921 80.159 123.5065
960.937172 80.067 123.1712
967.900519 79.975 122.9528
974.914325 79.887 122.8471
981.978956 79.808 122.8421
989.094780 79.740 122.9196
996.262169 79.685 123.0582
1003.481495 79.646 123.2364
1010.753136 79.621 123.4347
1018.077470 79.610 123.6381
1025.454879 79.612 123.8358
1032.885748 79.626 124.0208
1040.370463 79.650 124.1872
1047.909417 79.686 124.3296
1055.503000 79.731 124.4407
1063.151610 79.786 124.5112
1070.855645 79.849 124.5305
1078.615506 79.918 124.4871
1086.431599 79.992 124.3709
1094.304330 80.067 124.1747
1102.234110 80.141 123.8957
1110.221353 80.209 123.5373
1118.266475 80.269 123.1084
1126.369895 80.318 122.6232
1134.532035 80.355 122.0994
1142.753322 80.379 121.5568
1151.034184 80.388 121.0160
1159.375052 80.385 120.4971
1167.776361 80.371 120.0182
1176.238550 80.348 119.5939
1184.762060 80.320 119.2345
1193.347334 80.288 118.9447
1201.994821 80.257 118.7230
1210.704971 80.229 118.5617
1219.478238 80.206 118.4476
1228.315080 80.190 118.3627
1237.215957 80.182 118.2872
1246.181334 80.180 118.2023
1255.211678 80.183 118.0936
1264.307459 80.188 117.9527
1273.469152 80.193 117.7785
1282.697235 80.195 117.5758
1291.992188 80.193 117.3546
1301.354495 80.185 117.1275
1310.784647 80.172 116.9078
1320.283132 80.154 116.7063
1329.850448 80.132 116.5301
1339.487093 80.108 116.3814
1349.193569 80.082 116.2590
1358.970381 80.056 116.1602
1368.818041 80.030 116.0827
1378.737061 80.003 116.0258
1388.727958 79.977 115.9902
1398.791253 79.950 115.9789
1408.927471 79.925 115.9957
1419.137140 79.901 116.0449
1429.420793 79.881 116.1292
1439.778965 79.864 116.2484
1450.212197 79.854 116.3983
1460.721033 79.850 116.5704
1471.306019 79.854 116.7519
1481.967709 79.865 116.9272
1492.706658 79.883 117.0802
1503.523426 79.904 117.1982
1514.418576 79.926 117.2744
1525.392678 79.946 117.3093
1536.446302 79.960 117.3094
1547.580025 79.967 117.2858
1558.794428 79.964 117.2532
1570.090095 79.951 117.2275
1581.467615 79.927 117.2254
1592.927581 79.893 117.2629
1604.470591 79.848 117.3552
1616.097246 79.794 117.5164
1627.808153 79.732 117.7587
1639.603922 79.666 118.0916
1651.485168 79.597 118.5215
1663.452510 79.528 119.0508
1675.506573 79.463 119.6763
1687.647984 79.404 120.3883
1699.877377 79.354 121.1718
1712.195390 79.316 122.0071
1724.602663 79.290 122.8723
1737.099845 79.277 123.7447
1749.687587 79.277 124.6020
1762.366544 79.287 125.4246
1775.137379 79.307 126.1967
1788.000756 79.333 126.9077
1800.957346 79.364 127.5528
1814.007826 79.395 128.1331
1827.152874 79.426 128.6551
1840.393177 79.453 129.1287
1853.729425 79.476 129.5653
1867.162312 79.494 129.9765
1880.692540 79.506 130.3734
1894.320813 79.513 130.7660
1908.047843 79.515 131.1642
1921.874344 79.511 131.5773
1935.801038 79.504 132.0143
1949.828650 79.493 132.4821
1963.957912 79.482 132.9841
1978.189561 79.471 133.5197
1992.524338 79.463 134.0830
2006.962991 79.459 134.6633
2021.506272 79.460 135.2456
2036.154940 79.468 135.8127
2050.909758 79.482 136.3472
2065.771495 79.500 136.8339
2080.740927 79.521 137.2627
2095.818833 79.542 137.6304
2111.006001 79.562 137.9404
2126.303220 79.578 138.2024
2141.711290 79.588 138.4295
2157.231013 79.593 138.6365
2172.863198 79.593 138.8378
2188.608660 79.588 139.0465
2204.468221 79.578 139.2731
2220.442706 79.566 139.5248
2236.532950 79.553 139.8057
2252.739789 79.540 140.1176
2269.064070 79.528 140.4615
2285.506644 79.519 140.8384
2302.068367 79.514 141.2485
2318.750104 79.513 141.6914
2335.552723 79.519 142.1650
2352.477101 79.533 142.6646
2369.524119 79.557 143.1825
2386.694668 79.591 143.7073
2403.989641 79.637 144.2243
2421.409941 79.694 144.7174
2438.956476 79.761 145.1718
2456.630160 79.838 145.5768
2474.431915 79.921 145.9268
2492.362668 80.009 146.2217
2510.423356 80.101 146.4666
2528.614918 80.195 146.6703
2546.938304 80.290 146.8434
2565.394469 80.387 146.9963
2583.984375 80.486 147.1373
2602.708991 80.587 147.2719
2621.569293 80.692 147.4037
2640.566265 80.802 147.5348
2659.700897 80.916 147.6658
2678.974186 81.037 147.7953
2698.387137 81.164 147.9194
2717.940763 81.300 148.0307
2737.636082 81.443 148.1181
2757.474121 81.593 148.1685
2777.455915 81.748 148.1684
2797.582506 81.908 148.1074
2817.854942 82.068 147.9803
2838.274281 82.226 147.7882
2858.841586 82.382 147.5371
2879.557931 82.532 147.2361
2900.424394 82.678 146.8945
2921.442065 82.817 146.5193
2942.612039 82.952 146.1150
2963.935418 83.080 145.6823
2985.413316 83.203 145.2198
3007.046852 83.319 144.7242
3028.837153 83.427 144.1925
3050.785356 83.525 143.6230
3072.892604 83.612 143.0166
3095.160050 83.686 142.3770
3117.588856 83.746 141.7097
3140.180190 83.789 141.0222
3162.935230 83.815 140.3226
3185.855163 83.822 139.6203
3208.941182 83.810 138.9264
3232.194493 83.778 138.2531
3255.616307 83.725 137.6140
3279.207844 83.651 137.0239
3302.970336 83.556 136.4997
3326.905021 83.440 136.0604
3351.013146 83.302 135.7279
3375.295969 83.144 135.5287
3399.754755 82.967 135.4947
3424.390779 82.772 135.6632
3449.205326 82.564 136.0750
3474.199690 82.349 136.7695
3499.375173 82.133 137.7799
3524.733088 81.928 139.1274
3550.274757 81.745 140.8171
3576.001511 81.596 142.8322
