* Measurement data measured by REW V5.31.3
* Source: EXCL: Headset (USB-C to 3.5mm Headphone Jack Adapter), MICROPHONE (Master Volume), 0, volume: 0.750
* Format: 256k Log Swept Sine, 1 sweep at -12.0 dBFS with no timing reference
* Dated: May 28, 2025 2:26:52 PM
* REW Settings:
*  C-weighting compensation: Off
*  Target level: 75.0 dB
* Note: ; 
* Measurement: Arya Stealth L1
* Smoothing: 1/6 octave
* Frequency Step: 96 ppo
* Start Frequency: 20.0 Hz
*
* Freq(Hz) SPL(dB) Phase(degrees)
20.187378 80.380 -146.1245
20.333664 80.380 -146.1857
20.481010 80.381 -146.2652
20.629424 80.383 -146.3572
20.778913 80.385 -146.4560
20.929486 80.389 -146.5561
21.081150 80.396 -146.6539
21.233912 80.407 -146.7474
21.387782 80.422 -146.8373
21.542767 80.444 -146.9266
21.698874 80.472 -147.0209
21.856113 80.508 -147.1275
22.014492 80.551 -147.2550
22.174018 80.602 -147.4121
22.334700 80.658 -147.6068
22.496546 80.719 -147.8450
22.659566 80.783 -148.1303
22.823766 80.847 -148.4630
22.989157 80.909 -148.8402
23.155745 80.968 -149.2561
23.323542 81.021 -149.7024
23.492554 81.068 -150.1695
23.662790 81.108 -150.6468
23.834261 81.140 -151.1243
24.006973 81.165 -151.5930
24.180938 81.183 -152.0460
24.356163 81.195 -152.4785
24.532658 81.202 -152.8882
24.710431 81.204 -153.2750
24.889493 81.203 -153.6407
25.069853 81.199 -153.9884
25.251519 81.192 -154.3217
25.434502 81.183 -154.6442
25.618811 81.172 -154.9589
25.804456 81.158 -155.2679
25.991445 81.143 -155.5723
26.179790 81.125 -155.8725
26.369500 81.104 -156.1679
26.560584 81.082 -156.4579
26.753053 81.058 -156.7415
26.946917 81.033 -157.0181
27.142185 81.006 -157.2872
27.338869 80.979 -157.5487
27.536977 80.952 -157.8028
27.736522 80.924 -158.0497
27.937512 80.897 -158.2896
28.139959 80.869 -158.5228
28.343872 80.843 -158.7498
28.549264 80.817 -158.9709
28.756143 80.793 -159.1868
28.964522 80.770 -159.3987
29.174411 80.750 -159.6078
29.385821 80.732 -159.8158
29.598763 80.717 -160.0243
29.813248 80.705 -160.2346
30.029287 80.696 -160.4473
30.246891 80.690 -160.6627
30.466073 80.687 -160.8800
30.686842 80.687 -161.0980
30.909212 80.692 -161.3154
31.133193 80.700 -161.5311
31.358797 80.713 -161.7446
31.586035 80.730 -161.9563
31.814921 80.753 -162.1675
32.045465 80.781 -162.3801
32.277680 80.814 -162.5960
32.511577 80.851 -162.8171
32.747169 80.892 -163.0443
32.984469 80.936 -163.2771
33.223488 80.983 -163.5140
33.464239 81.032 -163.7525
33.706735 81.081 -163.9895
33.950987 81.132 -164.2217
34.197010 81.182 -164.4463
34.444816 81.234 -164.6612
34.694417 81.285 -164.8654
34.945827 81.337 -165.0590
35.199059 81.390 -165.2426
35.454126 81.443 -165.4177
35.711041 81.498 -165.5858
35.969818 81.553 -165.7486
36.230470 81.609 -165.9073
36.493011 81.666 -166.0627
36.757455 81.724 -166.2151
37.023814 81.783 -166.3637
37.292104 81.841 -166.5075
37.562338 81.900 -166.6448
37.834530 81.957 -166.7738
38.108695 82.014 -166.8934
38.384846 82.068 -167.0032
38.662999 82.121 -167.1040
38.943167 82.171 -167.1980
39.225365 82.217 -167.2885
39.509608 82.261 -167.3796
39.795911 82.301 -167.4755
40.084289 82.337 -167.5800
40.374756 82.370 -167.6962
40.667328 82.399 -167.8257
40.962020 82.426 -167.9691
41.258848 82.450 -168.1257
41.557827 82.473 -168.2937
41.858972 82.496 -168.4704
42.162299 82.517 -168.6523
42.467824 82.539 -168.8353
42.775564 82.562 -169.0149
43.085533 82.584 -169.1873
43.397749 82.608 -169.3493
43.712227 82.631 -169.4996
44.028983 82.655 -169.6391
44.348036 82.679 -169.7703
44.669400 82.704 -169.8978
44.993093 82.728 -170.0266
45.319131 82.751 -170.1619
45.647532 82.774 -170.3081
45.978313 82.796 -170.4677
46.311491 82.816 -170.6420
46.647083 82.834 -170.8299
46.985107 82.850 -171.0294
47.325581 82.864 -171.2366
47.668521 82.875 -171.4472
48.013947 82.883 -171.6568
48.361876 82.888 -171.8615
48.712326 82.891 -172.0588
49.065315 82.891 -172.2476
49.420863 82.889 -172.4285
49.778987 82.886 -172.6033
50.139706 82.882 -172.7741
50.503039 82.877 -172.9436
50.869005 82.871 -173.1136
51.237623 82.866 -173.2858
51.608912 82.862 -173.4605
51.982891 82.859 -173.6369
52.359580 82.857 -173.8135
52.739000 82.857 -173.9880
53.121168 82.859 -174.1584
53.506106 82.865 -174.3237
53.893833 82.874 -174.4837
54.284370 82.886 -174.6396
54.677737 82.900 -174.7929
55.073955 82.916 -174.9449
55.473043 82.933 -175.0967
55.875024 82.952 -175.2489
56.279917 82.972 -175.4016
56.687745 82.993 -175.5545
57.098527 83.016 -175.7068
57.512287 83.039 -175.8578
57.929045 83.065 -176.0075
58.348822 83.091 -176.1581
58.771642 83.116 -176.3142
59.197525 83.141 -176.4818
59.626495 83.164 -176.6673
60.058573 83.183 -176.8751
60.493782 83.199 -177.1064
60.932145 83.213 -177.3595
61.373685 83.226 -177.6305
61.818424 83.240 -177.9144
62.266386 83.256 -178.2061
62.717593 83.274 -178.5008
63.172071 83.297 -178.7941
63.629842 83.322 -179.0827
64.090930 83.350 -179.3645
64.555359 83.381 -179.6388
65.023154 83.413 -179.9060
65.494339 83.446 179.8333
65.968938 83.479 179.5790
66.446976 83.513 179.3313
66.928478 83.547 179.0906
67.413469 83.580 178.8572
67.901975 83.612 178.6307
68.394021 83.644 178.4103
68.889632 83.674 178.1942
69.388835 83.703 177.9807
69.891655 83.730 177.7680
70.398118 83.756 177.5547
70.908252 83.780 177.3395
71.422083 83.801 177.1216
71.939636 83.820 176.9003
72.460941 83.837 176.6751
72.986023 83.852 176.4458
73.514909 83.864 176.2127
74.047629 83.874 175.9761
74.584208 83.882 175.7368
75.124676 83.888 175.4953
75.669061 83.891 175.2522
76.217390 83.893 175.0080
76.769692 83.893 174.7633
77.325997 83.892 174.5183
77.886333 83.889 174.2732
78.450730 83.884 174.0276
79.019216 83.879 173.7809
79.591822 83.873 173.5326
80.168577 83.865 173.2823
80.749512 83.857 173.0303
81.334656 83.847 172.7769
81.924040 83.837 172.5231
82.517696 83.826 172.2697
83.115653 83.814 172.0173
83.717943 83.800 171.7667
84.324598 83.786 171.5181
84.935649 83.771 171.2717
85.551128 83.756 171.0278
86.171066 83.740 170.7868
86.795497 83.723 170.5491
87.424453 83.707 170.3151
88.057967 83.690 170.0848
88.696071 83.673 169.8579
89.338800 83.656 169.6337
89.986185 83.640 169.4114
90.638262 83.623 169.1899
91.295065 83.607 168.9686
91.956626 83.591 168.7473
92.622982 83.575 168.5257
93.294166 83.559 168.3040
93.970214 83.543 168.0822
94.651161 83.527 167.8602
95.337042 83.511 167.6379
96.027894 83.494 167.4155
96.723752 83.478 167.1925
97.424652 83.461 166.9688
98.130631 83.444 166.7440
98.841726 83.427 166.5175
99.557974 83.410 166.2882
100.279412 83.394 166.0551
101.006078 83.377 165.8171
101.738010 83.361 165.5739
102.475245 83.345 165.3261
103.217823 83.329 165.0757
103.965782 83.314 164.8258
104.719161 83.299 164.5803
105.477999 83.286 164.3437
106.242336 83.274 164.1199
107.012212 83.263 163.9116
107.787666 83.255 163.7197
108.568740 83.248 163.5426
109.355474 83.244 163.3775
110.147909 83.241 163.2206
110.946086 83.240 163.0688
111.750047 83.240 162.9189
112.559834 83.240 162.7689
113.375489 83.241 162.6173
114.197055 83.242 162.4633
115.024574 83.244 162.3065
115.858089 83.245 162.1470
116.697645 83.246 161.9851
117.543284 83.247 161.8210
118.395051 83.249 161.6548
119.252990 83.250 161.4866
120.117147 83.253 161.3162
120.987565 83.256 161.1433
121.864291 83.260 160.9678
122.747370 83.263 160.7898
123.636848 83.267 160.6094
124.532771 83.271 160.4268
125.435187 83.275 160.2420
126.344142 83.278 160.0548
127.259684 83.281 159.8646
128.181860 83.283 159.6705
129.110718 83.285 159.4717
130.046308 83.286 159.2677
130.988677 83.286 159.0582
131.937875 83.285 158.8431
132.893951 83.282 158.6226
133.856956 83.278 158.3969
134.826938 83.271 158.1662
135.803950 83.263 157.9309
136.788041 83.252 157.6914
137.779264 83.239 157.4481
138.777669 83.225 157.2015
139.783309 83.208 156.9518
140.796237 83.189 156.6992
141.816504 83.168 156.4437
142.844165 83.146 156.1849
143.879273 83.122 155.9230
144.921881 83.096 155.6578
145.972045 83.069 155.3895
147.029819 83.040 155.1185
148.095257 83.009 154.8448
149.168417 82.976 154.5688
150.249353 82.942 154.2910
151.338121 82.906 154.0116
152.434780 82.868 153.7317
153.539385 82.828 153.4522
154.651995 82.786 153.1744
155.772667 82.743 152.8996
156.901460 82.697 152.6295
158.038432 82.649 152.3656
159.183644 82.600 152.1096
160.337154 82.548 151.8634
161.499023 82.493 151.6288
162.669312 82.437 151.4077
163.848081 82.379 151.2017
165.035392 82.318 151.0124
166.231306 82.256 150.8416
167.435887 82.192 150.6911
168.649196 82.127 150.5627
169.871298 82.061 150.4583
171.102255 81.994 150.3794
172.342133 81.927 150.3277
173.590995 81.860 150.3044
174.848907 81.794 150.3103
176.115934 81.729 150.3461
177.392143 81.665 150.4119
178.677599 81.603 150.5071
179.972371 81.543 150.6307
181.276525 81.485 150.7805
182.590129 81.431 150.9540
183.913252 81.379 151.1476
185.245964 81.331 151.3575
186.588332 81.286 151.5795
187.940428 81.245 151.8093
189.302322 81.208 152.0432
190.674085 81.175 152.2776
192.055788 81.145 152.5095
193.447503 81.120 152.7365
194.849303 81.098 152.9571
196.261262 81.081 153.1699
197.683452 81.067 153.3739
199.115948 81.057 153.5681
200.558824 81.051 153.7515
202.012156 81.048 153.9231
203.476019 81.048 154.0820
204.950490 81.052 154.2276
206.435646 81.058 154.3593
207.931564 81.066 154.4766
209.438322 81.076 154.5790
210.955998 81.088 154.6661
212.484672 81.102 154.7377
214.024424 81.116 154.7935
215.575333 81.132 154.8332
217.137481 81.149 154.8568
218.710948 81.167 154.8650
220.295818 81.185 154.8585
221.892172 81.204 154.8385
223.500094 81.224 154.8061
225.119668 81.245 154.7620
226.750978 81.267 154.7067
228.394109 81.290 154.6404
230.049147 81.313 154.5633
231.716178 81.338 154.4754
233.395289 81.364 154.3771
235.086567 81.390 154.2693
236.790102 81.416 154.1528
238.505980 81.443 154.0287
240.234293 81.470 153.8977
241.975130 81.497 153.7605
243.728581 81.523 153.6171
245.494739 81.549 153.4673
247.273695 81.575 153.3105
249.065542 81.600 153.1465
250.870374 81.623 152.9754
252.688284 81.647 152.7974
254.519367 81.669 152.6136
256.363720 81.691 152.4250
258.221437 81.712 152.2337
260.092616 81.733 152.0414
261.977354 81.753 151.8500
263.875750 81.772 151.6607
265.787903 81.790 151.4739
267.713911 81.807 151.2892
269.653877 81.823 151.1056
271.607900 81.839 150.9223
273.576083 81.854 150.7389
275.558528 81.869 150.5553
277.555338 81.884 150.3715
279.566619 81.900 150.1873
281.592474 81.917 150.0021
283.633009 81.934 149.8149
285.688331 81.952 149.6245
287.758546 81.972 149.4292
289.843763 81.993 149.2277
291.944090 82.016 149.0182
294.059638 82.040 148.7992
296.190515 82.065 148.5689
298.336833 82.091 148.3257
300.498705 82.118 148.0682
302.676243 82.145 147.7949
304.869559 82.172 147.5048
307.078770 82.199 147.1968
309.303989 82.226 146.8701
311.545334 82.251 146.5239
313.802919 82.275 146.1579
316.076865 82.296 145.7720
318.367288 82.315 145.3666
320.674309 82.330 144.9425
322.998047 82.340 144.5011
325.338624 82.346 144.0441
327.696162 82.346 143.5740
330.070783 82.340 143.0944
332.462612 82.327 142.6098
334.871773 82.306 142.1258
337.298392 82.278 141.6486
339.742595 82.243 141.1854
342.204510 82.199 140.7436
344.684265 82.149 140.3309
347.181989 82.091 139.9545
349.697813 82.027 139.6212
352.231868 81.957 139.3372
354.784285 81.883 139.1072
357.355198 81.805 138.9349
359.944741 81.724 138.8222
362.553049 81.642 138.7697
365.180258 81.561 138.7763
367.826505 81.481 138.8394
370.491927 81.405 138.9548
373.176665 81.333 139.1177
375.880856 81.266 139.3222
378.604644 81.205 139.5623
381.348169 81.151 139.8315
384.111575 81.105 140.1232
386.895006 81.066 140.4305
389.698607 81.035 140.7459
392.522524 81.011 141.0623
395.366904 80.995 141.3727
398.231895 80.986 141.6705
401.117648 80.983 141.9504
404.024312 80.985 142.2084
406.952038 80.992 142.4411
409.900981 81.002 142.6466
412.871292 81.014 142.8237
415.863128 81.029 142.9720
418.876643 81.044 143.0916
421.911996 81.059 143.1834
424.969344 81.073 143.2492
428.048847 81.085 143.2915
431.150666 81.096 143.3141
434.274961 81.104 143.3213
437.421897 81.111 143.3177
440.591636 81.116 143.3076
443.784345 81.119 143.2942
447.000189 81.123 143.2795
450.239337 81.127 143.2640
453.501956 81.132 143.2465
456.788219 81.139 143.2238
460.098294 81.150 143.1910
463.432356 81.164 143.1422
466.790578 81.182 143.0710
470.173135 81.203 142.9708
473.580203 81.229 142.8355
477.011961 81.257 142.6601
480.468586 81.288 142.4407
483.950259 81.320 142.1745
487.457163 81.354 141.8599
490.989478 81.388 141.4964
494.547390 81.421 141.0845
498.131084 81.452 140.6254
501.740748 81.481 140.1210
505.376568 81.507 139.5739
509.038735 81.529 138.9862
512.727439 81.546 138.3606
516.442874 81.559 137.6993
520.185232 81.566 137.0046
523.954708 81.567 136.2784
527.751500 81.561 135.5234
531.575805 81.548 134.7427
535.427822 81.526 133.9411
539.307753 81.494 133.1248
543.215800 81.452 132.3025
547.152165 81.397 131.4851
551.117055 81.330 130.6863
555.110677 81.250 129.9222
559.133237 81.155 129.2109
563.184947 81.048 128.5717
567.266018 80.928 128.0243
571.376661 80.799 127.5867
575.517092 80.662 127.2738
579.687526 80.521 127.0961
583.888181 80.380 127.0577
588.119275 80.243 127.1563
592.381030 80.113 127.3834
596.673667 79.992 127.7255
600.997410 79.884 128.1659
605.352485 79.789 128.6859
609.739119 79.709 129.2666
614.157540 79.643 129.8901
618.607979 79.591 130.5399
623.090667 79.552 131.2017
627.605839 79.527 131.8633
632.153730 79.513 132.5143
636.734576 79.511 133.1458
641.348617 79.518 133.7497
645.996094 79.534 134.3193
650.677248 79.559 134.8490
655.392323 79.590 135.3350
660.141566 79.627 135.7756
664.925224 79.669 136.1702
669.743546 79.715 136.5197
674.596784 79.765 136.8247
679.485191 79.819 137.0858
684.409020 79.877 137.3032
689.368530 79.937 137.4764
694.363979 80.001 137.6043
699.395626 80.067 137.6850
704.463736 80.136 137.7155
709.568570 80.206 137.6920
714.710396 80.278 137.6097
719.889483 80.351 137.4639
725.106099 80.424 137.2497
730.360516 80.495 136.9620
735.653010 80.563 136.5965
740.983855 80.627 136.1502
746.353329 80.684 135.6226
751.761713 80.732 135.0161
757.209288 80.769 134.3367
762.696339 80.793 133.5935
768.223151 80.803 132.7978
773.790013 80.798 131.9626
779.397214 80.776 131.1019
785.045047 80.738 130.2299
790.733808 80.682 129.3618
796.463791 80.609 128.5138
802.235296 80.518 127.7039
808.048623 80.409 126.9522
813.904077 80.284 126.2803
819.801961 80.144 125.7101
825.742584 79.991 125.2629
831.726255 79.830 124.9561
837.753287 79.664 124.8018
843.823992 79.498 124.8051
849.938689 79.336 124.9628
856.097695 79.185 125.2638
862.301332 79.048 125.6886
868.549922 78.930 126.2115
874.843793 78.831 126.8031
881.183272 78.754 127.4334
887.568689 78.700 128.0749
894.000378 78.666 128.7046
900.478673 78.652 129.3045
907.003913 78.656 129.8610
913.576437 78.676 130.3642
920.196588 78.712 130.8058
926.864712 78.762 131.1783
933.581156 78.824 131.4736
940.346270 78.897 131.6828
947.160407 78.979 131.7967
954.023921 79.069 131.8070
960.937172 79.162 131.7075
967.900519 79.257 131.4957
974.914325 79.350 131.1738
981.978956 79.438 130.7490
989.094780 79.518 130.2327
996.262169 79.589 129.6394
1003.481495 79.649 128.9857
1010.753136 79.697 128.2883
1018.077470 79.733 127.5639
1025.454879 79.757 126.8280
1032.885748 79.769 126.0947
1040.370463 79.771 125.3759
1047.909417 79.764 124.6810
1055.503000 79.748 124.0167
1063.151610 79.726 123.3869
1070.855645 79.697 122.7940
1078.615506 79.663 122.2396
1086.431599 79.623 121.7258
1094.304330 79.579 121.2556
1102.234110 79.531 120.8329
1110.221353 79.478 120.4615
1118.266475 79.423 120.1448
1126.369895 79.366 119.8850
1134.532035 79.308 119.6835
1142.753322 79.249 119.5411
1151.034184 79.190 119.4593
1159.375052 79.133 119.4402
1167.776361 79.079 119.4864
1176.238550 79.029 119.5993
1184.762060 78.986 119.7780
1193.347334 78.951 120.0167
1201.994821 78.928 120.3035
1210.704971 78.918 120.6190
1219.478238 78.923 120.9373
1228.315080 78.941 121.2283
1237.215957 78.972 121.4631
1246.181334 79.011 121.6191
1255.211678 79.055 121.6840
1264.307459 79.100 121.6567
1273.469152 79.141 121.5457
1282.697235 79.175 121.3658
1291.992188 79.202 121.1341
1301.354495 79.219 120.8675
1310.784647 79.228 120.5808
1320.283132 79.227 120.2863
1329.850448 79.218 119.9949
1339.487093 79.200 119.7160
1349.193569 79.173 119.4596
1358.970381 79.139 119.2355
1368.818041 79.098 119.0541
1378.737061 79.051 118.9254
1388.727958 78.999 118.8576
1398.791253 78.946 118.8568
1408.927471 78.892 118.9261
1419.137140 78.839 119.0672
1429.420793 78.790 119.2796
1439.778965 78.746 119.5616
1450.212197 78.709 119.9108
1460.721033 78.681 120.3224
1471.306019 78.663 120.7897
1481.967709 78.657 121.3022
1492.706658 78.664 121.8450
1503.523426 78.685 122.3988
1514.418576 78.718 122.9404
1525.392678 78.763 123.4459
1536.446302 78.817 123.8932
1547.580025 78.875 124.2656
1558.794428 78.934 124.5538
1570.090095 78.988 124.7572
1581.467615 79.034 124.8846
1592.927581 79.067 124.9539
1604.470591 79.084 124.9919
1616.097246 79.084 125.0316
1627.808153 79.067 125.1093
1639.603922 79.035 125.2602
1651.485168 78.990 125.5138
1663.452510 78.938 125.8911
1675.506573 78.885 126.4010
1687.647984 78.835 127.0399
1699.877377 78.795 127.7922
1712.195390 78.768 128.6314
1724.602663 78.758 129.5230
1737.099845 78.766 130.4275
1749.687587 78.792 131.3051
1762.366544 78.833 132.1198
1775.137379 78.888 132.8423
1788.000756 78.950 133.4512
1800.957346 79.015 133.9345
1814.007826 79.078 134.2908
1827.152874 79.133 134.5310
1840.393177 79.174 134.6782
1853.729425 79.199 134.7657
1867.162312 79.204 134.8336
1880.692540 79.191 134.9243
1894.320813 79.160 135.0781
1908.047843 79.115 135.3288
1921.874344 79.060 135.6999
1935.801038 79.001 136.2024
1949.828650 78.944 136.8347
1963.957912 78.894 137.5834
1978.189561 78.855 138.4250
1992.524338 78.831 139.3286
2006.962991 78.823 140.2592
2021.506272 78.832 141.1802
2036.154940 78.857 142.0570
2050.909758 78.897 142.8597
2065.771495 78.948 143.5652
2080.740927 79.006 144.1589
2095.818833 79.068 144.6349
2111.006001 79.129 144.9971
2126.303220 79.184 145.2585
2141.711290 79.230 145.4409
2157.231013 79.265 145.5731
2172.863198 79.288 145.6880
2188.608660 79.299 145.8181
2204.468221 79.302 145.9916
2220.442706 79.298 146.2295
2236.532950 79.294 146.5429
2252.739789 79.292 146.9326
2269.064070 79.298 147.3880
2285.506644 79.315 147.8889
2302.068367 79.344 148.4087
2318.750104 79.387 148.9197
2335.552723 79.443 149.3975
2352.477101 79.508 149.8252
2369.524119 79.582 150.1949
2386.694668 79.660 150.5075
2403.989641 79.743 150.7703
2421.409941 79.828 150.9938
2438.956476 79.915 151.1884
2456.630160 80.006 151.3618
2474.431915 80.101 151.5169
2492.362668 80.202 151.6524
2510.423356 80.308 151.7636
2528.614918 80.420 151.8444
2546.938304 80.538 151.8889
2565.394469 80.660 151.8919
2583.984375 80.787 151.8493
2602.708991 80.916 151.7585
2621.569293 81.046 151.6192
2640.566265 81.176 151.4348
2659.700897 81.304 151.2128
2678.974186 81.430 150.9645
2698.387137 81.554 150.7026
2717.940763 81.677 150.4395
2737.636082 81.800 150.1828
2757.474121 81.925 149.9342
2777.455915 82.055 149.6866
2797.582506 82.190 149.4255
2817.854942 82.329 149.1321
2838.274281 82.471 148.7875
2858.841586 82.614 148.3780
2879.557931 82.752 147.8974
2900.424394 82.883 147.3482
2921.442065 83.004 146.7400
2942.612039 83.113 146.0875
2963.935418 83.208 145.4076
2985.413316 83.289 144.7177
3007.046852 83.356 144.0339
3028.837153 83.410 143.3710
3050.785356 83.451 142.7400
3072.892604 83.482 142.1468
3095.160050 83.504 141.5912
3117.588856 83.518 141.0684
3140.180190 83.524 140.5712
3162.935230 83.521 140.0936
3185.855163 83.508 139.6321
3208.941182 83.483 139.1883
3232.194493 83.445 138.7688
3255.616307 83.393 138.3839
3279.207844 83.328 138.0453
3302.970336 83.248 137.7633
3326.905021 83.157 137.5453
3351.013146 83.056 137.3943
3375.295969 82.945 137.3100
3399.754755 82.825 137.2922
3424.390779 82.697 137.3443
3449.205326 82.561 137.4744
3474.199690 82.417 137.6955
3499.375173 82.266 138.0222
3524.733088 82.111 138.4663
3550.274757 81.955 139.0330
3576.001511 81.802 139.7195
