* Measurement data measured by REW V5.31.3
* Source: EXCL: Headset (USB-C to 3.5mm Headphone Jack Adapter), MICROPHONE (Master Volume), 0, volume: 0.750
* Format: 256k Log Swept Sine, 1 sweep at -12.0 dBFS with no timing reference
* Dated: May 28, 2025 2:29:20 PM
* REW Settings:
*  C-weighting compensation: Off
*  Target level: 75.0 dB
* Note: ; 
* Measurement: Arya Stealth L8
* Smoothing: 1/6 octave
* Frequency Step: 96 ppo
* Start Frequency: 20.0 Hz
*
* Freq(Hz) SPL(dB) Phase(degrees)
20.187378 80.065 -144.5144
20.333664 80.078 -144.6170
20.481010 80.096 -144.7537
20.629424 80.121 -144.9196
20.778913 80.151 -145.1097
20.929486 80.188 -145.3197
21.081150 80.231 -145.5462
21.233912 80.282 -145.7870
21.387782 80.338 -146.0411
21.542767 80.401 -146.3079
21.698874 80.468 -146.5878
21.856113 80.539 -146.8809
22.014492 80.612 -147.1871
22.174018 80.686 -147.5056
22.334700 80.758 -147.8350
22.496546 80.827 -148.1727
22.659566 80.892 -148.5157
22.823766 80.951 -148.8600
22.989157 81.003 -149.2014
23.155745 81.048 -149.5358
23.323542 81.084 -149.8592
23.492554 81.113 -150.1684
23.662790 81.134 -150.4609
23.834261 81.147 -150.7356
24.006973 81.153 -150.9925
24.180938 81.152 -151.2327
24.356163 81.147 -151.4584
24.532658 81.136 -151.6726
24.710431 81.121 -151.8790
24.889493 81.103 -152.0814
25.069853 81.083 -152.2838
25.251519 81.060 -152.4900
25.434502 81.035 -152.7032
25.618811 81.010 -152.9263
25.804456 80.984 -153.1616
25.991445 80.957 -153.4108
26.179790 80.930 -153.6747
26.369500 80.903 -153.9538
26.560584 80.877 -154.2478
26.753053 80.852 -154.5555
26.946917 80.827 -154.8752
27.142185 80.803 -155.2045
27.338869 80.780 -155.5402
27.536977 80.759 -155.8788
27.736522 80.739 -156.2165
27.937512 80.720 -156.5496
28.139959 80.704 -156.8748
28.343872 80.689 -157.1895
28.549264 80.677 -157.4920
28.756143 80.667 -157.7819
28.964522 80.659 -158.0597
29.174411 80.654 -158.3269
29.385821 80.651 -158.5857
29.598763 80.650 -158.8385
29.813248 80.651 -159.0875
30.029287 80.653 -159.3343
30.246891 80.657 -159.5800
30.466073 80.662 -159.8247
30.686842 80.668 -160.0679
30.909212 80.676 -160.3085
31.133193 80.686 -160.5453
31.358797 80.699 -160.7773
31.586035 80.716 -161.0037
31.814921 80.736 -161.2242
32.045465 80.761 -161.4389
32.277680 80.790 -161.6484
32.511577 80.824 -161.8532
32.747169 80.862 -162.0540
32.984469 80.904 -162.2507
33.223488 80.948 -162.4433
33.464239 80.995 -162.6311
33.706735 81.043 -162.8131
33.950987 81.093 -162.9885
34.197010 81.142 -163.1570
34.444816 81.193 -163.3189
34.694417 81.243 -163.4756
34.945827 81.295 -163.6298
35.199059 81.346 -163.7849
35.454126 81.399 -163.9451
35.711041 81.452 -164.1144
35.969818 81.505 -164.2960
36.230470 81.559 -164.4916
36.493011 81.613 -164.7011
36.757455 81.666 -164.9224
37.023814 81.719 -165.1517
37.292104 81.771 -165.3841
37.562338 81.823 -165.6145
37.834530 81.873 -165.8382
38.108695 81.923 -166.0514
38.384846 81.973 -166.2517
38.662999 82.022 -166.4381
38.943167 82.070 -166.6109
39.225365 82.117 -166.7714
39.509608 82.163 -166.9214
39.795911 82.207 -167.0636
40.084289 82.249 -167.2002
40.374756 82.289 -167.3334
40.667328 82.326 -167.4646
40.962020 82.360 -167.5943
41.258848 82.391 -167.7222
41.557827 82.418 -167.8474
41.858972 82.443 -167.9689
42.162299 82.466 -168.0859
42.467824 82.488 -168.1987
42.775564 82.508 -168.3086
43.085533 82.529 -168.4177
43.397749 82.551 -168.5284
43.712227 82.573 -168.6433
44.028983 82.597 -168.7645
44.348036 82.622 -168.8934
44.669400 82.648 -169.0311
44.993093 82.675 -169.1785
45.319131 82.704 -169.3364
45.647532 82.732 -169.5060
45.978313 82.761 -169.6886
46.311491 82.790 -169.8851
46.647083 82.817 -170.0965
46.985107 82.843 -170.3228
47.325581 82.867 -170.5625
47.668521 82.888 -170.8131
48.013947 82.906 -171.0704
48.361876 82.922 -171.3294
48.712326 82.934 -171.5845
49.065315 82.945 -171.8307
49.420863 82.954 -172.0641
49.778987 82.961 -172.2821
50.139706 82.968 -172.4836
50.503039 82.974 -172.6690
50.869005 82.979 -172.8401
51.237623 82.984 -173.0000
51.608912 82.989 -173.1529
51.982891 82.992 -173.3034
52.359580 82.995 -173.4559
52.739000 82.997 -173.6134
53.121168 82.997 -173.7771
53.506106 82.996 -173.9460
53.893833 82.992 -174.1175
54.284370 82.988 -174.2885
54.677737 82.982 -174.4558
55.073955 82.976 -174.6166
55.473043 82.971 -174.7688
55.875024 82.967 -174.9104
56.279917 82.966 -175.0404
56.687745 82.967 -175.1582
57.098527 82.971 -175.2645
57.512287 82.979 -175.3619
57.929045 82.990 -175.4548
58.348822 83.003 -175.5506
58.771642 83.019 -175.6591
59.197525 83.036 -175.7915
59.626495 83.055 -175.9580
60.058573 83.073 -176.1657
60.493782 83.091 -176.4158
60.932145 83.109 -176.7041
61.373685 83.126 -177.0216
61.818424 83.145 -177.3570
62.266386 83.165 -177.6994
62.717593 83.187 -178.0400
63.172071 83.211 -178.3725
63.629842 83.237 -178.6935
64.090930 83.265 -179.0018
64.555359 83.295 -179.2981
65.023154 83.325 -179.5835
65.494339 83.357 -179.8592
65.968938 83.389 179.8736
66.446976 83.422 179.6142
66.928478 83.455 179.3619
67.413469 83.487 179.1155
67.901975 83.519 178.8740
68.394021 83.549 178.6360
68.889632 83.579 178.4008
69.388835 83.607 178.1678
69.891655 83.632 177.9366
70.398118 83.656 177.7072
70.908252 83.678 177.4795
71.422083 83.697 177.2528
71.939636 83.714 177.0264
72.460941 83.729 176.7992
72.986023 83.741 176.5706
73.514909 83.750 176.3399
74.047629 83.758 176.1072
74.584208 83.763 175.8725
75.124676 83.766 175.6360
75.669061 83.768 175.3979
76.217390 83.768 175.1579
76.769692 83.766 174.9161
77.325997 83.764 174.6725
77.886333 83.760 174.4270
78.450730 83.756 174.1797
79.019216 83.750 173.9305
79.591822 83.745 173.6791
80.168577 83.738 173.4257
80.749512 83.731 173.1701
81.334656 83.722 172.9127
81.924040 83.713 172.6542
82.517696 83.702 172.3952
83.115653 83.690 172.1364
83.717943 83.677 171.8787
84.324598 83.664 171.6226
84.935649 83.649 171.3688
85.551128 83.635 171.1179
86.171066 83.619 170.8703
86.795497 83.604 170.6261
87.424453 83.587 170.3853
88.057967 83.571 170.1472
88.696071 83.554 169.9111
89.338800 83.537 169.6761
89.986185 83.520 169.4412
90.638262 83.502 169.2063
91.295065 83.483 168.9713
91.956626 83.465 168.7369
92.622982 83.447 168.5040
93.294166 83.428 168.2735
93.970214 83.410 168.0465
94.651161 83.391 167.8237
95.337042 83.373 167.6056
96.027894 83.355 167.3922
96.723752 83.336 167.1832
97.424652 83.319 166.9781
98.130631 83.301 166.7762
98.841726 83.284 166.5767
99.557974 83.268 166.3786
100.279412 83.252 166.1814
101.006078 83.236 165.9846
101.738010 83.221 165.7879
102.475245 83.206 165.5916
103.217823 83.191 165.3958
103.965782 83.176 165.2006
104.719161 83.163 165.0060
105.477999 83.149 164.8123
106.242336 83.137 164.6193
107.012212 83.126 164.4273
107.787666 83.117 164.2363
108.568740 83.109 164.0464
109.355474 83.103 163.8581
110.147909 83.098 163.6713
110.946086 83.094 163.4860
111.750047 83.092 163.3019
112.559834 83.090 163.1185
113.375489 83.090 162.9353
114.197055 83.090 162.7520
115.024574 83.091 162.5684
115.858089 83.092 162.3846
116.697645 83.094 162.2010
117.543284 83.095 162.0182
118.395051 83.098 161.8371
119.252990 83.100 161.6582
120.117147 83.102 161.4823
120.987565 83.105 161.3096
121.864291 83.107 161.1397
122.747370 83.110 160.9713
123.636848 83.112 160.8030
124.532771 83.114 160.6334
125.435187 83.115 160.4614
126.344142 83.116 160.2858
127.259684 83.117 160.1060
128.181860 83.116 159.9212
129.110718 83.115 159.7315
130.046308 83.112 159.5370
130.988677 83.108 159.3383
131.937875 83.102 159.1364
132.893951 83.095 158.9320
133.856956 83.086 158.7260
134.826938 83.075 158.5188
135.803950 83.063 158.3105
136.788041 83.049 158.1012
137.779264 83.033 157.8911
138.777669 83.015 157.6800
139.783309 82.996 157.4679
140.796237 82.975 157.2545
141.816504 82.953 157.0396
142.844165 82.928 156.8227
143.879273 82.902 156.6031
144.921881 82.875 156.3802
145.972045 82.846 156.1534
147.029819 82.815 155.9222
148.095257 82.783 155.6872
149.168417 82.750 155.4493
150.249353 82.716 155.2099
151.338121 82.681 154.9706
152.434780 82.644 154.7328
153.539385 82.607 154.4976
154.651995 82.568 154.2660
155.772667 82.528 154.0390
156.901460 82.487 153.8176
158.038432 82.444 153.6031
159.183644 82.399 153.3970
160.337154 82.353 153.2007
161.499023 82.305 153.0158
162.669312 82.256 152.8439
163.848081 82.205 152.6862
165.035392 82.153 152.5443
166.231306 82.100 152.4196
167.435887 82.046 152.3140
168.649196 81.992 152.2290
169.871298 81.937 152.1666
171.102255 81.882 152.1282
172.342133 81.827 152.1150
173.590995 81.773 152.1274
174.848907 81.720 152.1656
176.115934 81.669 152.2290
177.392143 81.619 152.3166
178.677599 81.571 152.4269
179.972371 81.525 152.5577
181.276525 81.482 152.7067
182.590129 81.441 152.8708
183.913252 81.402 153.0470
185.245964 81.367 153.2318
186.588332 81.334 153.4217
187.940428 81.305 153.6135
189.302322 81.278 153.8043
190.674085 81.256 153.9915
192.055788 81.237 154.1735
193.447503 81.221 154.3488
194.849303 81.209 154.5161
196.261262 81.200 154.6743
197.683452 81.193 154.8221
199.115948 81.190 154.9579
200.558824 81.189 155.0803
202.012156 81.190 155.1877
203.476019 81.192 155.2794
204.950490 81.197 155.3551
206.435646 81.203 155.4152
207.931564 81.210 155.4605
209.438322 81.219 155.4919
210.955998 81.229 155.5103
212.484672 81.240 155.5161
214.024424 81.252 155.5097
215.575333 81.265 155.4915
217.137481 81.279 155.4618
218.710948 81.294 155.4208
220.295818 81.309 155.3688
221.892172 81.325 155.3057
223.500094 81.342 155.2314
225.119668 81.360 155.1461
226.750978 81.379 155.0500
228.394109 81.400 154.9434
230.049147 81.421 154.8268
231.716178 81.443 154.7009
233.395289 81.467 154.5665
235.086567 81.490 154.4244
236.790102 81.514 154.2754
238.505980 81.538 154.1199
240.234293 81.562 153.9581
241.975130 81.584 153.7904
243.728581 81.607 153.6171
245.494739 81.628 153.4390
247.273695 81.648 153.2568
249.065542 81.668 153.0715
250.870374 81.686 152.8839
252.688284 81.704 152.6946
254.519367 81.721 152.5045
256.363720 81.737 152.3142
258.221437 81.752 152.1245
260.092616 81.767 151.9363
261.977354 81.781 151.7504
263.875750 81.795 151.5678
265.787903 81.809 151.3892
267.713911 81.824 151.2151
269.653877 81.839 151.0462
271.607900 81.854 150.8820
273.576083 81.870 150.7217
275.558528 81.888 150.5638
277.555338 81.906 150.4064
279.566619 81.925 150.2474
281.592474 81.946 150.0845
283.633009 81.967 149.9160
285.688331 81.990 149.7401
287.758546 82.014 149.5554
289.843763 82.039 149.3600
291.944090 82.065 149.1521
294.059638 82.091 148.9301
296.190515 82.119 148.6924
298.336833 82.146 148.4379
300.498705 82.174 148.1661
302.676243 82.201 147.8767
304.869559 82.228 147.5694
307.078770 82.254 147.2439
309.303989 82.278 146.9000
311.545334 82.300 146.5375
313.802919 82.319 146.1566
316.076865 82.335 145.7578
318.367288 82.348 145.3420
320.674309 82.356 144.9107
322.998047 82.360 144.4661
325.338624 82.358 144.0113
327.696162 82.351 143.5502
330.070783 82.337 143.0877
332.462612 82.317 142.6293
334.871773 82.291 142.1810
337.298392 82.258 141.7492
339.742595 82.218 141.3406
342.204510 82.172 140.9617
344.684265 82.120 140.6190
347.181989 82.063 140.3185
349.697813 82.000 140.0651
352.231868 81.934 139.8629
354.784285 81.865 139.7144
357.355198 81.794 139.6211
359.944741 81.722 139.5830
362.553049 81.651 139.5989
365.180258 81.582 139.6662
367.826505 81.516 139.7807
370.491927 81.454 139.9373
373.176665 81.397 140.1296
375.880856 81.346 140.3513
378.604644 81.302 140.5952
381.348169 81.264 140.8547
384.111575 81.233 141.1235
386.895006 81.209 141.3952
389.698607 81.191 141.6641
392.522524 81.180 141.9244
395.366904 81.175 142.1713
398.231895 81.174 142.4005
401.117648 81.178 142.6089
404.024312 81.186 142.7946
406.952038 81.196 142.9564
409.900981 81.207 143.0938
412.871292 81.220 143.2069
415.863128 81.233 143.2965
418.876643 81.246 143.3635
421.911996 81.259 143.4094
424.969344 81.272 143.4360
428.048847 81.283 143.4458
431.150666 81.294 143.4414
434.274961 81.304 143.4258
437.421897 81.314 143.4013
440.591636 81.324 143.3701
443.784345 81.334 143.3328
447.000189 81.344 143.2890
450.239337 81.356 143.2368
453.501956 81.369 143.1731
456.788219 81.385 143.0937
460.098294 81.402 142.9935
463.432356 81.421 142.8675
466.790578 81.442 142.7107
470.173135 81.465 142.5190
473.580203 81.488 142.2896
477.011961 81.513 142.0204
480.468586 81.538 141.7108
483.950259 81.563 141.3609
487.457163 81.586 140.9713
490.989478 81.609 140.5430
494.547390 81.629 140.0775
498.131084 81.647 139.5764
501.740748 81.662 139.0414
505.376568 81.673 138.4744
509.038735 81.681 137.8771
512.727439 81.684 137.2510
516.442874 81.683 136.5974
520.185232 81.676 135.9177
523.954708 81.664 135.2137
527.751500 81.644 134.4882
531.575805 81.618 133.7454
535.427822 81.583 132.9916
539.307753 81.538 132.2355
543.215800 81.483 131.4877
547.152165 81.417 130.7608
551.117055 81.339 130.0694
555.110677 81.251 129.4294
559.133237 81.151 128.8573
563.184947 81.043 128.3691
567.266018 80.927 127.9793
571.376661 80.806 127.6992
575.517092 80.682 127.5361
579.687526 80.559 127.4927
583.888181 80.440 127.5664
588.119275 80.326 127.7502
592.381030 80.221 128.0330
596.673667 80.126 128.4017
600.997410 80.043 128.8419
605.352485 79.972 129.3390
609.739119 79.914 129.8786
614.157540 79.869 130.4471
618.607979 79.836 131.0319
623.090667 79.816 131.6215
627.605839 79.806 132.2056
632.153730 79.807 132.7748
636.734576 79.817 133.3210
641.348617 79.836 133.8368
645.996094 79.863 134.3160
650.677248 79.896 134.7542
655.392323 79.934 135.1486
660.141566 79.977 135.4987
664.925224 80.024 135.8054
669.743546 80.074 136.0698
674.596784 80.128 136.2928
679.485191 80.185 136.4746
684.409020 80.245 136.6139
689.368530 80.308 136.7088
694.363979 80.373 136.7569
699.395626 80.440 136.7546
704.463736 80.509 136.6979
709.568570 80.579 136.5821
714.710396 80.649 136.4022
719.889483 80.718 136.1538
725.106099 80.785 135.8331
730.360516 80.849 135.4376
735.653010 80.908 134.9661
740.983855 80.960 134.4193
746.353329 81.003 133.8008
751.761713 81.035 133.1171
757.209288 81.055 132.3773
762.696339 81.060 131.5934
768.223151 81.050 130.7785
773.790013 81.024 129.9471
779.397214 80.980 129.1140
785.045047 80.920 128.2945
790.733808 80.843 127.5055
796.463791 80.750 126.7650
802.235296 80.640 126.0932
808.048623 80.515 125.5107
813.904077 80.379 125.0378
819.801961 80.233 124.6915
825.742584 80.082 124.4835
831.726255 79.931 124.4179
837.753287 79.784 124.4904
843.823992 79.646 124.6885
849.938689 79.520 124.9940
856.097695 79.410 125.3845
862.301332 79.318 125.8359
868.549922 79.245 126.3235
874.843793 79.190 126.8239
881.183272 79.154 127.3159
887.568689 79.134 127.7821
894.000378 79.130 128.2092
900.478673 79.140 128.5873
907.003913 79.162 128.9092
913.576437 79.195 129.1696
920.196588 79.237 129.3640
926.864712 79.287 129.4889
933.581156 79.343 129.5413
940.346270 79.405 129.5189
947.160407 79.471 129.4201
954.023921 79.539 129.2441
960.937172 79.608 128.9908
967.900519 79.676 128.6611
974.914325 79.742 128.2574
981.978956 79.804 127.7842
989.094780 79.860 127.2483
996.262169 79.908 126.6590
1003.481495 79.947 126.0279
1010.753136 79.976 125.3680
1018.077470 79.995 124.6928
1025.454879 80.005 124.0160
1032.885748 80.004 123.3500
1040.370463 79.995 122.7059
1047.909417 79.978 122.0931
1055.503000 79.955 121.5193
1063.151610 79.927 120.9899
1070.855645 79.894 120.5087
1078.615506 79.860 120.0772
1086.431599 79.824 119.6949
1094.304330 79.789 119.3587
1102.234110 79.754 119.0636
1110.221353 79.720 118.8032
1118.266475 79.688 118.5711
1126.369895 79.656 118.3622
1134.532035 79.625 118.1738
1142.753322 79.593 118.0067
1151.034184 79.560 117.8653
1159.375052 79.526 117.7566
1167.776361 79.491 117.6886
1176.238550 79.457 117.6682
1184.762060 79.427 117.6985
1193.347334 79.401 117.7773
1201.994821 79.382 117.8957
1210.704971 79.373 118.0381
1219.478238 79.373 118.1841
1228.315080 79.383 118.3110
1237.215957 79.402 118.3982
1246.181334 79.426 118.4310
1255.211678 79.452 118.4022
1264.307459 79.478 118.3121
1273.469152 79.502 118.1673
1282.697235 79.520 117.9776
1291.992188 79.532 117.7546
1301.354495 79.537 117.5104
1310.784647 79.534 117.2566
1320.283132 79.524 117.0048
1329.850448 79.506 116.7661
1339.487093 79.481 116.5506
1349.193569 79.451 116.3672
1358.970381 79.415 116.2231
1368.818041 79.375 116.1235
1378.737061 79.333 116.0721
1388.727958 79.290 116.0713
1398.791253 79.246 116.1216
1408.927471 79.205 116.2224
1419.137140 79.166 116.3723
1429.420793 79.131 116.5691
1439.778965 79.101 116.8104
1450.212197 79.077 117.0941
1460.721033 79.059 117.4174
1471.306019 79.050 117.7766
1481.967709 79.049 118.1652
1492.706658 79.058 118.5735
1503.523426 79.077 118.9880
1514.418576 79.105 119.3922
1525.392678 79.141 119.7683
1536.446302 79.183 120.0994
1547.580025 79.227 120.3720
1558.794428 79.268 120.5796
1570.090095 79.304 120.7243
1581.467615 79.329 120.8185
1592.927581 79.339 120.8849
1604.470591 79.334 120.9542
1616.097246 79.313 121.0607
1627.808153 79.278 121.2372
1639.603922 79.232 121.5100
1651.485168 79.179 121.8964
1663.452510 79.125 122.4022
1675.506573 79.073 123.0225
1687.647984 79.029 123.7426
1699.877377 78.996 124.5416
1712.195390 78.975 125.3942
1724.602663 78.969 126.2728
1737.099845 78.977 127.1491
1749.687587 78.999 127.9954
1762.366544 79.033 128.7860
1775.137379 79.076 129.4996
1788.000756 79.124 130.1211
1800.957346 79.173 130.6440
1814.007826 79.218 131.0731
1827.152874 79.255 131.4238
1840.393177 79.280 131.7219
1853.729425 79.292 131.9998
1867.162312 79.290 132.2924
1880.692540 79.275 132.6328
1894.320813 79.251 133.0495
1908.047843 79.219 133.5637
1921.874344 79.186 134.1875
1935.801038 79.156 134.9222
1949.828650 79.133 135.7578
1963.957912 79.121 136.6734
1978.189561 79.125 137.6394
1992.524338 79.145 138.6209
2006.962991 79.182 139.5814
2021.506272 79.236 140.4866
2036.154940 79.303 141.3068
2050.909758 79.381 142.0195
2065.771495 79.466 142.6106
2080.740927 79.553 143.0752
2095.818833 79.637 143.4179
2111.006001 79.715 143.6530
2126.303220 79.784 143.8029
2141.711290 79.840 143.8976
2157.231013 79.884 143.9703
2172.863198 79.916 144.0547
2188.608660 79.939 144.1794
2204.468221 79.956 144.3631
2220.442706 79.973 144.6123
2236.532950 79.994 144.9215
2252.739789 80.023 145.2760
2269.064070 80.061 145.6553
2285.506644 80.111 146.0370
2302.068367 80.171 146.3993
2318.750104 80.241 146.7238
2335.552723 80.320 146.9976
2352.477101 80.403 147.2151
2369.524119 80.491 147.3781
2386.694668 80.581 147.4940
2403.989641 80.672 147.5730
2421.409941 80.764 147.6240
2438.956476 80.859 147.6530
2456.630160 80.958 147.6622
2474.431915 81.060 147.6507
2492.362668 81.166 147.6158
2510.423356 81.276 147.5535
2528.614918 81.391 147.4592
2546.938304 81.510 147.3283
2565.394469 81.631 147.1566
2583.984375 81.755 146.9412
2602.708991 81.878 146.6819
2621.569293 82.000 146.3829
2640.566265 82.119 146.0532
2659.700897 82.236 145.7054
2678.974186 82.349 145.3538
2698.387137 82.462 145.0101
2717.940763 82.576 144.6812
2737.636082 82.693 144.3664
2757.474121 82.815 144.0575
2777.455915 82.942 143.7397
2797.582506 83.075 143.3948
2817.854942 83.212 143.0049
2838.274281 83.349 142.5573
2858.841586 83.483 142.0464
2879.557931 83.611 141.4746
2900.424394 83.731 140.8498
2921.442065 83.840 140.1835
2942.612039 83.937 139.4892
2963.935418 84.022 138.7805
2985.413316 84.094 138.0705
3007.046852 84.152 137.3714
3028.837153 84.198 136.6950
3050.785356 84.231 136.0513
3072.892604 84.254 135.4472
3095.160050 84.266 134.8850
3117.588856 84.270 134.3643
3140.180190 84.263 133.8841
3162.935230 84.247 133.4452
3185.855163 84.219 133.0517
3208.941182 84.181 132.7115
3232.194493 84.132 132.4343
3255.616307 84.074 132.2285
3279.207844 84.009 132.0974
3302.970336 83.937 132.0376
3326.905021 83.862 132.0411
3351.013146 83.784 132.0989
3375.295969 83.703 132.2043
3399.754755 83.619 132.3560
3424.390779 83.531 132.5576
3449.205326 83.441 132.8154
3474.199690 83.349 133.1346
3499.375173 83.258 133.5152
3524.733088 83.170 133.9499
3550.274757 83.086 134.4253
3576.001511 83.009 134.9269
