* Measurement data measured by REW V5.31.3
* Source: EXCL: Headset (USB-C to 3.5mm Headphone Jack Adapter), MICROPHONE (Master Volume), 0, volume: 0.200
* Format: 256k Log Swept Sine, 1 sweep at -12.0 dBFS with no timing reference
* Dated: Jun 13, 2025 2:31:08 PM
* REW Settings:
*  C-weighting compensation: Off
*  Target level: 75.0 dB
* Note: ; 
* Measurement: Arya Stealth 2 L9
* Smoothing: 1/6 octave
* Frequency Step: 96 ppo
* Start Frequency: 20.0 Hz
*
* Freq(Hz) SPL(dB) Phase(degrees)
20.187378 65.326 -97.6249
20.333664 65.350 -97.8205
20.481010 65.384 -98.0825
20.629424 65.426 -98.4027
20.778913 65.475 -98.7725
20.929486 65.532 -99.1830
21.081150 65.595 -99.6261
21.233912 65.665 -100.0945
21.387782 65.739 -100.5819
21.542767 65.819 -101.0834
21.698874 65.902 -101.5950
21.856113 65.988 -102.1138
22.014492 66.076 -102.6379
22.174018 66.165 -103.1655
22.334700 66.253 -103.6954
22.496546 66.339 -104.2264
22.659566 66.421 -104.7570
22.823766 66.499 -105.2855
22.989157 66.571 -105.8099
23.155745 66.635 -106.3277
23.323542 66.692 -106.8366
23.492554 66.740 -107.3341
23.662790 66.780 -107.8183
23.834261 66.811 -108.2878
24.006973 66.835 -108.7424
24.180938 66.852 -109.1825
24.356163 66.863 -109.6099
24.532658 66.869 -110.0272
24.710431 66.870 -110.4378
24.889493 66.869 -110.8451
25.069853 66.866 -111.2528
25.251519 66.862 -111.6637
25.434502 66.857 -112.0800
25.618811 66.852 -112.5027
25.804456 66.848 -112.9317
25.991445 66.844 -113.3658
26.179790 66.842 -113.8032
26.369500 66.841 -114.2415
26.560584 66.841 -114.6784
26.753053 66.843 -115.1118
26.946917 66.847 -115.5400
27.142185 66.852 -115.9621
27.338869 66.858 -116.3777
27.536977 66.864 -116.7872
27.736522 66.872 -117.1913
27.937512 66.879 -117.5913
28.139959 66.886 -117.9887
28.343872 66.893 -118.3855
28.549264 66.900 -118.7837
28.756143 66.906 -119.1856
28.964522 66.912 -119.5936
29.174411 66.919 -120.0098
29.385821 66.926 -120.4361
29.598763 66.934 -120.8734
29.813248 66.944 -121.3219
30.029287 66.955 -121.7802
30.246891 66.968 -122.2461
30.466073 66.983 -122.7160
30.686842 67.002 -123.1858
30.909212 67.024 -123.6512
31.133193 67.050 -124.1083
31.358797 67.080 -124.5543
31.586035 67.114 -124.9875
31.814921 67.154 -125.4077
32.045465 67.198 -125.8160
32.277680 67.247 -126.2140
32.511577 67.299 -126.6041
32.747169 67.355 -126.9881
32.984469 67.414 -127.3677
33.223488 67.475 -127.7435
33.464239 67.537 -128.1157
33.706735 67.600 -128.4838
33.950987 67.663 -128.8471
34.197010 67.728 -129.2048
34.444816 67.793 -129.5566
34.694417 67.859 -129.9022
34.945827 67.927 -130.2420
35.199059 67.995 -130.5766
35.454126 68.064 -130.9069
35.711041 68.134 -131.2341
35.969818 68.205 -131.5594
36.230470 68.276 -131.8837
36.493011 68.347 -132.2080
36.757455 68.418 -132.5326
37.023814 68.489 -132.8578
37.292104 68.557 -133.1831
37.562338 68.624 -133.5076
37.834530 68.689 -133.8304
38.108695 68.751 -134.1502
38.384846 68.811 -134.4660
38.662999 68.868 -134.7773
38.943167 68.923 -135.0843
39.225365 68.976 -135.3878
39.509608 69.027 -135.6892
39.795911 69.076 -135.9906
40.084289 69.125 -136.2941
40.374756 69.172 -136.6019
40.667328 69.219 -136.9161
40.962020 69.264 -137.2386
41.258848 69.310 -137.5712
41.557827 69.354 -137.9151
41.858972 69.398 -138.2711
42.162299 69.442 -138.6392
42.467824 69.484 -139.0179
42.775564 69.525 -139.4046
43.085533 69.565 -139.7949
43.397749 69.604 -140.1837
43.712227 69.641 -140.5648
44.028983 69.677 -140.9327
44.348036 69.712 -141.2831
44.669400 69.746 -141.6135
44.993093 69.779 -141.9237
45.319131 69.811 -142.2162
45.647532 69.842 -142.4954
45.978313 69.872 -142.7667
46.311491 69.900 -143.0363
46.647083 69.925 -143.3091
46.985107 69.947 -143.5887
47.325581 69.966 -143.8772
47.668521 69.981 -144.1747
48.013947 69.992 -144.4807
48.361876 70.000 -144.7947
48.712326 70.005 -145.1166
49.065315 70.007 -145.4474
49.420863 70.009 -145.7884
49.778987 70.010 -146.1404
50.139706 70.012 -146.5033
50.503039 70.016 -146.8748
50.869005 70.021 -147.2502
51.237623 70.028 -147.6220
51.608912 70.036 -147.9814
51.982891 70.044 -148.3191
52.359580 70.051 -148.6274
52.739000 70.056 -148.9025
53.121168 70.058 -149.1455
53.506106 70.059 -149.3624
53.893833 70.056 -149.5627
54.284370 70.051 -149.7574
54.677737 70.045 -149.9564
55.073955 70.038 -150.1673
55.473043 70.030 -150.3944
55.875024 70.022 -150.6398
56.279917 70.015 -150.9040
56.687745 70.009 -151.1871
57.098527 70.004 -151.4886
57.512287 70.000 -151.8076
57.929045 69.997 -152.1418
58.348822 69.997 -152.4859
58.771642 69.999 -152.8320
59.197525 70.006 -153.1695
59.626495 70.017 -153.4877
60.058573 70.034 -153.7779
60.493782 70.057 -154.0359
60.932145 70.086 -154.2624
61.373685 70.119 -154.4624
61.818424 70.157 -154.6433
62.266386 70.197 -154.8136
62.717593 70.240 -154.9812
63.172071 70.284 -155.1529
63.629842 70.330 -155.3335
64.090930 70.377 -155.5258
64.555359 70.425 -155.7309
65.023154 70.473 -155.9482
65.494339 70.523 -156.1769
65.968938 70.572 -156.4158
66.446976 70.621 -156.6637
66.928478 70.670 -156.9196
67.413469 70.719 -157.1825
67.901975 70.766 -157.4516
68.394021 70.813 -157.7259
68.889632 70.858 -158.0048
69.388835 70.902 -158.2880
69.891655 70.944 -158.5756
70.398118 70.983 -158.8677
70.908252 71.020 -159.1647
71.422083 71.055 -159.4670
71.939636 71.086 -159.7753
72.460941 71.115 -160.0898
72.986023 71.141 -160.4107
73.514909 71.164 -160.7381
74.047629 71.184 -161.0718
74.584208 71.201 -161.4113
75.124676 71.216 -161.7561
75.669061 71.229 -162.1051
76.217390 71.239 -162.4576
76.769692 71.247 -162.8124
77.325997 71.252 -163.1684
77.886333 71.256 -163.5246
78.450730 71.258 -163.8798
79.019216 71.258 -164.2337
79.591822 71.257 -164.5862
80.168577 71.253 -164.9378
80.749512 71.249 -165.2893
81.334656 71.243 -165.6415
81.924040 71.235 -165.9950
82.517696 71.226 -166.3498
83.115653 71.217 -166.7052
83.717943 71.206 -167.0602
84.324598 71.194 -167.4134
84.935649 71.182 -167.7632
85.551128 71.168 -168.1086
86.171066 71.154 -168.4485
86.795497 71.139 -168.7823
87.424453 71.123 -169.1096
88.057967 71.107 -169.4301
88.696071 71.089 -169.7440
89.338800 71.070 -170.0514
89.986185 71.051 -170.3529
90.638262 71.032 -170.6491
91.295065 71.012 -170.9409
91.956626 70.991 -171.2290
92.622982 70.971 -171.5139
93.294166 70.951 -171.7957
93.970214 70.932 -172.0747
94.651161 70.912 -172.3508
95.337042 70.893 -172.6238
96.027894 70.873 -172.8933
96.723752 70.854 -173.1590
97.424652 70.834 -173.4205
98.130631 70.815 -173.6774
98.841726 70.796 -173.9300
99.557974 70.777 -174.1784
100.279412 70.759 -174.4231
101.006078 70.741 -174.6644
101.738010 70.723 -174.9027
102.475245 70.705 -175.1382
103.217823 70.688 -175.3714
103.965782 70.672 -175.6027
104.719161 70.656 -175.8327
105.477999 70.641 -176.0616
106.242336 70.627 -176.2892
107.012212 70.615 -176.5150
107.787666 70.604 -176.7383
108.568740 70.594 -176.9583
109.355474 70.587 -177.1745
110.147909 70.580 -177.3863
110.946086 70.575 -177.5934
111.750047 70.572 -177.7956
112.559834 70.569 -177.9933
113.375489 70.567 -178.1875
114.197055 70.566 -178.3792
115.024574 70.566 -178.5696
115.858089 70.566 -178.7596
116.697645 70.567 -178.9498
117.543284 70.569 -179.1405
118.395051 70.570 -179.3318
119.252990 70.572 -179.5237
120.117147 70.574 -179.7160
120.987565 70.575 -179.9087
121.864291 70.577 179.8982
122.747370 70.577 179.7045
123.636848 70.577 179.5100
124.532771 70.576 179.3148
125.435187 70.574 179.1187
126.344142 70.571 178.9216
127.259684 70.567 178.7231
128.181860 70.562 178.5226
129.110718 70.556 178.3190
130.046308 70.549 178.1114
130.988677 70.541 177.8987
131.937875 70.531 177.6804
132.893951 70.520 177.4564
133.856956 70.508 177.2271
134.826938 70.493 176.9930
135.803950 70.476 176.7547
136.788041 70.458 176.5128
137.779264 70.436 176.2676
138.777669 70.413 176.0198
139.783309 70.386 175.7704
140.796237 70.357 175.5208
141.816504 70.326 175.2726
142.844165 70.291 175.0278
143.879273 70.254 174.7886
144.921881 70.214 174.5574
145.972045 70.171 174.3363
147.029819 70.126 174.1275
148.095257 70.078 173.9327
149.168417 70.028 173.7533
150.249353 69.976 173.5906
151.338121 69.922 173.4458
152.434780 69.866 173.3199
153.539385 69.809 173.2141
154.651995 69.751 173.1293
155.772667 69.691 173.0666
156.901460 69.630 173.0266
158.038432 69.570 173.0099
159.183644 69.509 173.0166
160.337154 69.450 173.0464
161.499023 69.392 173.0984
162.669312 69.337 173.1718
163.848081 69.285 173.2648
165.035392 69.236 173.3756
166.231306 69.191 173.5017
167.435887 69.149 173.6404
168.649196 69.112 173.7888
169.871298 69.079 173.9441
171.102255 69.049 174.1039
172.342133 69.024 174.2659
173.590995 69.002 174.4284
174.848907 68.983 174.5899
176.115934 68.967 174.7490
177.392143 68.954 174.9044
178.677599 68.944 175.0548
179.972371 68.936 175.1989
181.276525 68.929 175.3354
182.590129 68.924 175.4629
183.913252 68.921 175.5800
185.245964 68.919 175.6865
186.588332 68.917 175.7824
187.940428 68.917 175.8691
189.302322 68.918 175.9482
190.674085 68.920 176.0212
192.055788 68.922 176.0891
193.447503 68.925 176.1516
194.849303 68.929 176.2073
196.261262 68.933 176.2542
197.683452 68.937 176.2904
199.115948 68.940 176.3145
200.558824 68.944 176.3259
202.012156 68.948 176.3250
203.476019 68.951 176.3126
204.950490 68.954 176.2903
206.435646 68.958 176.2599
207.931564 68.962 176.2225
209.438322 68.967 176.1791
210.955998 68.972 176.1301
212.484672 68.978 176.0755
214.024424 68.985 176.0154
215.575333 68.992 175.9503
217.137481 69.000 175.8803
218.710948 69.009 175.8060
220.295818 69.018 175.7278
221.892172 69.028 175.6461
223.500094 69.039 175.5613
225.119668 69.051 175.4738
226.750978 69.063 175.3838
228.394109 69.077 175.2916
230.049147 69.091 175.1970
231.716178 69.106 175.0991
233.395289 69.122 174.9967
235.086567 69.138 174.8882
236.790102 69.155 174.7725
238.505980 69.172 174.6486
240.234293 69.190 174.5169
241.975130 69.208 174.3783
243.728581 69.227 174.2344
245.494739 69.247 174.0875
247.273695 69.267 173.9399
249.065542 69.287 173.7941
250.870374 69.308 173.6517
252.688284 69.329 173.5132
254.519367 69.349 173.3778
256.363720 69.369 173.2433
258.221437 69.387 173.1069
260.092616 69.404 172.9660
261.977354 69.421 172.8184
263.875750 69.437 172.6625
265.787903 69.452 172.4969
267.713911 69.468 172.3209
269.653877 69.484 172.1332
271.607900 69.500 171.9327
273.576083 69.516 171.7181
275.558528 69.531 171.4879
277.555338 69.547 171.2412
279.566619 69.561 170.9777
281.592474 69.575 170.6978
283.633009 69.587 170.4024
285.688331 69.597 170.0928
287.758546 69.606 169.7710
289.843763 69.612 169.4394
291.944090 69.615 169.1005
294.059638 69.615 168.7573
296.190515 69.612 168.4128
298.336833 69.605 168.0700
300.498705 69.594 167.7318
302.676243 69.578 167.4011
304.869559 69.559 167.0812
307.078770 69.534 166.7754
309.303989 69.506 166.4874
311.545334 69.474 166.2213
313.802919 69.437 165.9812
316.076865 69.398 165.7712
318.367288 69.356 165.5948
320.674309 69.312 165.4550
322.998047 69.267 165.3536
325.338624 69.222 165.2913
327.696162 69.177 165.2671
330.070783 69.133 165.2792
332.462612 69.091 165.3248
334.871773 69.050 165.4003
337.298392 69.013 165.5020
339.742595 68.978 165.6263
342.204510 68.946 165.7701
344.684265 68.916 165.9308
347.181989 68.889 166.1064
349.697813 68.865 166.2952
352.231868 68.844 166.4958
354.784285 68.825 166.7073
357.355198 68.809 166.9279
359.944741 68.795 167.1557
362.553049 68.784 167.3881
365.180258 68.776 167.6219
367.826505 68.770 167.8535
370.491927 68.767 168.0796
373.176665 68.766 168.2969
375.880856 68.768 168.5029
378.604644 68.773 168.6953
381.348169 68.781 168.8724
384.111575 68.790 169.0328
386.895006 68.802 169.1756
389.698607 68.816 169.2999
392.522524 68.832 169.4054
395.366904 68.849 169.4921
398.231895 68.866 169.5604
401.117648 68.884 169.6113
404.024312 68.902 169.6460
406.952038 68.920 169.6662
409.900981 68.937 169.6732
412.871292 68.954 169.6678
415.863128 68.971 169.6501
418.876643 68.987 169.6196
421.911996 69.002 169.5748
424.969344 69.016 169.5141
428.048847 69.029 169.4357
431.150666 69.041 169.3377
434.274961 69.051 169.2185
437.421897 69.060 169.0766
440.591636 69.068 168.9107
443.784345 69.073 168.7200
447.000189 69.077 168.5040
450.239337 69.078 168.2628
453.501956 69.078 167.9964
456.788219 69.076 167.7051
460.098294 69.071 167.3889
463.432356 69.063 167.0480
466.790578 69.053 166.6820
470.173135 69.040 166.2912
473.580203 69.024 165.8761
477.011961 69.003 165.4382
480.468586 68.977 164.9802
483.950259 68.946 164.5059
487.457163 68.909 164.0203
490.989478 68.865 163.5293
494.547390 68.814 163.0397
498.131084 68.755 162.5587
501.740748 68.689 162.0934
505.376568 68.615 161.6514
509.038735 68.534 161.2397
512.727439 68.446 160.8655
516.442874 68.353 160.5358
520.185232 68.254 160.2574
523.954708 68.151 160.0364
527.751500 68.046 159.8786
531.575805 67.939 159.7885
535.427822 67.832 159.7696
539.307753 67.728 159.8238
543.215800 67.627 159.9514
547.152165 67.530 160.1516
551.117055 67.440 160.4218
555.110677 67.358 160.7584
559.133237 67.284 161.1562
563.184947 67.220 161.6087
567.266018 67.166 162.1079
571.376661 67.123 162.6449
575.517092 67.091 163.2103
579.687526 67.070 163.7949
583.888181 67.060 164.3898
588.119275 67.060 164.9865
592.381030 67.070 165.5773
596.673667 67.090 166.1551
600.997410 67.118 166.7137
605.352485 67.154 167.2477
609.739119 67.198 167.7526
614.157540 67.248 168.2244
618.607979 67.304 168.6590
623.090667 67.366 169.0523
627.605839 67.433 169.3994
632.153730 67.505 169.6948
636.734576 67.581 169.9324
641.348617 67.661 170.1064
645.996094 67.744 170.2115
650.677248 67.827 170.2433
655.392323 67.910 170.1991
660.141566 67.992 170.0780
664.925224 68.069 169.8809
669.743546 68.142 169.6107
674.596784 68.209 169.2714
679.485191 68.267 168.8683
684.409020 68.316 168.4081
689.368530 68.355 167.8983
694.363979 68.382 167.3473
699.395626 68.397 166.7649
704.463736 68.398 166.1615
709.568570 68.384 165.5487
714.710396 68.356 164.9387
719.889483 68.313 164.3444
725.106099 68.256 163.7786
730.360516 68.185 163.2542
735.653010 68.100 162.7834
740.983855 68.003 162.3780
746.353329 67.896 162.0493
751.761713 67.780 161.8073
757.209288 67.657 161.6605
762.696339 67.531 161.6148
768.223151 67.403 161.6724
773.790013 67.277 161.8317
779.397214 67.156 162.0870
785.045047 67.041 162.4290
790.733808 66.937 162.8452
796.463791 66.844 163.3212
802.235296 66.764 163.8409
808.048623 66.698 164.3880
813.904077 66.647 164.9468
819.801961 66.609 165.5028
825.742584 66.587 166.0423
831.726255 66.579 166.5516
837.753287 66.584 167.0169
843.823992 66.602 167.4243
849.938689 66.631 167.7605
856.097695 66.669 168.0150
862.301332 66.713 168.1805
868.549922 66.761 168.2536
874.843793 66.810 168.2352
881.183272 66.857 168.1302
887.568689 66.901 167.9464
894.000378 66.939 167.6938
900.478673 66.970 167.3835
907.003913 66.994 167.0265
913.576437 67.010 166.6336
920.196588 67.017 166.2158
926.864712 67.016 165.7837
933.581156 67.007 165.3481
940.346270 66.989 164.9195
947.160407 66.965 164.5082
954.023921 66.934 164.1236
960.937172 66.898 163.7737
967.900519 66.860 163.4644
974.914325 66.821 163.1981
981.978956 66.783 162.9741
989.094780 66.747 162.7878
996.262169 66.716 162.6319
1003.481495 66.688 162.4968
1010.753136 66.666 162.3725
1018.077470 66.647 162.2495
1025.454879 66.632 162.1210
1032.885748 66.619 161.9831
1040.370463 66.607 161.8361
1047.909417 66.594 161.6832
1055.503000 66.579 161.5302
1063.151610 66.563 161.3843
1070.855645 66.544 161.2525
1078.615506 66.524 161.1416
1086.431599 66.503 161.0565
1094.304330 66.483 160.9996
1102.234110 66.464 160.9696
1110.221353 66.447 160.9617
1118.266475 66.434 160.9680
1126.369895 66.424 160.9789
1134.532035 66.416 160.9849
1142.753322 66.411 160.9777
1151.034184 66.405 160.9515
1159.375052 66.399 160.9039
1167.776361 66.389 160.8369
1176.238550 66.375 160.7564
1184.762060 66.356 160.6727
1193.347334 66.329 160.5983
1201.994821 66.297 160.5470
1210.704971 66.259 160.5323
1219.478238 66.216 160.5655
1228.315080 66.171 160.6546
1237.215957 66.127 160.8028
1246.181334 66.084 161.0088
1255.211678 66.046 161.2670
1264.307459 66.013 161.5691
1273.469152 65.987 161.9049
1282.697235 65.969 162.2633
1291.992188 65.958 162.6327
1301.354495 65.956 163.0013
1310.784647 65.960 163.3578
1320.283132 65.970 163.6909
1329.850448 65.985 163.9902
1339.487093 66.004 164.2477
1349.193569 66.022 164.4591
1358.970381 66.039 164.6255
1368.818041 66.052 164.7541
1378.737061 66.058 164.8582
1388.727958 66.058 164.9549
1398.791253 66.051 165.0624
1408.927471 66.039 165.1968
1419.137140 66.023 165.3691
1429.420793 66.005 165.5847
1439.778965 65.987 165.8446
1450.212197 65.970 166.1480
1460.721033 65.954 166.4945
1471.306019 65.942 166.8852
1481.967709 65.932 167.3227
1492.706658 65.926 167.8099
1503.523426 65.926 168.3478
1514.418576 65.932 168.9349
1525.392678 65.946 169.5656
1536.446302 65.969 170.2308
1547.580025 66.001 170.9183
1558.794428 66.043 171.6127
1570.090095 66.095 172.2966
1581.467615 66.154 172.9505
1592.927581 66.221 173.5552
1604.470591 66.291 174.0934
1616.097246 66.362 174.5513
1627.808153 66.431 174.9210
1639.603922 66.493 175.2020
1651.485168 66.544 175.4026
1663.452510 66.582 175.5399
1675.506573 66.605 175.6384
1687.647984 66.610 175.7272
1699.877377 66.598 175.8372
1712.195390 66.571 175.9986
1724.602663 66.531 176.2385
1737.099845 66.481 176.5792
1749.687587 66.426 177.0361
1762.366544 66.371 177.6158
1775.137379 66.319 178.3155
1788.000756 66.276 179.1222
1800.957346 66.245 -179.9863
1814.007826 66.229 -179.0398
1827.152874 66.230 -178.0732
1840.393177 66.246 -177.1225
1853.729425 66.276 -176.2206
1867.162312 66.316 -175.3938
1880.692540 66.364 -174.6582
1894.320813 66.413 -174.0186
1908.047843 66.460 -173.4687
1921.874344 66.501 -172.9937
1935.801038 66.534 -172.5740
1949.828650 66.558 -172.1877
1963.957912 66.573 -171.8140
1978.189561 66.579 -171.4348
1992.524338 66.578 -171.0367
2006.962991 66.572 -170.6114
2021.506272 66.564 -170.1558
2036.154940 66.554 -169.6717
2050.909758 66.545 -169.1649
2065.771495 66.538 -168.6440
2080.740927 66.535 -168.1194
2095.818833 66.534 -167.6010
2111.006001 66.536 -167.0966
2126.303220 66.540 -166.6094
2141.711290 66.544 -166.1374
2157.231013 66.548 -165.6736
2172.863198 66.552 -165.2075
2188.608660 66.556 -164.7284
2204.468221 66.561 -164.2287
2220.442706 66.570 -163.7065
2236.532950 66.584 -163.1660
2252.739789 66.604 -162.6163
2269.064070 66.632 -162.0686
2285.506644 66.668 -161.5335
2302.068367 66.712 -161.0196
2318.750104 66.762 -160.5335
2335.552723 66.819 -160.0803
2352.477101 66.881 -159.6643
2369.524119 66.949 -159.2887
2386.694668 67.020 -158.9553
2403.989641 67.094 -158.6645
2421.409941 67.171 -158.4147
2438.956476 67.248 -158.2023
2456.630160 67.326 -158.0196
2474.431915 67.403 -157.8557
2492.362668 67.480 -157.6978
2510.423356 67.559 -157.5342
2528.614918 67.640 -157.3561
2546.938304 67.727 -157.1596
2565.394469 67.822 -156.9471
2583.984375 67.925 -156.7272
2602.708991 68.040 -156.5144
2621.569293 68.165 -156.3273
2640.566265 68.301 -156.1854
2659.700897 68.444 -156.1062
2678.974186 68.593 -156.1018
2698.387137 68.744 -156.1781
2717.940763 68.893 -156.3344
2737.636082 69.038 -156.5635
2757.474121 69.177 -156.8529
2777.455915 69.308 -157.1860
2797.582506 69.430 -157.5440
2817.854942 69.545 -157.9092
2838.274281 69.653 -158.2681
2858.841586 69.757 -158.6133
2879.557931 69.857 -158.9433
2900.424394 69.955 -159.2616
2921.442065 70.051 -159.5739
2942.612039 70.144 -159.8867
2963.935418 70.234 -160.2047
2985.413316 70.319 -160.5304
3007.046852 70.398 -160.8638
3028.837153 70.470 -161.2026
3050.785356 70.533 -161.5417
3072.892604 70.588 -161.8744
3095.160050 70.634 -162.1944
3117.588856 70.672 -162.4979
3140.180190 70.702 -162.7849
3162.935230 70.724 -163.0585
3185.855163 70.738 -163.3245
3208.941182 70.744 -163.5891
3232.194493 70.738 -163.8562
3255.616307 70.720 -164.1238
3279.207844 70.686 -164.3813
3302.970336 70.633 -164.6092
3326.905021 70.562 -164.7805
3351.013146 70.471 -164.8636
3375.295969 70.363 -164.8272
3399.754755 70.243 -164.6459
3424.390779 70.114 -164.3045
