* Measurement data measured by REW V5.31.3
* Source: EXCL: Headset (USB-C to 3.5mm Headphone Jack Adapter), MICROPHONE (Master Volume), 0, volume: 0.750
* Format: 256k Log Swept Sine, 1 sweep at -12.0 dBFS with no timing reference
* Dated: May 28, 2025 2:30:58 PM
* REW Settings:
*  C-weighting compensation: Off
*  Target level: 75.0 dB
* Note: ; 
* Measurement: Arya Stealth R2
* Smoothing: 1/6 octave
* Frequency Step: 96 ppo
* Start Frequency: 20.0 Hz
*
* Freq(Hz) SPL(dB) Phase(degrees)
20.187378 80.646 -141.2082
20.333664 80.662 -141.3274
20.481010 80.683 -141.4886
20.629424 80.710 -141.6885
20.778913 80.742 -141.9234
20.929486 80.779 -142.1890
21.081150 80.820 -142.4811
21.233912 80.864 -142.7953
21.387782 80.912 -143.1272
21.542767 80.963 -143.4728
21.698874 81.016 -143.8283
21.856113 81.070 -144.1903
22.014492 81.126 -144.5560
22.174018 81.182 -144.9230
22.334700 81.237 -145.2897
22.496546 81.292 -145.6547
22.659566 81.344 -146.0174
22.823766 81.394 -146.3774
22.989157 81.441 -146.7346
23.155745 81.484 -147.0892
23.323542 81.523 -147.4414
23.492554 81.557 -147.7912
23.662790 81.586 -148.1387
23.834261 81.610 -148.4839
24.006973 81.630 -148.8265
24.180938 81.644 -149.1661
24.356163 81.654 -149.5022
24.532658 81.660 -149.8342
24.710431 81.661 -150.1613
24.889493 81.660 -150.4828
25.069853 81.654 -150.7981
25.251519 81.646 -151.1064
25.434502 81.635 -151.4073
25.618811 81.622 -151.7005
25.804456 81.606 -151.9857
25.991445 81.589 -152.2634
26.179790 81.570 -152.5341
26.369500 81.549 -152.7988
26.560584 81.528 -153.0593
26.753053 81.506 -153.3176
26.946917 81.485 -153.5758
27.142185 81.463 -153.8368
27.338869 81.443 -154.1030
27.536977 81.424 -154.3765
27.736522 81.406 -154.6591
27.937512 81.389 -154.9516
28.139959 81.374 -155.2534
28.343872 81.360 -155.5632
28.549264 81.347 -155.8783
28.756143 81.336 -156.1954
28.964522 81.325 -156.5105
29.174411 81.316 -156.8195
29.385821 81.308 -157.1189
29.598763 81.301 -157.4057
29.813248 81.297 -157.6783
30.029287 81.294 -157.9362
30.246891 81.294 -158.1802
30.466073 81.296 -158.4121
30.686842 81.302 -158.6344
30.909212 81.311 -158.8500
31.133193 81.323 -159.0616
31.358797 81.339 -159.2715
31.586035 81.360 -159.4817
31.814921 81.384 -159.6934
32.045465 81.412 -159.9071
32.277680 81.444 -160.1231
32.511577 81.481 -160.3415
32.747169 81.522 -160.5622
32.984469 81.567 -160.7852
33.223488 81.616 -161.0105
33.464239 81.667 -161.2383
33.706735 81.722 -161.4686
33.950987 81.778 -161.7015
34.197010 81.835 -161.9366
34.444816 81.893 -162.1733
34.694417 81.951 -162.4108
34.945827 82.009 -162.6477
35.199059 82.065 -162.8825
35.454126 82.121 -163.1137
35.711041 82.176 -163.3398
35.969818 82.230 -163.5594
36.230470 82.284 -163.7720
36.493011 82.337 -163.9772
36.757455 82.390 -164.1755
37.023814 82.444 -164.3678
37.292104 82.497 -164.5551
37.562338 82.550 -164.7387
37.834530 82.602 -164.9197
38.108695 82.654 -165.0990
38.384846 82.705 -165.2773
38.662999 82.755 -165.4552
38.943167 82.803 -165.6335
39.225365 82.849 -165.8129
39.509608 82.894 -165.9943
39.795911 82.937 -166.1785
40.084289 82.978 -166.3661
40.374756 83.017 -166.5568
40.667328 83.054 -166.7497
40.962020 83.089 -166.9433
41.258848 83.123 -167.1354
41.557827 83.154 -167.3242
41.858972 83.184 -167.5082
42.162299 83.212 -167.6866
42.467824 83.239 -167.8597
42.775564 83.265 -168.0291
43.085533 83.290 -168.1966
43.397749 83.314 -168.3646
43.712227 83.337 -168.5352
44.028983 83.358 -168.7102
44.348036 83.377 -168.8902
44.669400 83.395 -169.0753
44.993093 83.411 -169.2647
45.319131 83.426 -169.4570
45.647532 83.441 -169.6510
45.978313 83.455 -169.8452
46.311491 83.469 -170.0390
46.647083 83.484 -170.2323
46.985107 83.499 -170.4258
47.325581 83.516 -170.6206
47.668521 83.533 -170.8179
48.013947 83.550 -171.0187
48.361876 83.566 -171.2234
48.712326 83.580 -171.4314
49.065315 83.593 -171.6416
49.420863 83.603 -171.8519
49.778987 83.609 -172.0606
50.139706 83.612 -172.2661
50.503039 83.611 -172.4673
50.869005 83.608 -172.6643
51.237623 83.601 -172.8582
51.608912 83.593 -173.0504
51.982891 83.583 -173.2434
52.359580 83.573 -173.4400
52.739000 83.564 -173.6430
53.121168 83.556 -173.8552
53.506106 83.550 -174.0788
53.893833 83.546 -174.3148
54.284370 83.545 -174.5636
54.677737 83.545 -174.8243
55.073955 83.548 -175.0963
55.473043 83.552 -175.3788
55.875024 83.558 -175.6720
56.279917 83.566 -175.9764
56.687745 83.576 -176.2919
57.098527 83.589 -176.6178
57.512287 83.604 -176.9515
57.929045 83.622 -177.2890
58.348822 83.642 -177.6249
58.771642 83.662 -177.9525
59.197525 83.683 -178.2646
59.626495 83.701 -178.5540
60.058573 83.718 -178.8153
60.493782 83.731 -179.0462
60.932145 83.741 -179.2487
61.373685 83.750 -179.4288
61.818424 83.759 -179.5948
62.266386 83.769 -179.7549
62.717593 83.781 -179.9154
63.172071 83.796 179.9199
63.629842 83.813 179.7498
64.090930 83.832 179.5743
64.555359 83.854 179.3941
65.023154 83.877 179.2100
65.494339 83.902 179.0226
65.968938 83.928 178.8321
66.446976 83.955 178.6387
66.928478 83.981 178.4425
67.413469 84.008 178.2436
67.901975 84.035 178.0423
68.394021 84.061 177.8387
68.889632 84.087 177.6334
69.388835 84.112 177.4267
69.891655 84.135 177.2194
70.398118 84.157 177.0120
70.908252 84.177 176.8050
71.422083 84.195 176.5986
71.939636 84.210 176.3926
72.460941 84.224 176.1867
72.986023 84.235 175.9808
73.514909 84.244 175.7748
74.047629 84.251 175.5685
74.584208 84.256 175.3621
75.124676 84.259 175.1554
75.669061 84.260 174.9485
76.217390 84.259 174.7414
76.769692 84.256 174.5340
77.325997 84.252 174.3267
77.886333 84.246 174.1195
78.450730 84.239 173.9128
79.019216 84.231 173.7066
79.591822 84.223 173.5006
80.168577 84.214 173.2945
80.749512 84.206 173.0879
81.334656 84.198 172.8804
81.924040 84.190 172.6718
82.517696 84.183 172.4625
83.115653 84.176 172.2526
83.717943 84.170 172.0422
84.324598 84.164 171.8311
84.935649 84.159 171.6185
85.551128 84.153 171.4032
86.171066 84.148 171.1839
86.795497 84.142 170.9594
87.424453 84.136 170.7290
88.057967 84.130 170.4921
88.696071 84.124 170.2487
89.338800 84.118 169.9990
89.986185 84.112 169.7436
90.638262 84.105 169.4831
91.295065 84.098 169.2182
91.956626 84.091 168.9494
92.622982 84.083 168.6769
93.294166 84.074 168.4007
93.970214 84.064 168.1207
94.651161 84.053 167.8368
95.337042 84.041 167.5494
96.027894 84.027 167.2594
96.723752 84.012 166.9680
97.424652 83.996 166.6768
98.130631 83.979 166.3873
98.841726 83.961 166.1011
99.557974 83.944 165.8196
100.279412 83.926 165.5436
101.006078 83.909 165.2734
101.738010 83.892 165.0092
102.475245 83.876 164.7503
103.217823 83.861 164.4961
103.965782 83.846 164.2453
104.719161 83.831 163.9968
105.477999 83.817 163.7488
106.242336 83.803 163.4999
107.012212 83.789 163.2492
107.787666 83.775 162.9964
108.568740 83.762 162.7425
109.355474 83.749 162.4889
110.147909 83.736 162.2375
110.946086 83.723 161.9904
111.750047 83.711 161.7490
112.559834 83.700 161.5150
113.375489 83.689 161.2892
114.197055 83.679 161.0724
115.024574 83.670 160.8648
115.858089 83.661 160.6659
116.697645 83.653 160.4749
117.543284 83.646 160.2908
118.395051 83.639 160.1120
119.252990 83.633 159.9371
120.117147 83.627 159.7651
120.987565 83.620 159.5951
121.864291 83.614 159.4266
122.747370 83.607 159.2588
123.636848 83.601 159.0907
124.532771 83.594 158.9209
125.435187 83.586 158.7477
126.344142 83.579 158.5695
127.259684 83.570 158.3848
128.181860 83.561 158.1929
129.110718 83.550 157.9937
130.046308 83.539 157.7879
130.988677 83.526 157.5765
131.937875 83.512 157.3604
132.893951 83.496 157.1405
133.856956 83.478 156.9173
134.826938 83.459 156.6915
135.803950 83.437 156.4641
136.788041 83.413 156.2363
137.779264 83.387 156.0099
138.777669 83.359 155.7864
139.783309 83.328 155.5671
140.796237 83.294 155.3531
141.816504 83.258 155.1450
142.844165 83.220 154.9437
143.879273 83.179 154.7497
144.921881 83.136 154.5641
145.972045 83.091 154.3883
147.029819 83.044 154.2237
148.095257 82.996 154.0721
149.168417 82.946 153.9349
150.249353 82.895 153.8134
151.338121 82.844 153.7086
152.434780 82.793 153.6208
153.539385 82.742 153.5502
154.651995 82.691 153.4966
155.772667 82.640 153.4596
156.901460 82.591 153.4386
158.038432 82.542 153.4326
159.183644 82.495 153.4404
160.337154 82.450 153.4607
161.499023 82.406 153.4923
162.669312 82.364 153.5341
163.848081 82.325 153.5856
165.035392 82.289 153.6461
166.231306 82.254 153.7151
167.435887 82.223 153.7918
168.649196 82.194 153.8751
169.871298 82.167 153.9637
171.102255 82.143 154.0562
172.342133 82.121 154.1514
173.590995 82.100 154.2477
174.848907 82.081 154.3439
176.115934 82.064 154.4384
177.392143 82.049 154.5302
178.677599 82.035 154.6181
179.972371 82.024 154.7018
181.276525 82.014 154.7814
182.590129 82.007 154.8572
183.913252 82.001 154.9294
185.245964 81.998 154.9980
186.588332 81.996 155.0626
187.940428 81.995 155.1225
189.302322 81.996 155.1766
190.674085 81.996 155.2236
192.055788 81.996 155.2625
193.447503 81.997 155.2923
194.849303 81.997 155.3121
196.261262 81.997 155.3215
197.683452 81.998 155.3200
199.115948 81.999 155.3073
200.558824 82.000 155.2834
202.012156 82.003 155.2484
203.476019 82.006 155.2026
204.950490 82.011 155.1462
206.435646 82.016 155.0798
207.931564 82.022 155.0040
209.438322 82.029 154.9195
210.955998 82.036 154.8273
212.484672 82.043 154.7285
214.024424 82.050 154.6242
215.575333 82.057 154.5153
217.137481 82.064 154.4025
218.710948 82.072 154.2860
220.295818 82.080 154.1657
221.892172 82.089 154.0410
223.500094 82.099 153.9116
225.119668 82.109 153.7771
226.750978 82.121 153.6376
228.394109 82.134 153.4933
230.049147 82.149 153.3445
231.716178 82.164 153.1920
233.395289 82.181 153.0361
235.086567 82.199 152.8772
236.790102 82.217 152.7155
238.505980 82.237 152.5507
240.234293 82.257 152.3824
241.975130 82.278 152.2097
243.728581 82.299 152.0321
245.494739 82.320 151.8487
247.273695 82.342 151.6589
249.065542 82.363 151.4623
250.870374 82.385 151.2587
252.688284 82.407 151.0479
254.519367 82.429 150.8300
256.363720 82.452 150.6053
258.221437 82.475 150.3738
260.092616 82.497 150.1355
261.977354 82.519 149.8902
263.875750 82.541 149.6373
265.787903 82.562 149.3760
267.713911 82.582 149.1053
269.653877 82.602 148.8242
271.607900 82.620 148.5317
273.576083 82.636 148.2274
275.558528 82.652 147.9108
277.555338 82.666 147.5817
279.566619 82.679 147.2402
281.592474 82.690 146.8861
283.633009 82.699 146.5198
285.688331 82.706 146.1415
287.758546 82.711 145.7521
289.843763 82.713 145.3528
291.944090 82.711 144.9452
294.059638 82.706 144.5312
296.190515 82.697 144.1133
298.336833 82.683 143.6945
300.498705 82.665 143.2785
302.676243 82.642 142.8698
304.869559 82.614 142.4735
307.078770 82.581 142.0952
309.303989 82.542 141.7405
311.545334 82.499 141.4154
313.802919 82.452 141.1252
316.076865 82.402 140.8748
318.367288 82.349 140.6682
320.674309 82.294 140.5085
322.998047 82.239 140.3976
325.338624 82.185 140.3364
327.696162 82.132 140.3243
330.070783 82.081 140.3597
332.462612 82.034 140.4392
334.871773 81.990 140.5585
337.298392 81.952 140.7120
339.742595 81.919 140.8935
342.204510 81.891 141.0962
344.684265 81.870 141.3137
347.181989 81.853 141.5399
349.697813 81.843 141.7692
352.231868 81.838 141.9965
354.784285 81.837 142.2175
357.355198 81.841 142.4282
359.944741 81.849 142.6252
362.553049 81.861 142.8054
365.180258 81.876 142.9659
367.826505 81.894 143.1042
370.491927 81.915 143.2182
373.176665 81.938 143.3065
375.880856 81.962 143.3682
378.604644 81.989 143.4030
381.348169 82.015 143.4110
384.111575 82.043 143.3932
386.895006 82.070 143.3509
389.698607 82.097 143.2855
392.522524 82.123 143.1985
395.366904 82.148 143.0919
398.231895 82.171 142.9673
401.117648 82.193 142.8271
404.024312 82.214 142.6734
406.952038 82.233 142.5083
409.900981 82.252 142.3336
412.871292 82.269 142.1506
415.863128 82.285 141.9602
418.876643 82.300 141.7625
421.911996 82.315 141.5568
424.969344 82.329 141.3416
428.048847 82.344 141.1144
431.150666 82.357 140.8723
434.274961 82.371 140.6116
437.421897 82.384 140.3284
440.591636 82.397 140.0190
443.784345 82.408 139.6794
447.000189 82.419 139.3062
450.239337 82.428 138.8962
453.501956 82.435 138.4468
456.788219 82.439 137.9562
460.098294 82.439 137.4230
463.432356 82.435 136.8471
466.790578 82.426 136.2294
470.173135 82.410 135.5719
473.580203 82.386 134.8784
477.011961 82.354 134.1545
480.468586 82.311 133.4082
483.950259 82.257 132.6501
487.457163 82.191 131.8931
490.989478 82.111 131.1527
494.547390 82.018 130.4459
498.131084 81.912 129.7908
501.740748 81.794 129.2057
505.376568 81.665 128.7081
509.038735 81.527 128.3134
512.727439 81.383 128.0341
516.442874 81.236 127.8789
520.185232 81.091 127.8517
523.954708 80.950 127.9511
527.751500 80.818 128.1700
531.575805 80.698 128.4958
535.427822 80.593 128.9115
539.307753 80.505 129.3969
543.215800 80.437 129.9300
547.152165 80.387 130.4890
551.117055 80.357 131.0529
555.110677 80.346 131.6027
559.133237 80.351 132.1225
563.184947 80.371 132.5990
567.266018 80.404 133.0221
571.376661 80.447 133.3846
575.517092 80.500 133.6822
579.687526 80.558 133.9130
583.888181 80.621 134.0778
588.119275 80.686 134.1791
592.381030 80.752 134.2214
596.673667 80.817 134.2098
600.997410 80.881 134.1501
605.352485 80.942 134.0478
609.739119 81.001 133.9080
614.157540 81.056 133.7349
618.607979 81.108 133.5315
623.090667 81.157 133.2999
627.605839 81.202 133.0412
632.153730 81.245 132.7558
636.734576 81.284 132.4428
641.348617 81.320 132.1004
645.996094 81.352 131.7258
650.677248 81.380 131.3156
655.392323 81.402 130.8669
660.141566 81.417 130.3785
664.925224 81.425 129.8522
669.743546 81.422 129.2932
674.596784 81.408 128.7101
679.485191 81.382 128.1145
684.409020 81.342 127.5202
689.368530 81.288 126.9430
694.363979 81.221 126.3998
699.395626 81.140 125.9082
704.463736 81.046 125.4858
709.568570 80.942 125.1495
714.710396 80.829 124.9138
719.889483 80.711 124.7892
725.106099 80.591 124.7809
730.360516 80.472 124.8866
735.653010 80.359 125.0971
740.983855 80.254 125.3969
746.353329 80.160 125.7667
751.761713 80.079 126.1862
757.209288 80.011 126.6355
762.696339 79.956 127.0965
768.223151 79.913 127.5533
773.790013 79.883 127.9923
779.397214 79.863 128.4026
785.045047 79.853 128.7761
790.733808 79.852 129.1074
796.463791 79.859 129.3928
802.235296 79.872 129.6301
808.048623 79.892 129.8171
813.904077 79.916 129.9519
819.801961 79.945 130.0321
825.742584 79.978 130.0561
831.726255 80.013 130.0228
837.753287 80.051 129.9322
843.823992 80.089 129.7849
849.938689 80.128 129.5814
856.097695 80.167 129.3218
862.301332 80.204 129.0058
868.549922 80.240 128.6327
874.843793 80.273 128.2020
881.183272 80.301 127.7143
887.568689 80.323 127.1722
894.000378 80.338 126.5809
900.478673 80.343 125.9482
907.003913 80.337 125.2853
913.576437 80.319 124.6069
920.196588 80.286 123.9311
926.864712 80.240 123.2795
933.581156 80.180 122.6757
940.346270 80.108 122.1430
947.160407 80.027 121.7021
954.023921 79.940 121.3679
960.937172 79.853 121.1469
967.900519 79.769 121.0360
974.914325 79.694 121.0233
981.978956 79.630 121.0898
989.094780 79.580 121.2130
996.262169 79.544 121.3698
1003.481495 79.523 121.5396
1010.753136 79.516 121.7061
1018.077470 79.521 121.8584
1025.454879 79.536 121.9899
1032.885748 79.562 122.0968
1040.370463 79.596 122.1760
1047.909417 79.638 122.2236
1055.503000 79.688 122.2340
1063.151610 79.744 122.1995
1070.855645 79.806 122.1116
1078.615506 79.872 121.9616
1086.431599 79.939 121.7427
1094.304330 80.005 121.4517
1102.234110 80.067 121.0894
1110.221353 80.123 120.6624
1118.266475 80.169 120.1816
1126.369895 80.203 119.6621
1134.532035 80.226 119.1215
1142.753322 80.236 118.5788
1151.034184 80.233 118.0536
1159.375052 80.219 117.5641
1167.776361 80.196 117.1266
1176.238550 80.166 116.7535
1184.762060 80.132 116.4523
1193.347334 80.097 116.2248
1201.994821 80.065 116.0659
1210.704971 80.038 115.9643
1219.478238 80.018 115.9034
1228.315080 80.007 115.8633
1237.215957 80.003 115.8242
1246.181334 80.006 115.7685
1255.211678 80.013 115.6845
1264.307459 80.022 115.5670
1273.469152 80.030 115.4171
1282.697235 80.036 115.2416
1291.992188 80.037 115.0508
1301.354495 80.034 114.8569
1310.784647 80.026 114.6714
1320.283132 80.015 114.5037
1329.850448 80.000 114.3593
1339.487093 79.985 114.2401
1349.193569 79.968 114.1450
1358.970381 79.951 114.0724
1368.818041 79.934 114.0215
1378.737061 79.918 113.9924
1388.727958 79.903 113.9858
1398.791253 79.889 114.0031
1408.927471 79.877 114.0457
1419.137140 79.869 114.1142
1429.420793 79.865 114.2070
1439.778965 79.866 114.3200
1450.212197 79.873 114.4462
1460.721033 79.887 114.5758
1471.306019 79.908 114.6972
1481.967709 79.933 114.7980
1492.706658 79.962 114.8676
1503.523426 79.993 114.8994
1514.418576 80.022 114.8928
1525.392678 80.047 114.8530
1536.446302 80.065 114.7901
1547.580025 80.076 114.7170
1558.794428 80.077 114.6481
1570.090095 80.070 114.5980
1581.467615 80.053 114.5799
1592.927581 80.028 114.6054
1604.470591 79.996 114.6838
1616.097246 79.958 114.8221
1627.808153 79.915 115.0251
1639.603922 79.869 115.2962
1651.485168 79.821 115.6370
1663.452510 79.774 116.0478
1675.506573 79.730 116.5260
1687.647984 79.690 117.0654
1699.877377 79.657 117.6555
1712.195390 79.632 118.2824
1724.602663 79.616 118.9296
1737.099845 79.609 119.5793
1749.687587 79.612 120.2138
1762.366544 79.622 120.8174
1775.137379 79.639 121.3779
1788.000756 79.659 121.8878
1800.957346 79.682 122.3441
1814.007826 79.705 122.7485
1827.152874 79.725 123.1061
1840.393177 79.742 123.4243
1853.729425 79.755 123.7119
1867.162312 79.762 123.9786
1880.692540 79.762 124.2348
1894.320813 79.757 124.4907
1908.047843 79.745 124.7569
1921.874344 79.727 125.0435
1935.801038 79.704 125.3596
1949.828650 79.678 125.7115
1963.957912 79.649 126.1025
1978.189561 79.621 126.5317
1992.524338 79.594 126.9936
2006.962991 79.571 127.4787
2021.506272 79.552 127.9738
2036.154940 79.538 128.4641
2050.909758 79.529 128.9341
2065.771495 79.524 129.3711
2080.740927 79.521 129.7669
2095.818833 79.519 130.1190
2111.006001 79.517 130.4305
2126.303220 79.512 130.7088
2141.711290 79.504 130.9637
2157.231013 79.493 131.2054
2172.863198 79.479 131.4434
2188.608660 79.461 131.6859
2204.468221 79.442 131.9393
2220.442706 79.421 132.2090
2236.532950 79.399 132.4993
2252.739789 79.376 132.8152
2269.064070 79.354 133.1628
2285.506644 79.334 133.5485
2302.068367 79.317 133.9766
2318.750104 79.306 134.4474
2335.552723 79.302 134.9555
2352.477101 79.309 135.4904
2369.524119 79.326 136.0366
2386.694668 79.356 136.5763
2403.989641 79.397 137.0918
2421.409941 79.449 137.5685
2438.956476 79.509 137.9974
2456.630160 79.576 138.3757
2474.431915 79.648 138.7057
2492.362668 79.723 138.9940
2510.423356 79.801 139.2497
2528.614918 79.882 139.4830
2546.938304 79.965 139.7035
2565.394469 80.051 139.9186
2583.984375 80.141 140.1329
2602.708991 80.237 140.3482
2621.569293 80.338 140.5642
2640.566265 80.447 140.7788
2659.700897 80.563 140.9879
2678.974186 80.687 141.1850
2698.387137 80.819 141.3616
2717.940763 80.959 141.5073
2737.636082 81.105 141.6111
2757.474121 81.257 141.6635
2777.455915 81.412 141.6584
2797.582506 81.568 141.5943
2817.854942 81.723 141.4747
2838.274281 81.876 141.3065
2858.841586 82.026 141.0978
2879.557931 82.173 140.8557
2900.424394 82.317 140.5852
2921.442065 82.458 140.2890
2942.612039 82.596 139.9671
2963.935418 82.730 139.6180
2985.413316 82.860 139.2383
3007.046852 82.985 138.8242
3028.837153 83.104 138.3714
3050.785356 83.216 137.8772
3072.892604 83.318 137.3405
3095.160050 83.410 136.7620
3117.588856 83.489 136.1436
3140.180190 83.554 135.4892
3162.935230 83.603 134.8037
3185.855163 83.636 134.0940
3208.941182 83.649 133.3683
3232.194493 83.644 132.6366
3255.616307 83.617 131.9104
3279.207844 83.569 131.2036
3302.970336 83.497 130.5338
3326.905021 83.402 129.9227
3351.013146 83.281 129.3973
3375.295969 83.136 128.9904
3399.754755 82.967 128.7405
3424.390779 82.776 128.6900
3449.205326 82.569 128.8831
3474.199690 82.350 129.3621
3499.375173 82.128 130.1640
3524.733088 81.913 131.3171
3550.274757 81.716 132.8365
3576.001511 81.551 134.7152
