* Measurement data measured by REW V5.31.3
* Source: EXCL: Headset (USB-C to 3.5mm Headphone Jack Adapter), MICROPHONE (Master Volume), 0, volume: 0.750
* Format: 256k Log Swept Sine, 1 sweep at -12.0 dBFS with no timing reference
* Dated: May 28, 2025 2:28:08 PM
* REW Settings:
*  C-weighting compensation: Off
*  Target level: 75.0 dB
* Note: ; 
* Measurement: Arya Stealth L4
* Smoothing: 1/6 octave
* Frequency Step: 96 ppo
* Start Frequency: 20.0 Hz
*
* Freq(Hz) SPL(dB) Phase(degrees)
20.187378 80.181 -141.7629
20.333664 80.192 -141.8384
20.481010 80.207 -141.9390
20.629424 80.226 -142.0613
20.778913 80.251 -142.2014
20.929486 80.279 -142.3560
21.081150 80.313 -142.5221
21.233912 80.352 -142.6976
21.387782 80.395 -142.8807
21.542767 80.442 -143.0701
21.698874 80.492 -143.2648
21.856113 80.545 -143.4641
22.014492 80.599 -143.6670
22.174018 80.654 -143.8730
22.334700 80.708 -144.0815
22.496546 80.761 -144.2922
22.659566 80.811 -144.5052
22.823766 80.858 -144.7212
22.989157 80.901 -144.9412
23.155745 80.939 -145.1671
23.323542 80.973 -145.4012
23.492554 81.002 -145.6462
23.662790 81.025 -145.9048
23.834261 81.044 -146.1794
24.006973 81.057 -146.4720
24.180938 81.066 -146.7836
24.356163 81.070 -147.1142
24.532658 81.069 -147.4627
24.710431 81.065 -147.8265
24.889493 81.057 -148.2023
25.069853 81.046 -148.5859
25.251519 81.032 -148.9724
25.434502 81.016 -149.3571
25.618811 80.998 -149.7352
25.804456 80.979 -150.1027
25.991445 80.959 -150.4564
26.179790 80.938 -150.7941
26.369500 80.917 -151.1147
26.560584 80.896 -151.4181
26.753053 80.875 -151.7054
26.946917 80.854 -151.9782
27.142185 80.833 -152.2386
27.338869 80.813 -152.4892
27.536977 80.793 -152.7321
27.736522 80.775 -152.9694
27.937512 80.758 -153.2026
28.139959 80.743 -153.4327
28.343872 80.730 -153.6603
28.549264 80.719 -153.8855
28.756143 80.712 -154.1082
28.964522 80.709 -154.3281
29.174411 80.709 -154.5451
29.385821 80.712 -154.7588
29.598763 80.719 -154.9687
29.813248 80.728 -155.1740
30.029287 80.739 -155.3733
30.246891 80.752 -155.5648
30.466073 80.765 -155.7457
30.686842 80.778 -155.9132
30.909212 80.790 -156.0647
31.133193 80.802 -156.1982
31.358797 80.815 -156.3135
31.586035 80.829 -156.4119
31.814921 80.844 -156.4972
32.045465 80.863 -156.5749
32.277680 80.886 -156.6518
32.511577 80.913 -156.7352
32.747169 80.945 -156.8319
32.984469 80.982 -156.9469
33.223488 81.024 -157.0835
33.464239 81.071 -157.2423
33.706735 81.123 -157.4224
33.950987 81.179 -157.6210
34.197010 81.238 -157.8347
34.444816 81.300 -158.0595
34.694417 81.365 -158.2912
34.945827 81.431 -158.5255
35.199059 81.497 -158.7576
35.454126 81.562 -158.9825
35.711041 81.625 -159.1952
35.969818 81.685 -159.3913
36.230470 81.741 -159.5672
36.493011 81.794 -159.7216
36.757455 81.844 -159.8555
37.023814 81.891 -159.9722
37.292104 81.937 -160.0775
37.562338 81.981 -160.1778
37.834530 82.024 -160.2801
38.108695 82.066 -160.3901
38.384846 82.107 -160.5120
38.662999 82.147 -160.6480
38.943167 82.186 -160.7987
39.225365 82.224 -160.9630
39.509608 82.261 -161.1392
39.795911 82.297 -161.3253
40.084289 82.331 -161.5196
40.374756 82.364 -161.7205
40.667328 82.395 -161.9273
40.962020 82.426 -162.1393
41.258848 82.455 -162.3556
41.557827 82.483 -162.5742
41.858972 82.511 -162.7922
42.162299 82.539 -163.0048
42.467824 82.566 -163.2062
42.775564 82.593 -163.3903
43.085533 82.621 -163.5518
43.397749 82.648 -163.6879
43.712227 82.676 -163.7987
44.028983 82.703 -163.8876
44.348036 82.729 -163.9608
44.669400 82.753 -164.0265
44.993093 82.775 -164.0939
45.319131 82.794 -164.1728
45.647532 82.812 -164.2726
45.978313 82.828 -164.4014
46.311491 82.843 -164.5654
46.647083 82.857 -164.7670
46.985107 82.872 -165.0043
47.325581 82.887 -165.2705
47.668521 82.901 -165.5555
48.013947 82.915 -165.8470
48.361876 82.929 -166.1339
48.712326 82.943 -166.4076
49.065315 82.956 -166.6632
49.420863 82.968 -166.8996
49.778987 82.978 -167.1180
50.139706 82.988 -167.3212
50.503039 82.997 -167.5122
50.869005 83.004 -167.6939
51.237623 83.010 -167.8693
51.608912 83.015 -168.0409
51.982891 83.019 -168.2109
52.359580 83.021 -168.3808
52.739000 83.019 -168.5513
53.121168 83.015 -168.7229
53.506106 83.008 -168.8958
53.893833 82.997 -169.0702
54.284370 82.984 -169.2467
54.677737 82.969 -169.4258
55.073955 82.953 -169.6078
55.473043 82.938 -169.7929
55.875024 82.922 -169.9812
56.279917 82.906 -170.1733
56.687745 82.891 -170.3707
57.098527 82.876 -170.5751
57.512287 82.861 -170.7879
57.929045 82.847 -171.0086
58.348822 82.836 -171.2341
58.771642 82.828 -171.4579
59.197525 82.825 -171.6718
59.626495 82.830 -171.8673
60.058573 82.842 -172.0389
60.493782 82.864 -172.1853
60.932145 82.894 -172.3097
61.373685 82.930 -172.4181
61.818424 82.971 -172.5177
62.266386 83.015 -172.6157
62.717593 83.060 -172.7175
63.172071 83.105 -172.8272
63.629842 83.149 -172.9474
64.090930 83.193 -173.0791
64.555359 83.237 -173.2224
65.023154 83.279 -173.3767
65.494339 83.321 -173.5413
65.968938 83.362 -173.7153
66.446976 83.402 -173.8975
66.928478 83.440 -174.0864
67.413469 83.476 -174.2798
67.901975 83.511 -174.4755
68.394021 83.543 -174.6713
68.889632 83.572 -174.8652
69.388835 83.600 -175.0563
69.891655 83.624 -175.2442
70.398118 83.646 -175.4294
70.908252 83.665 -175.6124
71.422083 83.683 -175.7941
71.939636 83.698 -175.9748
72.460941 83.711 -176.1550
72.986023 83.722 -176.3346
73.514909 83.731 -176.5136
74.047629 83.738 -176.6917
74.584208 83.744 -176.8685
75.124676 83.747 -177.0438
75.669061 83.749 -177.2173
76.217390 83.750 -177.3893
76.769692 83.749 -177.5604
77.325997 83.746 -177.7315
77.886333 83.742 -177.9038
78.450730 83.736 -178.0787
79.019216 83.729 -178.2572
79.591822 83.721 -178.4399
80.168577 83.711 -178.6269
80.749512 83.701 -178.8182
81.334656 83.689 -179.0137
81.924040 83.677 -179.2130
82.517696 83.664 -179.4156
83.115653 83.650 -179.6209
83.717943 83.636 -179.8279
84.324598 83.621 179.9648
84.935649 83.605 179.7584
85.551128 83.589 179.5540
86.171066 83.573 179.3525
86.795497 83.556 179.1543
87.424453 83.538 178.9595
88.057967 83.520 178.7682
88.696071 83.501 178.5804
89.338800 83.482 178.3960
89.986185 83.462 178.2150
90.638262 83.442 178.0374
91.295065 83.422 177.8630
91.956626 83.401 177.6918
92.622982 83.380 177.5237
93.294166 83.359 177.3588
93.970214 83.337 177.1974
94.651161 83.315 177.0397
95.337042 83.293 176.8860
96.027894 83.271 176.7369
96.723752 83.249 176.5923
97.424652 83.228 176.4521
98.130631 83.208 176.3159
98.841726 83.188 176.1832
99.557974 83.170 176.0535
100.279412 83.153 175.9261
101.006078 83.136 175.8006
101.738010 83.122 175.6763
102.475245 83.108 175.5529
103.217823 83.096 175.4302
103.965782 83.085 175.3079
104.719161 83.076 175.1862
105.477999 83.067 175.0645
106.242336 83.060 174.9425
107.012212 83.053 174.8198
107.787666 83.046 174.6961
108.568740 83.041 174.5721
109.355474 83.036 174.4486
110.147909 83.032 174.3265
110.946086 83.028 174.2067
111.750047 83.026 174.0900
112.559834 83.025 173.9764
113.375489 83.024 173.8661
114.197055 83.024 173.7584
115.024574 83.024 173.6524
115.858089 83.024 173.5471
116.697645 83.025 173.4415
117.543284 83.025 173.3349
118.395051 83.026 173.2271
119.252990 83.027 173.1183
120.117147 83.028 173.0090
120.987565 83.030 172.8996
121.864291 83.031 172.7905
122.747370 83.032 172.6819
123.636848 83.032 172.5735
124.532771 83.032 172.4650
125.435187 83.032 172.3562
126.344142 83.030 172.2466
127.259684 83.028 172.1359
128.181860 83.025 172.0237
129.110718 83.021 171.9096
130.046308 83.016 171.7931
130.988677 83.010 171.6735
131.937875 83.003 171.5508
132.893951 82.995 171.4250
133.856956 82.985 171.2964
134.826938 82.974 171.1656
135.803950 82.961 171.0331
136.788041 82.948 170.8994
137.779264 82.932 170.7650
138.777669 82.916 170.6303
139.783309 82.897 170.4955
140.796237 82.877 170.3611
141.816504 82.855 170.2272
142.844165 82.831 170.0944
143.879273 82.806 169.9631
144.921881 82.778 169.8339
145.972045 82.748 169.7072
147.029819 82.717 169.5831
148.095257 82.684 169.4620
149.168417 82.650 169.3439
150.249353 82.613 169.2291
151.338121 82.576 169.1181
152.434780 82.537 169.0116
153.539385 82.497 168.9105
154.651995 82.455 168.8157
155.772667 82.413 168.7283
156.901460 82.371 168.6492
158.038432 82.328 168.5796
159.183644 82.285 168.5205
160.337154 82.242 168.4728
161.499023 82.199 168.4374
162.669312 82.157 168.4148
163.848081 82.115 168.4054
165.035392 82.073 168.4097
166.231306 82.032 168.4283
167.435887 81.991 168.4616
168.649196 81.951 168.5105
169.871298 81.911 168.5758
171.102255 81.872 168.6581
172.342133 81.835 168.7575
173.590995 81.799 168.8738
174.848907 81.765 169.0062
176.115934 81.733 169.1532
177.392143 81.703 169.3133
178.677599 81.675 169.4848
179.972371 81.649 169.6660
181.276525 81.626 169.8553
182.590129 81.605 170.0507
183.913252 81.587 170.2503
185.245964 81.572 170.4518
186.588332 81.559 170.6528
187.940428 81.548 170.8510
189.302322 81.538 171.0441
190.674085 81.531 171.2303
192.055788 81.524 171.4080
193.447503 81.519 171.5760
194.849303 81.514 171.7335
196.261262 81.511 171.8795
197.683452 81.509 172.0136
199.115948 81.509 172.1354
200.558824 81.510 172.2447
202.012156 81.512 172.3418
203.476019 81.515 172.4271
204.950490 81.520 172.5012
206.435646 81.526 172.5649
207.931564 81.532 172.6190
209.438322 81.539 172.6645
210.955998 81.547 172.7022
212.484672 81.555 172.7332
214.024424 81.564 172.7581
215.575333 81.573 172.7775
217.137481 81.583 172.7916
218.710948 81.594 172.8001
220.295818 81.606 172.8029
221.892172 81.619 172.7992
223.500094 81.633 172.7884
225.119668 81.648 172.7697
226.750978 81.664 172.7424
228.394109 81.682 172.7060
230.049147 81.700 172.6601
231.716178 81.718 172.6046
233.395289 81.738 172.5402
235.086567 81.758 172.4673
236.790102 81.778 172.3874
238.505980 81.798 172.3015
240.234293 81.818 172.2109
241.975130 81.839 172.1168
243.728581 81.860 172.0201
245.494739 81.881 171.9218
247.273695 81.902 171.8224
249.065542 81.922 171.7228
250.870374 81.943 171.6240
252.688284 81.963 171.5265
254.519367 81.983 171.4308
256.363720 82.002 171.3369
258.221437 82.021 171.2448
260.092616 82.040 171.1539
261.977354 82.058 171.0637
263.875750 82.075 170.9734
265.787903 82.092 170.8825
267.713911 82.108 170.7907
269.653877 82.123 170.6980
271.607900 82.138 170.6046
273.576083 82.153 170.5106
275.558528 82.168 170.4154
277.555338 82.183 170.3181
279.566619 82.198 170.2175
281.592474 82.215 170.1125
283.633009 82.232 170.0020
285.688331 82.251 169.8854
287.758546 82.272 169.7625
289.843763 82.293 169.6325
291.944090 82.316 169.4950
294.059638 82.340 169.3491
296.190515 82.365 169.1939
298.336833 82.390 169.0282
300.498705 82.416 168.8509
302.676243 82.441 168.6608
304.869559 82.465 168.4569
307.078770 82.488 168.2383
309.303989 82.510 168.0043
311.545334 82.530 167.7544
313.802919 82.548 167.4887
316.076865 82.563 167.2078
318.367288 82.575 166.9127
320.674309 82.583 166.6051
322.998047 82.587 166.2874
325.338624 82.586 165.9621
327.696162 82.580 165.6328
330.070783 82.568 165.3037
332.462612 82.550 164.9796
334.871773 82.527 164.6657
337.298392 82.497 164.3679
339.742595 82.461 164.0919
342.204510 82.419 163.8432
344.684265 82.371 163.6269
347.181989 82.319 163.4473
349.697813 82.263 163.3081
352.231868 82.203 163.2123
354.784285 82.140 163.1619
357.355198 82.076 163.1583
359.944741 82.011 163.2017
362.553049 81.947 163.2911
365.180258 81.884 163.4248
367.826505 81.824 163.5999
370.491927 81.767 163.8130
373.176665 81.715 164.0600
375.880856 81.668 164.3359
378.604644 81.627 164.6357
381.348169 81.592 164.9537
384.111575 81.563 165.2840
386.895006 81.541 165.6207
389.698607 81.524 165.9578
392.522524 81.514 166.2895
395.366904 81.510 166.6104
398.231895 81.510 166.9160
401.117648 81.514 167.2029
404.024312 81.522 167.4691
406.952038 81.533 167.7138
409.900981 81.545 167.9374
412.871292 81.558 168.1404
415.863128 81.572 168.3234
418.876643 81.586 168.4870
421.911996 81.599 168.6318
424.969344 81.610 168.7588
428.048847 81.621 168.8695
431.150666 81.630 168.9659
434.274961 81.637 169.0503
437.421897 81.644 169.1246
440.591636 81.650 169.1901
443.784345 81.655 169.2474
447.000189 81.661 169.2961
450.239337 81.668 169.3348
453.501956 81.676 169.3613
456.788219 81.685 169.3726
460.098294 81.696 169.3658
463.432356 81.709 169.3373
466.790578 81.724 169.2838
470.173135 81.740 169.2020
473.580203 81.759 169.0894
477.011961 81.778 168.9437
480.468586 81.798 168.7635
483.950259 81.817 168.5476
487.457163 81.837 168.2956
490.989478 81.855 168.0073
494.547390 81.872 167.6833
498.131084 81.886 167.3249
501.740748 81.898 166.9337
505.376568 81.906 166.5119
509.038735 81.911 166.0615
512.727439 81.913 165.5847
516.442874 81.909 165.0837
520.185232 81.901 164.5607
523.954708 81.887 164.0184
527.751500 81.867 163.4599
531.575805 81.840 162.8896
535.427822 81.804 162.3134
539.307753 81.760 161.7392
543.215800 81.706 161.1766
547.152165 81.642 160.6373
551.117055 81.568 160.1348
555.110677 81.484 159.6840
559.133237 81.391 159.3004
563.184947 81.290 158.9990
567.266018 81.183 158.7927
571.376661 81.073 158.6912
575.517092 80.961 158.6998
579.687526 80.852 158.8186
583.888181 80.748 159.0425
588.119275 80.650 159.3623
592.381030 80.563 159.7656
596.673667 80.485 160.2386
600.997410 80.419 160.7670
605.352485 80.365 161.3369
609.739119 80.323 161.9356
614.157540 80.292 162.5512
618.607979 80.271 163.1732
623.090667 80.261 163.7924
627.605839 80.260 164.4014
632.153730 80.267 164.9936
636.734576 80.282 165.5632
641.348617 80.304 166.1052
645.996094 80.332 166.6152
650.677248 80.365 167.0895
655.392323 80.402 167.5257
660.141566 80.443 167.9225
664.925224 80.486 168.2799
669.743546 80.532 168.5978
674.596784 80.580 168.8766
679.485191 80.630 169.1157
684.409020 80.682 169.3146
689.368530 80.735 169.4726
694.363979 80.789 169.5887
699.395626 80.843 169.6613
704.463736 80.899 169.6886
709.568570 80.954 169.6677
714.710396 81.009 169.5955
719.889483 81.063 169.4686
725.106099 81.114 169.2839
730.360516 81.162 169.0386
735.653010 81.205 168.7310
740.983855 81.241 168.3608
746.353329 81.270 167.9307
751.761713 81.289 167.4460
757.209288 81.297 166.9152
762.696339 81.292 166.3488
768.223151 81.275 165.7585
773.790013 81.245 165.1564
779.397214 81.200 164.5541
785.045047 81.141 163.9641
790.733808 81.069 163.3995
796.463791 80.982 162.8756
802.235296 80.882 162.4097
808.048623 80.769 162.0205
813.904077 80.646 161.7266
819.801961 80.515 161.5444
825.742584 80.379 161.4851
831.726255 80.243 161.5530
837.753287 80.111 161.7440
843.823992 79.988 162.0459
849.938689 79.876 162.4399
856.097695 79.778 162.9031
862.301332 79.696 163.4105
868.549922 79.631 163.9375
874.843793 79.583 164.4622
881.183272 79.549 164.9668
887.568689 79.528 165.4390
894.000378 79.519 165.8720
900.478673 79.521 166.2628
907.003913 79.530 166.6108
913.576437 79.548 166.9164
920.196588 79.573 167.1790
926.864712 79.604 167.3967
933.581156 79.642 167.5660
940.346270 79.686 167.6822
947.160407 79.734 167.7399
954.023921 79.786 167.7339
960.937172 79.840 167.6595
967.900519 79.896 167.5141
974.914325 79.949 167.2976
981.978956 80.000 167.0131
989.094780 80.045 166.6674
996.262169 80.084 166.2703
1003.481495 80.115 165.8344
1010.753136 80.136 165.3741
1018.077470 80.149 164.9044
1025.454879 80.153 164.4395
1032.885748 80.148 163.9920
1040.370463 80.137 163.5714
1047.909417 80.120 163.1840
1055.503000 80.099 162.8329
1063.151610 80.075 162.5187
1070.855645 80.049 162.2408
1078.615506 80.021 161.9979
1086.431599 79.993 161.7885
1094.304330 79.964 161.6102
1102.234110 79.935 161.4601
1110.221353 79.907 161.3341
1118.266475 79.879 161.2280
1126.369895 79.851 161.1378
1134.532035 79.822 161.0618
1142.753322 79.791 161.0015
1151.034184 79.758 160.9617
1159.375052 79.722 160.9500
1167.776361 79.685 160.9753
1176.238550 79.646 161.0456
1184.762060 79.608 161.1655
1193.347334 79.574 161.3344
1201.994821 79.544 161.5460
1210.704971 79.520 161.7874
1219.478238 79.505 162.0414
1228.315080 79.496 162.2887
1237.215957 79.494 162.5124
1246.181334 79.496 162.7010
1255.211678 79.500 162.8502
1264.307459 79.503 162.9625
1273.469152 79.504 163.0452
1282.697235 79.502 163.1082
1291.992188 79.495 163.1615
1301.354495 79.485 163.2142
1310.784647 79.471 163.2736
1320.283132 79.452 163.3459
1329.850448 79.431 163.4362
1339.487093 79.407 163.5487
1349.193569 79.380 163.6870
1358.970381 79.352 163.8535
1368.818041 79.323 164.0501
1378.737061 79.294 164.2778
1388.727958 79.265 164.5371
1398.791253 79.238 164.8281
1408.927471 79.213 165.1506
1419.137140 79.191 165.5043
1429.420793 79.172 165.8883
1439.778965 79.157 166.3016
1450.212197 79.148 166.7427
1460.721033 79.144 167.2098
1471.306019 79.146 167.6996
1481.967709 79.155 168.2070
1492.706658 79.171 168.7245
1503.523426 79.194 169.2423
1514.418576 79.223 169.7489
1525.392678 79.257 170.2322
1536.446302 79.294 170.6810
1547.580025 79.331 171.0871
1558.794428 79.366 171.4473
1570.090095 79.394 171.7656
1581.467615 79.412 172.0546
1592.927581 79.419 172.3354
1604.470591 79.412 172.6359
1616.097246 79.393 172.9865
1627.808153 79.363 173.4155
1639.603922 79.327 173.9448
1651.485168 79.287 174.5862
1663.452510 79.250 175.3398
1675.506573 79.219 176.1943
1687.647984 79.199 177.1279
1699.877377 79.192 178.1119
1712.195390 79.199 179.1135
1724.602663 79.221 -179.9011
1737.099845 79.256 -178.9629
1749.687587 79.302 -178.0969
1762.366544 79.355 -177.3211
1775.137379 79.410 -176.6451
1788.000756 79.465 -176.0706
1800.957346 79.514 -175.5903
1814.007826 79.555 -175.1883
1827.152874 79.582 -174.8403
1840.393177 79.596 -174.5160
1853.729425 79.594 -174.1811
1867.162312 79.579 -173.8017
1880.692540 79.551 -173.3475
1894.320813 79.516 -172.7954
1908.047843 79.476 -172.1317
1921.874344 79.437 -171.3537
1935.801038 79.403 -170.4694
1949.828650 79.378 -169.4964
1963.957912 79.366 -168.4604
1978.189561 79.368 -167.3920
1992.524338 79.385 -166.3247
2006.962991 79.418 -165.2916
2021.506272 79.465 -164.3219
2036.154940 79.522 -163.4384
2050.909758 79.587 -162.6558
2065.771495 79.657 -161.9813
2080.740927 79.727 -161.4147
2095.818833 79.796 -160.9498
2111.006001 79.859 -160.5740
2126.303220 79.915 -160.2697
2141.711290 79.962 -160.0148
2157.231013 79.999 -159.7844
2172.863198 80.027 -159.5539
2188.608660 80.048 -159.3013
2204.468221 80.063 -159.0102
2220.442706 80.076 -158.6711
2236.532950 80.091 -158.2824
2252.739789 80.111 -157.8508
2269.064070 80.137 -157.3900
2285.506644 80.173 -156.9186
2302.068367 80.217 -156.4557
2318.750104 80.270 -156.0182
2335.552723 80.329 -155.6175
2352.477101 80.394 -155.2582
2369.524119 80.463 -154.9391
2386.694668 80.535 -154.6548
2403.989641 80.610 -154.3982
2421.409941 80.687 -154.1634
2438.956476 80.768 -153.9476
2456.630160 80.853 -153.7512
2474.431915 80.942 -153.5782
2492.362668 81.036 -153.4339
2510.423356 81.134 -153.3233
2528.614918 81.236 -153.2496
2546.938304 81.340 -153.2136
2565.394469 81.445 -153.2141
2583.984375 81.550 -153.2475
2602.708991 81.655 -153.3083
2621.569293 81.759 -153.3887
2640.566265 81.862 -153.4790
2659.700897 81.963 -153.5690
2678.974186 82.065 -153.6483
2698.387137 82.168 -153.7092
2717.940763 82.275 -153.7478
2737.636082 82.388 -153.7669
2757.474121 82.507 -153.7763
2777.455915 82.635 -153.7926
2797.582506 82.770 -153.8363
2817.854942 82.910 -153.9266
2838.274281 83.053 -154.0777
2858.841586 83.195 -154.2953
2879.557931 83.334 -154.5767
2900.424394 83.467 -154.9123
2921.442065 83.592 -155.2895
2942.612039 83.709 -155.6960
2963.935418 83.817 -156.1223
2985.413316 83.918 -156.5617
3007.046852 84.010 -157.0103
3028.837153 84.094 -157.4654
3050.785356 84.168 -157.9247
3072.892604 84.232 -158.3846
3095.160050 84.285 -158.8391
3117.588856 84.326 -159.2806
3140.180190 84.356 -159.7016
3162.935230 84.376 -160.0957
3185.855163 84.385 -160.4581
3208.941182 84.384 -160.7863
3232.194493 84.376 -161.0802
3255.616307 84.360 -161.3426
3279.207844 84.338 -161.5785
3302.970336 84.309 -161.7943
3326.905021 84.273 -161.9966
3351.013146 84.230 -162.1897
3375.295969 84.177 -162.3724
3399.754755 84.115 -162.5368
3424.390779 84.041 -162.6694
3449.205326 83.957 -162.7539
