* Measurement data measured by REW V5.31.3
* Source: EXCL: Headset (USB-C to 3.5mm Headphone Jack Adapter), MICROPHONE (Master Volume), 0, volume: 0.200
* Format: 256k Log Swept Sine, 1 sweep at -12.0 dBFS with no timing reference
* Dated: Jun 13, 2025 2:34:26 PM
* REW Settings:
*  C-weighting compensation: Off
*  Target level: 75.0 dB
* Note: ; 
* Measurement: Arya Stealth 2 R6
* Smoothing: 1/6 octave
* Frequency Step: 96 ppo
* Start Frequency: 20.0 Hz
*
* Freq(Hz) SPL(dB) Phase(degrees)
20.187378 65.831 -94.4909
20.333664 65.855 -94.7035
20.481010 65.888 -94.9901
20.629424 65.928 -95.3444
20.778913 65.976 -95.7591
20.929486 66.030 -96.2268
21.081150 66.089 -96.7402
21.233912 66.152 -97.2917
21.387782 66.220 -97.8743
21.542767 66.290 -98.4808
21.698874 66.362 -99.1040
21.856113 66.436 -99.7371
22.014492 66.510 -100.3733
22.174018 66.585 -101.0064
22.334700 66.659 -101.6305
22.496546 66.733 -102.2409
22.659566 66.805 -102.8339
22.823766 66.875 -103.4069
22.989157 66.943 -103.9589
23.155745 67.009 -104.4902
23.323542 67.071 -105.0021
23.492554 67.129 -105.4973
23.662790 67.182 -105.9789
23.834261 67.230 -106.4504
24.006973 67.272 -106.9150
24.180938 67.307 -107.3760
24.356163 67.335 -107.8356
24.532658 67.356 -108.2955
24.710431 67.369 -108.7566
24.889493 67.374 -109.2192
25.069853 67.373 -109.6830
25.251519 67.365 -110.1476
25.434502 67.352 -110.6125
25.618811 67.335 -111.0773
25.804456 67.315 -111.5419
25.991445 67.294 -112.0068
26.179790 67.272 -112.4725
26.369500 67.251 -112.9399
26.560584 67.233 -113.4101
26.753053 67.216 -113.8840
26.946917 67.203 -114.3621
27.142185 67.194 -114.8448
27.338869 67.187 -115.3316
27.536977 67.184 -115.8218
27.736522 67.183 -116.3139
27.937512 67.185 -116.8061
28.139959 67.188 -117.2963
28.343872 67.193 -117.7821
28.549264 67.198 -118.2614
28.756143 67.205 -118.7322
28.964522 67.211 -119.1933
29.174411 67.219 -119.6441
29.385821 67.229 -120.0853
29.598763 67.240 -120.5184
29.813248 67.253 -120.9459
30.029287 67.269 -121.3712
30.246891 67.289 -121.7978
30.466073 67.312 -122.2292
30.686842 67.339 -122.6680
30.909212 67.370 -123.1159
31.133193 67.406 -123.5726
31.358797 67.446 -124.0365
31.586035 67.490 -124.5044
31.814921 67.538 -124.9722
32.045465 67.590 -125.4351
32.277680 67.646 -125.8888
32.511577 67.707 -126.3292
32.747169 67.772 -126.7536
32.984469 67.840 -127.1605
33.223488 67.911 -127.5492
33.464239 67.983 -127.9201
33.706735 68.057 -128.2740
33.950987 68.132 -128.6120
34.197010 68.206 -128.9354
34.444816 68.279 -129.2455
34.694417 68.350 -129.5443
34.945827 68.421 -129.8341
35.199059 68.490 -130.1181
35.454126 68.559 -130.4001
35.711041 68.627 -130.6844
35.969818 68.694 -130.9754
36.230470 68.761 -131.2768
36.493011 68.826 -131.5912
36.757455 68.890 -131.9198
37.023814 68.953 -132.2624
37.292104 69.013 -132.6173
37.562338 69.072 -132.9821
37.834530 69.130 -133.3544
38.108695 69.187 -133.7319
38.384846 69.245 -134.1129
38.662999 69.304 -134.4964
38.943167 69.365 -134.8817
39.225365 69.429 -135.2680
39.509608 69.494 -135.6536
39.795911 69.560 -136.0362
40.084289 69.627 -136.4130
40.374756 69.692 -136.7807
40.667328 69.756 -137.1366
40.962020 69.815 -137.4792
41.258848 69.870 -137.8085
41.557827 69.920 -138.1264
41.858972 69.964 -138.4360
42.162299 70.003 -138.7414
42.467824 70.037 -139.0467
42.775564 70.066 -139.3554
43.085533 70.091 -139.6696
43.397749 70.113 -139.9899
43.712227 70.133 -140.3153
44.028983 70.151 -140.6435
44.348036 70.167 -140.9716
44.669400 70.181 -141.2968
44.993093 70.194 -141.6167
45.319131 70.205 -141.9304
45.647532 70.215 -142.2384
45.978313 70.223 -142.5423
46.311491 70.230 -142.8446
46.647083 70.237 -143.1471
46.985107 70.244 -143.4504
47.325581 70.252 -143.7533
47.668521 70.261 -144.0525
48.013947 70.273 -144.3436
48.361876 70.287 -144.6220
48.712326 70.304 -144.8841
49.065315 70.323 -145.1285
49.420863 70.345 -145.3572
49.778987 70.369 -145.5751
50.139706 70.395 -145.7901
50.503039 70.421 -146.0116
50.869005 70.447 -146.2489
51.237623 70.470 -146.5086
51.608912 70.490 -146.7937
51.982891 70.505 -147.1022
52.359580 70.514 -147.4287
52.739000 70.518 -147.7654
53.121168 70.517 -148.1051
53.506106 70.512 -148.4425
53.893833 70.505 -148.7749
54.284370 70.495 -149.1019
54.677737 70.485 -149.4241
55.073955 70.475 -149.7423
55.473043 70.464 -150.0566
55.875024 70.455 -150.3666
56.279917 70.446 -150.6717
56.687745 70.438 -150.9713
57.098527 70.431 -151.2649
57.512287 70.425 -151.5528
57.929045 70.419 -151.8352
58.348822 70.416 -152.1129
58.771642 70.416 -152.3872
59.197525 70.420 -152.6598
59.626495 70.429 -152.9335
60.058573 70.444 -153.2113
60.493782 70.466 -153.4960
60.932145 70.493 -153.7893
61.373685 70.526 -154.0916
61.818424 70.563 -154.4020
62.266386 70.603 -154.7189
62.717593 70.646 -155.0408
63.172071 70.689 -155.3665
63.629842 70.733 -155.6956
64.090930 70.778 -156.0275
64.555359 70.822 -156.3618
65.023154 70.866 -156.6974
65.494339 70.909 -157.0337
65.968938 70.952 -157.3695
66.446976 70.993 -157.7041
66.928478 71.033 -158.0370
67.413469 71.072 -158.3679
67.901975 71.109 -158.6965
68.394021 71.144 -159.0227
68.889632 71.177 -159.3460
69.388835 71.208 -159.6659
69.891655 71.238 -159.9819
70.398118 71.264 -160.2931
70.908252 71.289 -160.5992
71.422083 71.311 -160.8997
71.939636 71.330 -161.1945
72.460941 71.346 -161.4835
72.986023 71.360 -161.7669
73.514909 71.370 -162.0449
74.047629 71.378 -162.3182
74.584208 71.384 -162.5870
75.124676 71.387 -162.8520
75.669061 71.388 -163.1136
76.217390 71.387 -163.3719
76.769692 71.385 -163.6272
77.325997 71.382 -163.8797
77.886333 71.379 -164.1292
78.450730 71.375 -164.3759
79.019216 71.372 -164.6197
79.591822 71.368 -164.8609
80.168577 71.365 -165.0999
80.749512 71.363 -165.3377
81.334656 71.362 -165.5754
81.924040 71.361 -165.8142
82.517696 71.360 -166.0557
83.115653 71.361 -166.3012
83.717943 71.362 -166.5517
84.324598 71.363 -166.8081
84.935649 71.365 -167.0705
85.551128 71.368 -167.3386
86.171066 71.370 -167.6123
86.795497 71.372 -167.8913
87.424453 71.374 -168.1761
88.057967 71.375 -168.4674
88.696071 71.376 -168.7667
89.338800 71.376 -169.0753
89.986185 71.375 -169.3948
90.638262 71.374 -169.7261
91.295065 71.371 -170.0695
91.956626 71.367 -170.4248
92.622982 71.363 -170.7907
93.294166 71.357 -171.1657
93.970214 71.349 -171.5475
94.651161 71.340 -171.9337
95.337042 71.330 -172.3219
96.027894 71.318 -172.7093
96.723752 71.305 -173.0938
97.424652 71.291 -173.4731
98.130631 71.275 -173.8457
98.841726 71.258 -174.2102
99.557974 71.240 -174.5663
100.279412 71.222 -174.9144
101.006078 71.202 -175.2556
101.738010 71.182 -175.5915
102.475245 71.161 -175.9239
103.217823 71.140 -176.2543
103.965782 71.118 -176.5838
104.719161 71.097 -176.9127
105.477999 71.076 -177.2406
106.242336 71.054 -177.5662
107.012212 71.033 -177.8878
107.787666 71.013 -178.2033
108.568740 70.993 -178.5108
109.355474 70.973 -178.8086
110.147909 70.954 -179.0952
110.946086 70.936 -179.3692
111.750047 70.918 -179.6300
112.559834 70.900 -179.8769
113.375489 70.883 179.8900
114.197055 70.867 179.6703
115.024574 70.851 179.4628
115.858089 70.836 179.2660
116.697645 70.820 179.0779
117.543284 70.806 178.8964
118.395051 70.792 178.7188
119.252990 70.778 178.5421
120.117147 70.764 178.3635
120.987565 70.751 178.1808
121.864291 70.737 177.9925
122.747370 70.724 177.7978
123.636848 70.710 177.5969
124.532771 70.695 177.3906
125.435187 70.679 177.1798
126.344142 70.662 176.9659
127.259684 70.644 176.7506
128.181860 70.623 176.5354
129.110718 70.600 176.3221
130.046308 70.575 176.1126
130.988677 70.547 175.9095
131.937875 70.516 175.7153
132.893951 70.482 175.5331
133.856956 70.445 175.3663
134.826938 70.405 175.2177
135.803950 70.363 175.0899
136.788041 70.319 174.9848
137.779264 70.273 174.9034
138.777669 70.226 174.8459
139.783309 70.178 174.8116
140.796237 70.129 174.7993
141.816504 70.081 174.8072
142.844165 70.033 174.8340
143.879273 69.985 174.8785
144.921881 69.938 174.9396
145.972045 69.892 175.0164
147.029819 69.847 175.1077
148.095257 69.804 175.2120
149.168417 69.763 175.3273
150.249353 69.723 175.4509
151.338121 69.686 175.5795
152.434780 69.651 175.7092
153.539385 69.619 175.8359
154.651995 69.590 175.9561
155.772667 69.563 176.0673
156.901460 69.540 176.1690
158.038432 69.519 176.2622
159.183644 69.501 176.3489
160.337154 69.486 176.4313
161.499023 69.475 176.5114
162.669312 69.466 176.5898
163.848081 69.459 176.6667
165.035392 69.456 176.7414
166.231306 69.454 176.8126
167.435887 69.454 176.8790
168.649196 69.456 176.9395
169.871298 69.459 176.9931
171.102255 69.463 177.0392
172.342133 69.468 177.0778
173.590995 69.472 177.1088
174.848907 69.477 177.1323
176.115934 69.482 177.1484
177.392143 69.486 177.1570
178.677599 69.490 177.1575
179.972371 69.494 177.1497
181.276525 69.497 177.1330
182.590129 69.499 177.1073
183.913252 69.501 177.0728
185.245964 69.503 177.0300
186.588332 69.504 176.9796
187.940428 69.505 176.9225
189.302322 69.507 176.8599
190.674085 69.509 176.7931
192.055788 69.513 176.7227
193.447503 69.517 176.6489
194.849303 69.523 176.5715
196.261262 69.529 176.4904
197.683452 69.535 176.4049
199.115948 69.541 176.3150
200.558824 69.547 176.2204
202.012156 69.552 176.1210
203.476019 69.555 176.0167
204.950490 69.558 175.9078
206.435646 69.560 175.7946
207.931564 69.560 175.6776
209.438322 69.561 175.5570
210.955998 69.560 175.4332
212.484672 69.559 175.3059
214.024424 69.558 175.1751
215.575333 69.557 175.0408
217.137481 69.556 174.9032
218.710948 69.554 174.7623
220.295818 69.553 174.6183
221.892172 69.551 174.4713
223.500094 69.550 174.3206
225.119668 69.550 174.1655
226.750978 69.550 174.0056
228.394109 69.552 173.8405
230.049147 69.555 173.6701
231.716178 69.560 173.4943
233.395289 69.567 173.3126
235.086567 69.576 173.1243
236.790102 69.587 172.9293
238.505980 69.600 172.7271
240.234293 69.615 172.5182
241.975130 69.631 172.3029
243.728581 69.647 172.0815
245.494739 69.664 171.8545
247.273695 69.681 171.6228
249.065542 69.697 171.3874
250.870374 69.711 171.1497
252.688284 69.723 170.9105
254.519367 69.733 170.6704
256.363720 69.740 170.4289
258.221437 69.744 170.1846
260.092616 69.746 169.9364
261.977354 69.744 169.6829
263.875750 69.740 169.4231
265.787903 69.732 169.1563
267.713911 69.722 168.8826
269.653877 69.708 168.6027
271.607900 69.691 168.3181
273.576083 69.671 168.0313
275.558528 69.647 167.7451
277.555338 69.620 167.4634
279.566619 69.589 167.1901
281.592474 69.555 166.9299
283.633009 69.517 166.6878
285.688331 69.476 166.4688
287.758546 69.431 166.2779
289.843763 69.384 166.1202
291.944090 69.335 166.0002
294.059638 69.285 165.9221
296.190515 69.234 165.8889
298.336833 69.184 165.9028
300.498705 69.135 165.9649
302.676243 69.089 166.0743
304.869559 69.046 166.2291
307.078770 69.008 166.4252
309.303989 68.975 166.6574
311.545334 68.948 166.9196
313.802919 68.927 167.2048
316.076865 68.913 167.5065
318.367288 68.907 167.8177
320.674309 68.907 168.1318
322.998047 68.913 168.4423
325.338624 68.926 168.7430
327.696162 68.945 169.0284
330.070783 68.969 169.2937
332.462612 68.997 169.5348
334.871773 69.028 169.7485
337.298392 69.062 169.9329
339.742595 69.097 170.0869
342.204510 69.133 170.2105
344.684265 69.169 170.3042
347.181989 69.205 170.3694
349.697813 69.240 170.4077
352.231868 69.273 170.4213
354.784285 69.305 170.4127
357.355198 69.335 170.3845
359.944741 69.362 170.3392
362.553049 69.388 170.2795
365.180258 69.411 170.2077
367.826505 69.433 170.1260
370.491927 69.452 170.0362
373.176665 69.471 169.9397
375.880856 69.488 169.8376
378.604644 69.504 169.7303
381.348169 69.520 169.6179
384.111575 69.537 169.4998
386.895006 69.553 169.3749
389.698607 69.571 169.2417
392.522524 69.589 169.0981
395.366904 69.609 168.9412
398.231895 69.630 168.7680
401.117648 69.653 168.5747
404.024312 69.676 168.3574
406.952038 69.699 168.1117
409.900981 69.722 167.8331
412.871292 69.745 167.5173
415.863128 69.765 167.1609
418.876643 69.781 166.7612
421.911996 69.794 166.3171
424.969344 69.800 165.8288
428.048847 69.799 165.2980
431.150666 69.789 164.7280
434.274961 69.770 164.1236
437.421897 69.739 163.4913
440.591636 69.696 162.8395
443.784345 69.640 162.1784
447.000189 69.570 161.5201
450.239337 69.485 160.8784
453.501956 69.386 160.2691
456.788219 69.272 159.7090
460.098294 69.144 159.2155
463.432356 69.005 158.8055
466.790578 68.854 158.4947
470.173135 68.696 158.2958
473.580203 68.533 158.2182
477.011961 68.369 158.2668
480.468586 68.206 158.4414
483.950259 68.049 158.7368
487.457163 67.902 159.1424
490.989478 67.766 159.6433
494.547390 67.645 160.2211
498.131084 67.539 160.8554
501.740748 67.451 161.5248
505.376568 67.380 162.2091
509.038735 67.326 162.8895
512.727439 67.288 163.5498
516.442874 67.265 164.1769
520.185232 67.255 164.7611
523.954708 67.258 165.2960
527.751500 67.270 165.7784
531.575805 67.291 166.2075
535.427822 67.320 166.5840
539.307753 67.355 166.9098
543.215800 67.396 167.1872
547.152165 67.441 167.4183
551.117055 67.490 167.6051
555.110677 67.543 167.7494
559.133237 67.598 167.8529
563.184947 67.655 167.9177
567.266018 67.713 167.9454
571.376661 67.773 167.9374
575.517092 67.833 167.8939
579.687526 67.893 167.8135
583.888181 67.952 167.6937
588.119275 68.010 167.5314
592.381030 68.065 167.3236
596.673667 68.117 167.0684
600.997410 68.163 166.7647
605.352485 68.202 166.4137
609.739119 68.233 166.0183
614.157540 68.255 165.5838
618.607979 68.265 165.1176
623.090667 68.263 164.6295
627.605839 68.248 164.1319
632.153730 68.219 163.6392
636.734576 68.175 163.1675
641.348617 68.116 162.7340
645.996094 68.044 162.3562
650.677248 67.959 162.0514
655.392323 67.863 161.8359
660.141566 67.758 161.7236
664.925224 67.647 161.7250
669.743546 67.534 161.8448
674.596784 67.423 162.0811
679.485191 67.317 162.4248
684.409020 67.218 162.8613
689.368530 67.130 163.3727
694.363979 67.053 163.9412
699.395626 66.989 164.5508
704.463736 66.936 165.1881
709.568570 66.896 165.8420
714.710396 66.868 166.5027
719.889483 66.852 167.1608
725.106099 66.848 167.8061
730.360516 66.855 168.4271
735.653010 66.872 169.0118
740.983855 66.899 169.5487
746.353329 66.935 170.0278
751.761713 66.977 170.4413
757.209288 67.026 170.7827
762.696339 67.079 171.0468
768.223151 67.135 171.2284
773.790013 67.192 171.3232
779.397214 67.249 171.3281
785.045047 67.304 171.2429
790.733808 67.355 171.0705
796.463791 67.400 170.8174
802.235296 67.438 170.4929
808.048623 67.467 170.1078
813.904077 67.486 169.6732
819.801961 67.494 169.1998
825.742584 67.491 168.6979
831.726255 67.476 168.1782
837.753287 67.449 167.6534
843.823992 67.408 167.1380
849.938689 67.355 166.6481
856.097695 67.289 166.2008
862.301332 67.212 165.8122
868.549922 67.127 165.4967
874.843793 67.035 165.2657
881.183272 66.939 165.1266
887.568689 66.843 165.0823
894.000378 66.750 165.1307
900.478673 66.662 165.2651
907.003913 66.582 165.4749
913.576437 66.513 165.7467
920.196588 66.454 166.0658
926.864712 66.408 166.4174
933.581156 66.375 166.7881
940.346270 66.354 167.1659
947.160407 66.347 167.5406
954.023921 66.352 167.9017
960.937172 66.370 168.2380
967.900519 66.400 168.5367
974.914325 66.442 168.7847
981.978956 66.494 168.9695
989.094780 66.553 169.0811
996.262169 66.619 169.1128
1003.481495 66.687 169.0613
1010.753136 66.756 168.9275
1018.077470 66.824 168.7155
1025.454879 66.887 168.4330
1032.885748 66.945 168.0901
1040.370463 66.996 167.6983
1047.909417 67.038 167.2692
1055.503000 67.073 166.8138
1063.151610 67.098 166.3423
1070.855645 67.114 165.8646
1078.615506 67.120 165.3911
1086.431599 67.117 164.9327
1094.304330 67.104 164.5012
1102.234110 67.083 164.1079
1110.221353 67.054 163.7635
1118.266475 67.019 163.4771
1126.369895 66.981 163.2548
1134.532035 66.940 163.0996
1142.753322 66.901 163.0104
1151.034184 66.864 162.9814
1159.375052 66.832 163.0026
1167.776361 66.806 163.0611
1176.238550 66.787 163.1432
1184.762060 66.774 163.2358
1193.347334 66.766 163.3277
1201.994821 66.764 163.4097
1210.704971 66.765 163.4749
1219.478238 66.769 163.5184
1228.315080 66.774 163.5372
1237.215957 66.780 163.5304
1246.181334 66.784 163.4994
1255.211678 66.786 163.4475
1264.307459 66.785 163.3798
1273.469152 66.780 163.3020
1282.697235 66.770 163.2206
1291.992188 66.756 163.1429
1301.354495 66.737 163.0768
1310.784647 66.714 163.0304
1320.283132 66.687 163.0103
1329.850448 66.657 163.0211
1339.487093 66.626 163.0651
1349.193569 66.595 163.1425
1358.970381 66.564 163.2511
1368.818041 66.535 163.3863
1378.737061 66.509 163.5414
1388.727958 66.486 163.7093
1398.791253 66.465 163.8834
1408.927471 66.446 164.0589
1419.137140 66.429 164.2330
1429.420793 66.413 164.4054
1439.778965 66.396 164.5786
1450.212197 66.379 164.7578
1460.721033 66.360 164.9497
1471.306019 66.340 165.1622
1481.967709 66.318 165.4036
1492.706658 66.295 165.6825
1503.523426 66.271 166.0062
1514.418576 66.249 166.3798
1525.392678 66.228 166.8057
1536.446302 66.209 167.2831
1547.580025 66.195 167.8083
1558.794428 66.185 168.3735
1570.090095 66.180 168.9685
1581.467615 66.180 169.5817
1592.927581 66.184 170.2018
1604.470591 66.192 170.8188
1616.097246 66.202 171.4243
1627.808153 66.213 172.0119
1639.603922 66.224 172.5776
1651.485168 66.233 173.1193
1663.452510 66.240 173.6374
1675.506573 66.243 174.1356
1687.647984 66.241 174.6210
1699.877377 66.232 175.1055
1712.195390 66.217 175.6046
1724.602663 66.195 176.1365
1737.099845 66.169 176.7189
1749.687587 66.141 177.3655
1762.366544 66.114 178.0821
1775.137379 66.092 178.8643
1788.000756 66.078 179.6973
1800.957346 66.073 -179.4427
1814.007826 66.080 -178.5832
1827.152874 66.096 -177.7509
1840.393177 66.121 -176.9670
1853.729425 66.151 -176.2450
1867.162312 66.183 -175.5901
1880.692540 66.214 -175.0001
1894.320813 66.242 -174.4663
1908.047843 66.264 -173.9758
1921.874344 66.280 -173.5128
1935.801038 66.289 -173.0610
1949.828650 66.292 -172.6056
1963.957912 66.289 -172.1351
1978.189561 66.282 -171.6432
1992.524338 66.273 -171.1294
2006.962991 66.264 -170.5986
2021.506272 66.254 -170.0587
2036.154940 66.246 -169.5188
2050.909758 66.239 -168.9875
2065.771495 66.233 -168.4719
2080.740927 66.227 -167.9759
2095.818833 66.221 -167.5008
2111.006001 66.213 -167.0441
2126.303220 66.204 -166.6003
2141.711290 66.192 -166.1612
2157.231013 66.177 -165.7170
2172.863198 66.161 -165.2584
2188.608660 66.145 -164.7774
2204.468221 66.128 -164.2686
2220.442706 66.114 -163.7298
2236.532950 66.103 -163.1621
2252.739789 66.097 -162.5693
2269.064070 66.097 -161.9571
2285.506644 66.105 -161.3333
2302.068367 66.119 -160.7064
2318.750104 66.142 -160.0858
2335.552723 66.173 -159.4809
2352.477101 66.211 -158.9000
2369.524119 66.256 -158.3492
2386.694668 66.307 -157.8310
2403.989641 66.362 -157.3443
2421.409941 66.421 -156.8842
2438.956476 66.483 -156.4441
2456.630160 66.550 -156.0176
2474.431915 66.621 -155.6003
2492.362668 66.698 -155.1921
2510.423356 66.782 -154.7968
2528.614918 66.872 -154.4222
2546.938304 66.969 -154.0770
2565.394469 67.072 -153.7692
2583.984375 67.180 -153.5032
2602.708991 67.290 -153.2794
2621.569293 67.403 -153.0938
2640.566265 67.517 -152.9395
2659.700897 67.632 -152.8072
2678.974186 67.748 -152.6876
2698.387137 67.865 -152.5727
2717.940763 67.985 -152.4585
2737.636082 68.109 -152.3470
2757.474121 68.239 -152.2463
2777.455915 68.373 -152.1691
2797.582506 68.512 -152.1300
2817.854942 68.652 -152.1425
2838.274281 68.793 -152.2169
2858.841586 68.931 -152.3591
2879.557931 69.062 -152.5691
2900.424394 69.184 -152.8410
2921.442065 69.293 -153.1632
2942.612039 69.387 -153.5193
2963.935418 69.465 -153.8890
2985.413316 69.526 -154.2501
3007.046852 69.569 -154.5791
3028.837153 69.595 -154.8529
3050.785356 69.605 -155.0492
3072.892604 69.601 -155.1456
3095.160050 69.584 -155.1199
3117.588856 69.556 -154.9500
3140.180190 69.522 -154.6154
3162.935230 69.485 -154.0980
3185.855163 69.449 -153.3816
3208.941182 69.419 -152.4520
3232.194493 69.401 -151.2976
3255.616307 69.402 -149.9161
3279.207844 69.430 -148.3252
3302.970336 69.493 -146.5734
3326.905021 69.597 -144.7440
3351.013146 69.744 -142.9468
3375.295969 69.931 -141.2988
3399.754755 70.150 -139.9005
3424.390779 70.390 -138.8181
