* Measurement data measured by REW V5.31.3
* Source: EXCL: Headset (USB-C to 3.5mm Headphone Jack Adapter), MICROPHONE (Master Volume), 0, volume: 0.750
* Format: 256k Log Swept Sine, 1 sweep at -12.0 dBFS with no timing reference
* Dated: May 28, 2025 2:32:22 PM
* REW Settings:
*  C-weighting compensation: Off
*  Target level: 75.0 dB
* Note: ; 
* Measurement: Arya Stealth R6
* Smoothing: 1/6 octave
* Frequency Step: 96 ppo
* Start Frequency: 20.0 Hz
*
* Freq(Hz) SPL(dB) Phase(degrees)
20.187378 80.944 -141.0582
20.333664 80.962 -141.1665
20.481010 80.987 -141.3131
20.629424 81.018 -141.4957
20.778913 81.057 -141.7112
20.929486 81.101 -141.9566
21.081150 81.152 -142.2283
21.233912 81.209 -142.5229
21.387782 81.271 -142.8367
21.542767 81.338 -143.1659
21.698874 81.408 -143.5066
21.856113 81.480 -143.8549
22.014492 81.553 -144.2068
22.174018 81.626 -144.5584
22.334700 81.698 -144.9061
22.496546 81.766 -145.2466
22.659566 81.830 -145.5767
22.823766 81.888 -145.8942
22.989157 81.939 -146.1973
23.155745 81.983 -146.4853
23.323542 82.019 -146.7581
23.492554 82.047 -147.0170
23.662790 82.067 -147.2642
23.834261 82.079 -147.5031
24.006973 82.085 -147.7378
24.180938 82.084 -147.9732
24.356163 82.078 -148.2145
24.532658 82.067 -148.4664
24.710431 82.054 -148.7333
24.889493 82.037 -149.0181
25.069853 82.019 -149.3223
25.251519 81.999 -149.6454
25.434502 81.979 -149.9847
25.618811 81.957 -150.3358
25.804456 81.934 -150.6924
25.991445 81.911 -151.0473
26.179790 81.888 -151.3926
26.369500 81.864 -151.7208
26.560584 81.839 -152.0253
26.753053 81.815 -152.3011
26.946917 81.791 -152.5455
27.142185 81.768 -152.7582
27.338869 81.745 -152.9417
27.536977 81.724 -153.1008
27.736522 81.705 -153.2423
27.937512 81.688 -153.3744
28.139959 81.672 -153.5057
28.343872 81.658 -153.6447
28.549264 81.646 -153.7983
28.756143 81.636 -153.9718
28.964522 81.626 -154.1679
29.174411 81.617 -154.3866
29.385821 81.609 -154.6255
29.598763 81.601 -154.8800
29.813248 81.594 -155.1438
30.029287 81.588 -155.4104
30.246891 81.583 -155.6732
30.466073 81.581 -155.9269
30.686842 81.582 -156.1676
30.909212 81.586 -156.3939
31.133193 81.595 -156.6062
31.358797 81.608 -156.8069
31.586035 81.626 -156.9995
31.814921 81.649 -157.1882
32.045465 81.676 -157.3772
32.277680 81.707 -157.5699
32.511577 81.742 -157.7686
32.747169 81.781 -157.9744
32.984469 81.823 -158.1869
33.223488 81.868 -158.4049
33.464239 81.916 -158.6264
33.706735 81.967 -158.8490
33.950987 82.021 -159.0703
34.197010 82.078 -159.2880
34.444816 82.137 -159.5000
34.694417 82.199 -159.7049
34.945827 82.261 -159.9015
35.199059 82.324 -160.0894
35.454126 82.388 -160.2689
35.711041 82.451 -160.4405
35.969818 82.512 -160.6056
36.230470 82.572 -160.7658
36.493011 82.630 -160.9229
36.757455 82.686 -161.0787
37.023814 82.739 -161.2346
37.292104 82.789 -161.3916
37.562338 82.837 -161.5498
37.834530 82.883 -161.7090
38.108695 82.927 -161.8682
38.384846 82.969 -162.0264
38.662999 83.010 -162.1825
38.943167 83.050 -162.3353
39.225365 83.089 -162.4841
39.509608 83.127 -162.6281
39.795911 83.164 -162.7670
40.084289 83.200 -162.9006
40.374756 83.235 -163.0292
40.667328 83.269 -163.1535
40.962020 83.301 -163.2749
41.258848 83.333 -163.3951
41.557827 83.363 -163.5164
41.858972 83.393 -163.6410
42.162299 83.422 -163.7704
42.467824 83.450 -163.9054
42.775564 83.477 -164.0456
43.085533 83.504 -164.1897
43.397749 83.529 -164.3361
43.712227 83.553 -164.4832
44.028983 83.576 -164.6303
44.348036 83.599 -164.7774
44.669400 83.620 -164.9255
44.993093 83.640 -165.0763
45.319131 83.659 -165.2313
45.647532 83.677 -165.3922
45.978313 83.693 -165.5597
46.311491 83.708 -165.7344
46.647083 83.723 -165.9161
46.985107 83.737 -166.1039
47.325581 83.750 -166.2969
47.668521 83.764 -166.4935
48.013947 83.776 -166.6918
48.361876 83.788 -166.8904
48.712326 83.799 -167.0875
49.065315 83.809 -167.2822
49.420863 83.817 -167.4740
49.778987 83.824 -167.6631
50.139706 83.828 -167.8504
50.503039 83.832 -168.0370
50.869005 83.834 -168.2242
51.237623 83.835 -168.4124
51.608912 83.836 -168.6011
51.982891 83.836 -168.7886
52.359580 83.836 -168.9719
52.739000 83.834 -169.1476
53.121168 83.833 -169.3129
53.506106 83.830 -169.4662
53.893833 83.826 -169.6078
54.284370 83.821 -169.7400
54.677737 83.815 -169.8663
55.073955 83.808 -169.9907
55.473043 83.800 -170.1173
55.875024 83.790 -170.2490
56.279917 83.779 -170.3878
56.687745 83.766 -170.5350
57.098527 83.752 -170.6908
57.512287 83.737 -170.8555
57.929045 83.723 -171.0286
58.348822 83.709 -171.2094
58.771642 83.698 -171.3968
59.197525 83.693 -171.5895
59.626495 83.693 -171.7864
60.058573 83.702 -171.9867
60.493782 83.719 -172.1898
60.932145 83.743 -172.3948
61.373685 83.774 -172.6004
61.818424 83.810 -172.8050
62.266386 83.848 -173.0071
62.717593 83.888 -173.2060
63.172071 83.928 -173.4017
63.629842 83.968 -173.5947
64.090930 84.008 -173.7853
64.555359 84.047 -173.9738
65.023154 84.085 -174.1601
65.494339 84.122 -174.3439
65.968938 84.157 -174.5250
66.446976 84.192 -174.7032
66.928478 84.224 -174.8785
67.413469 84.256 -175.0511
67.901975 84.286 -175.2211
68.394021 84.315 -175.3889
68.889632 84.343 -175.5548
69.388835 84.369 -175.7190
69.891655 84.395 -175.8817
70.398118 84.418 -176.0430
70.908252 84.439 -176.2030
71.422083 84.459 -176.3620
71.939636 84.477 -176.5198
72.460941 84.492 -176.6763
72.986023 84.505 -176.8313
73.514909 84.516 -176.9844
74.047629 84.525 -177.1358
74.584208 84.531 -177.2855
75.124676 84.536 -177.4341
75.669061 84.538 -177.5819
76.217390 84.539 -177.7294
76.769692 84.538 -177.8767
77.325997 84.535 -178.0241
77.886333 84.531 -178.1714
78.450730 84.526 -178.3186
79.019216 84.520 -178.4658
79.591822 84.514 -178.6135
80.168577 84.507 -178.7625
80.749512 84.501 -178.9137
81.334656 84.494 -179.0683
81.924040 84.488 -179.2273
82.517696 84.483 -179.3914
83.115653 84.479 -179.5610
83.717943 84.475 -179.7360
84.324598 84.472 -179.9158
84.935649 84.470 179.9005
85.551128 84.468 179.7135
86.171066 84.466 179.5240
86.795497 84.464 179.3325
87.424453 84.462 179.1391
88.057967 84.459 178.9437
88.696071 84.456 178.7461
89.338800 84.453 178.5458
89.986185 84.449 178.3422
90.638262 84.445 178.1347
91.295065 84.441 177.9224
91.956626 84.436 177.7044
92.622982 84.430 177.4801
93.294166 84.422 177.2495
93.970214 84.414 177.0128
94.651161 84.405 176.7711
95.337042 84.394 176.5253
96.027894 84.382 176.2768
96.723752 84.369 176.0263
97.424652 84.355 175.7745
98.130631 84.340 175.5216
98.841726 84.324 175.2681
99.557974 84.308 175.0140
100.279412 84.291 174.7598
101.006078 84.273 174.5060
101.738010 84.256 174.2531
102.475245 84.239 174.0021
103.217823 84.222 173.7538
103.965782 84.205 173.5095
104.719161 84.188 173.2701
105.477999 84.172 173.0369
106.242336 84.156 172.8105
107.012212 84.140 172.5914
107.787666 84.124 172.3790
108.568740 84.109 172.1727
109.355474 84.095 171.9720
110.147909 84.081 171.7770
110.946086 84.067 171.5880
111.750047 84.055 171.4058
112.559834 84.042 171.2313
113.375489 84.031 171.0654
114.197055 84.020 170.9085
115.024574 84.009 170.7610
115.858089 83.999 170.6227
116.697645 83.989 170.4926
117.543284 83.980 170.3690
118.395051 83.972 170.2496
119.252990 83.964 170.1318
120.117147 83.957 170.0135
120.987565 83.949 169.8934
121.864291 83.942 169.7713
122.747370 83.935 169.6475
123.636848 83.928 169.5225
124.532771 83.921 169.3965
125.435187 83.913 169.2692
126.344142 83.904 169.1399
127.259684 83.895 169.0075
128.181860 83.885 168.8709
129.110718 83.874 168.7294
130.046308 83.862 168.5826
130.988677 83.848 168.4306
131.937875 83.834 168.2738
132.893951 83.818 168.1129
133.856956 83.800 167.9485
134.826938 83.780 167.7815
135.803950 83.758 167.6127
136.788041 83.734 167.4433
137.779264 83.706 167.2745
138.777669 83.676 167.1076
139.783309 83.644 166.9441
140.796237 83.608 166.7852
141.816504 83.569 166.6325
142.844165 83.528 166.4874
143.879273 83.484 166.3511
144.921881 83.438 166.2251
145.972045 83.389 166.1105
147.029819 83.339 166.0086
148.095257 83.287 165.9204
149.168417 83.234 165.8472
150.249353 83.179 165.7899
151.338121 83.125 165.7495
152.434780 83.070 165.7269
153.539385 83.015 165.7228
154.651995 82.961 165.7375
155.772667 82.907 165.7713
156.901460 82.855 165.8237
158.038432 82.804 165.8941
159.183644 82.754 165.9818
160.337154 82.707 166.0857
161.499023 82.662 166.2046
162.669312 82.618 166.3370
163.848081 82.578 166.4813
165.035392 82.539 166.6353
166.231306 82.503 166.7974
167.435887 82.469 166.9664
168.649196 82.437 167.1412
169.871298 82.407 167.3213
171.102255 82.380 167.5059
172.342133 82.355 167.6941
173.590995 82.333 167.8850
174.848907 82.313 168.0775
176.115934 82.295 168.2701
177.392143 82.279 168.4614
178.677599 82.266 168.6499
179.972371 82.254 168.8340
181.276525 82.245 169.0124
182.590129 82.237 169.1837
183.913252 82.231 169.3474
185.245964 82.227 169.5031
186.588332 82.223 169.6512
187.940428 82.221 169.7919
189.302322 82.220 169.9254
190.674085 82.220 170.0518
192.055788 82.221 170.1707
193.447503 82.223 170.2816
194.849303 82.227 170.3834
196.261262 82.231 170.4754
197.683452 82.235 170.5563
199.115948 82.241 170.6249
200.558824 82.248 170.6800
202.012156 82.254 170.7207
203.476019 82.262 170.7468
204.950490 82.269 170.7585
206.435646 82.277 170.7568
207.931564 82.285 170.7435
209.438322 82.293 170.7203
210.955998 82.301 170.6895
212.484672 82.309 170.6527
214.024424 82.318 170.6116
215.575333 82.327 170.5674
217.137481 82.336 170.5208
218.710948 82.346 170.4725
220.295818 82.356 170.4228
221.892172 82.367 170.3718
223.500094 82.377 170.3193
225.119668 82.389 170.2650
226.750978 82.400 170.2083
228.394109 82.413 170.1488
230.049147 82.426 170.0861
231.716178 82.440 170.0200
233.395289 82.455 169.9505
235.086567 82.471 169.8779
236.790102 82.488 169.8026
238.505980 82.506 169.7248
240.234293 82.524 169.6443
241.975130 82.543 169.5608
243.728581 82.564 169.4733
245.494739 82.585 169.3809
247.273695 82.606 169.2821
249.065542 82.629 169.1757
250.870374 82.653 169.0604
252.688284 82.677 168.9352
254.519367 82.701 168.7994
256.363720 82.726 168.6527
258.221437 82.750 168.4951
260.092616 82.773 168.3270
261.977354 82.796 168.1489
263.875750 82.818 167.9612
265.787903 82.838 167.7647
267.713911 82.858 167.5593
269.653877 82.876 167.3450
271.607900 82.893 167.1211
273.576083 82.909 166.8865
275.558528 82.924 166.6399
277.555338 82.937 166.3801
279.566619 82.948 166.1066
281.592474 82.957 165.8189
283.633009 82.964 165.5173
285.688331 82.968 165.2027
287.758546 82.969 164.8762
289.843763 82.967 164.5396
291.944090 82.962 164.1952
294.059638 82.952 163.8463
296.190515 82.938 163.4970
298.336833 82.919 163.1524
300.498705 82.895 162.8181
302.676243 82.866 162.5002
304.869559 82.832 162.2049
307.078770 82.793 161.9382
309.303989 82.749 161.7057
311.545334 82.700 161.5120
313.802919 82.649 161.3611
316.076865 82.595 161.2559
318.367288 82.539 161.1982
320.674309 82.483 161.1891
322.998047 82.428 161.2287
325.338624 82.373 161.3166
327.696162 82.321 161.4512
330.070783 82.272 161.6304
332.462612 82.226 161.8508
334.871773 82.185 162.1086
337.298392 82.149 162.3987
339.742595 82.119 162.7160
342.204510 82.094 163.0546
344.684265 82.074 163.4084
347.181989 82.061 163.7709
349.697813 82.054 164.1360
352.231868 82.051 164.4977
354.784285 82.054 164.8503
357.355198 82.062 165.1888
359.944741 82.073 165.5082
362.553049 82.089 165.8045
365.180258 82.108 166.0743
367.826505 82.130 166.3153
370.491927 82.154 166.5260
373.176665 82.180 166.7059
375.880856 82.208 166.8552
378.604644 82.236 166.9745
381.348169 82.265 167.0654
384.111575 82.294 167.1294
386.895006 82.323 167.1689
389.698607 82.351 167.1865
392.522524 82.377 167.1849
395.366904 82.402 167.1670
398.231895 82.425 167.1353
401.117648 82.447 167.0926
404.024312 82.467 167.0412
406.952038 82.486 166.9832
409.900981 82.503 166.9202
412.871292 82.519 166.8529
415.863128 82.534 166.7812
418.876643 82.549 166.7042
421.911996 82.563 166.6200
424.969344 82.577 166.5258
428.048847 82.591 166.4181
431.150666 82.605 166.2928
434.274961 82.620 166.1452
437.421897 82.634 165.9705
440.591636 82.647 165.7640
443.784345 82.660 165.5212
447.000189 82.671 165.2386
450.239337 82.681 164.9132
453.501956 82.687 164.5431
456.788219 82.690 164.1275
460.098294 82.688 163.6668
463.432356 82.680 163.1626
466.790578 82.666 162.6179
470.173135 82.643 162.0372
473.580203 82.612 161.4268
477.011961 82.570 160.7946
480.468586 82.516 160.1506
483.950259 82.450 159.5065
487.457163 82.371 158.8762
490.989478 82.279 158.2751
494.547390 82.173 157.7200
498.131084 82.055 157.2286
501.740748 81.925 156.8185
505.376568 81.786 156.5063
509.038735 81.639 156.3063
512.727439 81.489 156.2298
516.442874 81.339 156.2834
520.185232 81.191 156.4686
523.954708 81.051 156.7809
527.751500 80.922 157.2100
531.575805 80.808 157.7401
535.427822 80.710 158.3514
539.307753 80.631 159.0216
543.215800 80.571 159.7274
547.152165 80.531 160.4465
551.117055 80.509 161.1584
555.110677 80.506 161.8453
559.133237 80.519 162.4924
563.184947 80.546 163.0882
567.266018 80.585 163.6240
571.376661 80.634 164.0943
575.517092 80.692 164.4960
579.687526 80.755 164.8283
583.888181 80.822 165.0929
588.119275 80.891 165.2927
592.381030 80.960 165.4322
596.673667 81.028 165.5163
600.997410 81.094 165.5505
605.352485 81.157 165.5401
609.739119 81.218 165.4896
614.157540 81.275 165.4025
618.607979 81.328 165.2813
623.090667 81.377 165.1274
627.605839 81.423 164.9415
632.153730 81.465 164.7234
636.734576 81.502 164.4724
641.348617 81.535 164.1874
645.996094 81.563 163.8666
650.677248 81.584 163.5085
655.392323 81.599 163.1126
660.141566 81.606 162.6803
664.925224 81.602 162.2162
669.743546 81.586 161.7286
674.596784 81.558 161.2291
679.485191 81.515 160.7323
684.409020 81.458 160.2552
689.368530 81.386 159.8159
694.363979 81.299 159.4326
699.395626 81.200 159.1235
704.463736 81.089 158.9055
709.568570 80.969 158.7935
714.710396 80.844 158.7987
719.889483 80.715 158.9277
725.106099 80.588 159.1805
730.360516 80.465 159.5493
735.653010 80.351 160.0194
740.983855 80.248 160.5710
746.353329 80.157 161.1818
751.761713 80.080 161.8301
757.209288 80.018 162.4963
762.696339 79.969 163.1636
768.223151 79.932 163.8174
773.790013 79.908 164.4456
779.397214 79.896 165.0375
785.045047 79.893 165.5849
790.733808 79.899 166.0813
796.463791 79.913 166.5218
802.235296 79.934 166.9028
808.048623 79.961 167.2214
813.904077 79.993 167.4751
819.801961 80.028 167.6621
825.742584 80.065 167.7817
831.726255 80.103 167.8345
837.753287 80.142 167.8224
843.823992 80.179 167.7488
849.938689 80.214 167.6169
856.097695 80.246 167.4303
862.301332 80.275 167.1918
868.549922 80.299 166.9041
874.843793 80.318 166.5698
881.183272 80.330 166.1925
887.568689 80.334 165.7774
894.000378 80.330 165.3314
900.478673 80.316 164.8637
907.003913 80.291 164.3858
913.576437 80.254 163.9117
920.196588 80.205 163.4584
926.864712 80.143 163.0448
933.581156 80.071 162.6912
940.346270 79.990 162.4169
947.160407 79.903 162.2374
954.023921 79.813 162.1617
960.937172 79.725 162.1910
967.900519 79.643 162.3180
974.914325 79.569 162.5285
981.978956 79.507 162.8044
989.094780 79.458 163.1258
996.262169 79.422 163.4744
1003.481495 79.400 163.8343
1010.753136 79.390 164.1938
1018.077470 79.391 164.5448
1025.454879 79.403 164.8816
1032.885748 79.426 165.1996
1040.370463 79.459 165.4931
1047.909417 79.500 165.7549
1055.503000 79.550 165.9758
1063.151610 79.607 166.1459
1070.855645 79.670 166.2557
1078.615506 79.735 166.2970
1086.431599 79.801 166.2650
1094.304330 79.864 166.1595
1102.234110 79.923 165.9851
1110.221353 79.973 165.7520
1118.266475 80.014 165.4743
1126.369895 80.044 165.1690
1134.532035 80.062 164.8548
1142.753322 80.068 164.5506
1151.034184 80.064 164.2747
1159.375052 80.051 164.0438
1167.776361 80.030 163.8714
1176.238550 80.005 163.7670
1184.762060 79.979 163.7341
1193.347334 79.954 163.7697
1201.994821 79.934 163.8642
1210.704971 79.920 164.0021
1219.478238 79.914 164.1646
1228.315080 79.916 164.3315
1237.215957 79.926 164.4842
1246.181334 79.940 164.6082
1255.211678 79.957 164.6946
1264.307459 79.975 164.7416
1273.469152 79.992 164.7531
1282.697235 80.004 164.7379
1291.992188 80.012 164.7084
1301.354495 80.015 164.6783
1310.784647 80.013 164.6599
1320.283132 80.007 164.6622
1329.850448 79.999 164.6893
1339.487093 79.989 164.7417
1349.193569 79.979 164.8170
1358.970381 79.970 164.9128
1368.818041 79.961 165.0272
1378.737061 79.952 165.1600
1388.727958 79.944 165.3116
1398.791253 79.938 165.4835
1408.927471 79.934 165.6776
1419.137140 79.933 165.8945
1429.420793 79.936 166.1324
1439.778965 79.944 166.3868
1450.212197 79.958 166.6503
1460.721033 79.977 166.9139
1471.306019 80.003 167.1670
1481.967709 80.033 167.3993
1492.706658 80.065 167.6019
1503.523426 80.099 167.7698
1514.418576 80.131 167.9025
1525.392678 80.160 168.0041
1536.446302 80.183 168.0822
1547.580025 80.199 168.1463
1558.794428 80.207 168.2081
1570.090095 80.206 168.2801
1581.467615 80.196 168.3748
1592.927581 80.177 168.5042
1604.470591 80.150 168.6788
1616.097246 80.117 168.9073
1627.808153 80.077 169.1969
1639.603922 80.033 169.5529
1651.485168 79.986 169.9795
1663.452510 79.938 170.4795
1675.506573 79.891 171.0518
1687.647984 79.847 171.6904
1699.877377 79.810 172.3836
1712.195390 79.780 173.1154
1724.602663 79.759 173.8665
1737.099845 79.747 174.6169
1749.687587 79.742 175.3484
1762.366544 79.744 176.0466
1775.137379 79.751 176.7023
1788.000756 79.760 177.3113
1800.957346 79.770 177.8742
1814.007826 79.779 178.3951
1827.152874 79.784 178.8815
1840.393177 79.785 179.3435
1853.729425 79.780 179.7929
1867.162312 79.770 -179.7575
1880.692540 79.755 -179.2954
1894.320813 79.735 -178.8103
1908.047843 79.711 -178.2944
1921.874344 79.685 -177.7437
1935.801038 79.659 -177.1579
1949.828650 79.633 -176.5400
1963.957912 79.609 -175.8954
1978.189561 79.588 -175.2315
1992.524338 79.571 -174.5565
2006.962991 79.559 -173.8803
2021.506272 79.551 -173.2144
2036.154940 79.549 -172.5722
2050.909758 79.551 -171.9679
2065.771495 79.557 -171.4144
2080.740927 79.565 -170.9202
2095.818833 79.572 -170.4877
2111.006001 79.576 -170.1129
2126.303220 79.575 -169.7858
2141.711290 79.568 -169.4914
2157.231013 79.552 -169.2116
2172.863198 79.530 -168.9266
2188.608660 79.500 -168.6178
2204.468221 79.465 -168.2701
2220.442706 79.427 -167.8734
2236.532950 79.389 -167.4243
2252.739789 79.353 -166.9243
2269.064070 79.321 -166.3787
2285.506644 79.295 -165.7952
2302.068367 79.276 -165.1824
2318.750104 79.265 -164.5499
2335.552723 79.263 -163.9075
2352.477101 79.271 -163.2647
2369.524119 79.287 -162.6301
2386.694668 79.313 -162.0116
2403.989641 79.348 -161.4170
2421.409941 79.391 -160.8530
2438.956476 79.440 -160.3247
2456.630160 79.496 -159.8338
2474.431915 79.556 -159.3783
2492.362668 79.619 -158.9522
2510.423356 79.685 -158.5469
2528.614918 79.755 -158.1532
2546.938304 79.828 -157.7640
2565.394469 79.907 -157.3764
2583.984375 79.991 -156.9917
2602.708991 80.081 -156.6149
2621.569293 80.178 -156.2511
2640.566265 80.281 -155.9044
2659.700897 80.390 -155.5766
2678.974186 80.505 -155.2686
2698.387137 80.626 -154.9817
2717.940763 80.753 -154.7191
2737.636082 80.885 -154.4865
2757.474121 81.023 -154.2908
2777.455915 81.163 -154.1381
2797.582506 81.306 -154.0318
2817.854942 81.449 -153.9715
2838.274281 81.591 -153.9531
2858.841586 81.731 -153.9702
2879.557931 81.868 -154.0158
2900.424394 82.003 -154.0836
2921.442065 82.135 -154.1696
2942.612039 82.265 -154.2725
2963.935418 82.392 -154.3937
2985.413316 82.517 -154.5370
3007.046852 82.638 -154.7078
3028.837153 82.755 -154.9119
3050.785356 82.867 -155.1543
3072.892604 82.972 -155.4391
3095.160050 83.069 -155.7688
3117.588856 83.155 -156.1446
3140.180190 83.229 -156.5655
3162.935230 83.288 -157.0276
3185.855163 83.330 -157.5229
3208.941182 83.353 -158.0386
3232.194493 83.356 -158.5580
3255.616307 83.337 -159.0619
3279.207844 83.296 -159.5299
3302.970336 83.234 -159.9418
3326.905021 83.152 -160.2779
3351.013146 83.050 -160.5173
3375.295969 82.929 -160.6348
3399.754755 82.790 -160.5991
3424.390779 82.636 -160.3730
3449.205326 82.472 -159.9155
