* Measurement data measured by REW V5.31.3
* Source: EXCL: Headset (USB-C to 3.5mm Headphone Jack Adapter), MICROPHONE (Master Volume), 0, volume: 0.750
* Format: 256k Log Swept Sine, 1 sweep at -12.0 dBFS with no timing reference
* Dated: May 28, 2025 2:33:16 PM
* REW Settings:
*  C-weighting compensation: Off
*  Target level: 75.0 dB
* Note: ; 
* Measurement: Arya Stealth R9
* Smoothing: 1/6 octave
* Frequency Step: 96 ppo
* Start Frequency: 20.0 Hz
*
* Freq(Hz) SPL(dB) Phase(degrees)
20.187378 81.457 -141.6616
20.333664 81.468 -141.7988
20.481010 81.482 -141.9828
20.629424 81.500 -142.2078
20.778913 81.522 -142.4677
20.929486 81.547 -142.7563
21.081150 81.576 -143.0678
21.233912 81.609 -143.3970
21.387782 81.645 -143.7400
21.542767 81.685 -144.0933
21.698874 81.728 -144.4546
21.856113 81.775 -144.8222
22.014492 81.825 -145.1948
22.174018 81.878 -145.5712
22.334700 81.932 -145.9501
22.496546 81.987 -146.3300
22.659566 82.042 -146.7092
22.823766 82.096 -147.0852
22.989157 82.148 -147.4558
23.155745 82.196 -147.8185
23.323542 82.241 -148.1711
23.492554 82.281 -148.5118
23.662790 82.315 -148.8396
23.834261 82.344 -149.1544
24.006973 82.367 -149.4565
24.180938 82.384 -149.7472
24.356163 82.394 -150.0283
24.532658 82.398 -150.3019
24.710431 82.396 -150.5701
24.889493 82.388 -150.8351
25.069853 82.374 -151.0986
25.251519 82.355 -151.3624
25.434502 82.333 -151.6276
25.618811 82.307 -151.8956
25.804456 82.280 -152.1675
25.991445 82.251 -152.4443
26.179790 82.223 -152.7270
26.369500 82.196 -153.0165
26.560584 82.171 -153.3134
26.753053 82.149 -153.6176
26.946917 82.130 -153.9284
27.142185 82.113 -154.2442
27.338869 82.099 -154.5625
27.536977 82.087 -154.8803
27.736522 82.077 -155.1939
27.937512 82.069 -155.5001
28.139959 82.061 -155.7959
28.343872 82.054 -156.0792
28.549264 82.048 -156.3494
28.756143 82.042 -156.6071
28.964522 82.036 -156.8541
29.174411 82.031 -157.0935
29.385821 82.027 -157.3287
29.598763 82.023 -157.5633
29.813248 82.020 -157.8004
30.029287 82.019 -158.0421
30.246891 82.019 -158.2896
30.466073 82.021 -158.5428
30.686842 82.026 -158.8007
30.909212 82.033 -159.0615
31.133193 82.043 -159.3232
31.358797 82.058 -159.5839
31.586035 82.076 -159.8419
31.814921 82.099 -160.0963
32.045465 82.126 -160.3466
32.277680 82.156 -160.5929
32.511577 82.191 -160.8356
32.747169 82.229 -161.0751
32.984469 82.270 -161.3120
33.223488 82.313 -161.5463
33.464239 82.359 -161.7784
33.706735 82.407 -162.0080
33.950987 82.456 -162.2350
34.197010 82.508 -162.4592
34.444816 82.561 -162.6802
34.694417 82.616 -162.8978
34.945827 82.672 -163.1113
35.199059 82.730 -163.3201
35.454126 82.788 -163.5235
35.711041 82.846 -163.7208
35.969818 82.905 -163.9113
36.230470 82.964 -164.0950
36.493011 83.022 -164.2723
36.757455 83.079 -164.4440
37.023814 83.135 -164.6113
37.292104 83.190 -164.7757
37.562338 83.244 -164.9382
37.834530 83.295 -165.0995
38.108695 83.344 -165.2594
38.384846 83.391 -165.4177
38.662999 83.435 -165.5735
38.943167 83.476 -165.7265
39.225365 83.516 -165.8767
39.509608 83.553 -166.0253
39.795911 83.588 -166.1740
40.084289 83.622 -166.3256
40.374756 83.655 -166.4830
40.667328 83.687 -166.6492
40.962020 83.719 -166.8266
41.258848 83.751 -167.0168
41.557827 83.783 -167.2202
41.858972 83.815 -167.4356
42.162299 83.848 -167.6609
42.467824 83.880 -167.8928
42.775564 83.911 -168.1272
43.085533 83.942 -168.3605
43.397749 83.973 -168.5897
43.712227 84.002 -168.8130
44.028983 84.030 -169.0304
44.348036 84.056 -169.2429
44.669400 84.081 -169.4525
44.993093 84.103 -169.6614
45.319131 84.124 -169.8714
45.647532 84.142 -170.0836
45.978313 84.158 -170.2988
46.311491 84.172 -170.5170
46.647083 84.183 -170.7382
46.985107 84.193 -170.9623
47.325581 84.201 -171.1891
47.668521 84.207 -171.4181
48.013947 84.211 -171.6484
48.361876 84.215 -171.8793
48.712326 84.217 -172.1099
49.065315 84.218 -172.3401
49.420863 84.219 -172.5699
49.778987 84.219 -172.7998
50.139706 84.219 -173.0300
50.503039 84.219 -173.2603
50.869005 84.218 -173.4899
51.237623 84.216 -173.7175
51.608912 84.214 -173.9416
51.982891 84.211 -174.1612
52.359580 84.208 -174.3752
52.739000 84.206 -174.5829
53.121168 84.203 -174.7836
53.506106 84.201 -174.9763
53.893833 84.199 -175.1599
54.284370 84.198 -175.3335
54.677737 84.198 -175.4962
55.073955 84.199 -175.6476
55.473043 84.200 -175.7876
55.875024 84.202 -175.9164
56.279917 84.205 -176.0344
56.687745 84.209 -176.1424
57.098527 84.213 -176.2421
57.512287 84.219 -176.3363
57.929045 84.224 -176.4298
58.348822 84.231 -176.5294
58.771642 84.238 -176.6442
59.197525 84.246 -176.7841
59.626495 84.256 -176.9582
60.058573 84.266 -177.1723
60.493782 84.277 -177.4271
60.932145 84.289 -177.7180
61.373685 84.302 -178.0357
61.818424 84.318 -178.3691
62.266386 84.335 -178.7067
62.717593 84.355 -179.0393
63.172071 84.377 -179.3598
63.629842 84.401 -179.6644
64.090930 84.426 -179.9517
64.555359 84.453 179.7778
65.023154 84.482 179.5222
65.494339 84.511 179.2794
65.968938 84.540 179.0472
66.446976 84.569 178.8234
66.928478 84.598 178.6063
67.413469 84.626 178.3942
67.901975 84.653 178.1857
68.394021 84.679 177.9795
68.889632 84.704 177.7748
69.388835 84.727 177.5711
69.891655 84.749 177.3679
70.398118 84.770 177.1649
70.908252 84.789 176.9617
71.422083 84.806 176.7581
71.939636 84.822 176.5536
72.460941 84.836 176.3481
72.986023 84.847 176.1415
73.514909 84.857 175.9341
74.047629 84.864 175.7270
74.584208 84.869 175.5212
75.124676 84.873 175.3179
75.669061 84.874 175.1182
76.217390 84.874 174.9232
76.769692 84.872 174.7330
77.325997 84.869 174.5479
77.886333 84.864 174.3672
78.450730 84.859 174.1903
79.019216 84.853 174.0163
79.591822 84.847 173.8439
80.168577 84.841 173.6721
80.749512 84.835 173.4995
81.334656 84.829 173.3248
81.924040 84.823 173.1467
82.517696 84.818 172.9637
83.115653 84.812 172.7745
83.717943 84.807 172.5776
84.324598 84.803 172.3722
84.935649 84.798 172.1579
85.551128 84.794 171.9347
86.171066 84.790 171.7029
86.795497 84.785 171.4632
87.424453 84.781 171.2163
88.057967 84.777 170.9631
88.696071 84.772 170.7046
89.338800 84.766 170.4412
89.986185 84.759 170.1733
90.638262 84.752 169.9012
91.295065 84.744 169.6250
91.956626 84.735 169.3450
92.622982 84.725 169.0616
93.294166 84.713 168.7751
93.970214 84.701 168.4861
94.651161 84.687 168.1951
95.337042 84.671 167.9031
96.027894 84.655 167.6107
96.723752 84.638 167.3187
97.424652 84.619 167.0280
98.130631 84.600 166.7395
98.841726 84.581 166.4538
99.557974 84.562 166.1714
100.279412 84.543 165.8928
101.006078 84.524 165.6185
101.738010 84.506 165.3490
102.475245 84.489 165.0848
103.217823 84.473 164.8264
103.965782 84.457 164.5738
104.719161 84.443 164.3271
105.477999 84.430 164.0859
106.242336 84.418 163.8495
107.012212 84.406 163.6166
107.787666 84.394 163.3864
108.568740 84.383 163.1578
109.355474 84.372 162.9311
110.147909 84.360 162.7067
110.946086 84.349 162.4856
111.750047 84.337 162.2689
112.559834 84.326 162.0571
113.375489 84.314 161.8502
114.197055 84.302 161.6480
115.024574 84.291 161.4503
115.858089 84.280 161.2570
116.697645 84.270 161.0681
117.543284 84.261 160.8837
118.395051 84.253 160.7042
119.252990 84.247 160.5299
120.117147 84.241 160.3606
120.987565 84.237 160.1955
121.864291 84.233 160.0326
122.747370 84.229 159.8691
123.636848 84.226 159.7022
124.532771 84.222 159.5294
125.435187 84.218 159.3491
126.344142 84.213 159.1605
127.259684 84.207 158.9640
128.181860 84.201 158.7602
129.110718 84.193 158.5500
130.046308 84.185 158.3343
130.988677 84.175 158.1141
131.937875 84.163 157.8899
132.893951 84.149 157.6625
133.856956 84.133 157.4328
134.826938 84.114 157.2017
135.803950 84.093 156.9705
136.788041 84.069 156.7406
137.779264 84.041 156.5133
138.777669 84.010 156.2902
139.783309 83.976 156.0723
140.796237 83.939 155.8608
141.816504 83.899 155.6570
142.844165 83.856 155.4620
143.879273 83.811 155.2772
144.921881 83.763 155.1041
145.972045 83.714 154.9444
147.029819 83.662 154.8000
148.095257 83.609 154.6729
149.168417 83.554 154.5645
150.249353 83.499 154.4760
151.338121 83.443 154.4083
152.434780 83.387 154.3616
153.539385 83.331 154.3358
154.651995 83.275 154.3302
155.772667 83.221 154.3441
156.901460 83.169 154.3763
158.038432 83.118 154.4252
159.183644 83.070 154.4891
160.337154 83.024 154.5662
161.499023 82.982 154.6545
162.669312 82.942 154.7524
163.848081 82.905 154.8583
165.035392 82.872 154.9707
166.231306 82.841 155.0884
167.435887 82.813 155.2098
168.649196 82.788 155.3340
169.871298 82.765 155.4595
171.102255 82.745 155.5853
172.342133 82.728 155.7101
173.590995 82.713 155.8330
174.848907 82.700 155.9531
176.115934 82.689 156.0697
177.392143 82.680 156.1819
178.677599 82.672 156.2892
179.972371 82.667 156.3907
181.276525 82.662 156.4860
182.590129 82.659 156.5740
183.913252 82.658 156.6541
185.245964 82.657 156.7248
186.588332 82.658 156.7852
187.940428 82.659 156.8342
189.302322 82.661 156.8710
190.674085 82.663 156.8950
192.055788 82.666 156.9062
193.447503 82.669 156.9053
194.849303 82.672 156.8929
196.261262 82.676 156.8701
197.683452 82.680 156.8375
199.115948 82.684 156.7954
200.558824 82.689 156.7438
202.012156 82.694 156.6829
203.476019 82.700 156.6132
204.950490 82.706 156.5353
206.435646 82.713 156.4503
207.931564 82.719 156.3593
209.438322 82.726 156.2631
210.955998 82.733 156.1628
212.484672 82.740 156.0592
214.024424 82.747 155.9531
215.575333 82.754 155.8448
217.137481 82.762 155.7345
218.710948 82.769 155.6221
220.295818 82.777 155.5069
221.892172 82.786 155.3878
223.500094 82.795 155.2639
225.119668 82.804 155.1345
226.750978 82.814 154.9993
228.394109 82.825 154.8585
230.049147 82.837 154.7127
231.716178 82.849 154.5623
233.395289 82.863 154.4079
235.086567 82.878 154.2495
236.790102 82.895 154.0871
238.505980 82.912 153.9200
240.234293 82.931 153.7477
241.975130 82.950 153.5696
243.728581 82.971 153.3854
245.494739 82.992 153.1946
247.273695 83.015 152.9973
249.065542 83.037 152.7935
250.870374 83.061 152.5833
252.688284 83.084 152.3669
254.519367 83.107 152.1440
256.363720 83.130 151.9141
258.221437 83.153 151.6762
260.092616 83.175 151.4296
261.977354 83.197 151.1733
263.875750 83.217 150.9069
265.787903 83.236 150.6298
267.713911 83.254 150.3420
269.653877 83.271 150.0436
271.607900 83.286 149.7347
273.576083 83.300 149.4153
275.558528 83.313 149.0850
277.555338 83.324 148.7429
279.566619 83.333 148.3886
281.592474 83.340 148.0217
283.633009 83.345 147.6425
285.688331 83.347 147.2519
287.758546 83.346 146.8514
289.843763 83.342 146.4434
291.944090 83.334 146.0304
294.059638 83.323 145.6157
296.190515 83.307 145.2034
298.336833 83.286 144.7978
300.498705 83.261 144.4039
302.676243 83.231 144.0273
304.869559 83.197 143.6732
307.078770 83.158 143.3468
309.303989 83.116 143.0529
311.545334 83.069 142.7951
313.802919 83.020 142.5765
316.076865 82.968 142.3998
318.367288 82.915 142.2667
320.674309 82.861 142.1786
322.998047 82.806 142.1364
325.338624 82.753 142.1396
327.696162 82.702 142.1872
330.070783 82.653 142.2771
332.462612 82.608 142.4063
334.871773 82.568 142.5710
337.298392 82.532 142.7663
339.742595 82.501 142.9867
342.204510 82.477 143.2264
344.684265 82.458 143.4793
347.181989 82.445 143.7392
349.697813 82.439 144.0004
352.231868 82.438 144.2574
354.784285 82.442 144.5049
357.355198 82.451 144.7379
359.944741 82.465 144.9520
362.553049 82.483 145.1433
365.180258 82.504 145.3085
367.826505 82.528 145.4454
370.491927 82.554 145.5523
373.176665 82.583 145.6289
375.880856 82.612 145.6753
378.604644 82.642 145.6925
381.348169 82.672 145.6819
384.111575 82.701 145.6451
386.895006 82.730 145.5841
389.698607 82.757 145.5009
392.522524 82.784 145.3976
395.366904 82.809 145.2766
398.231895 82.832 145.1403
401.117648 82.854 144.9912
404.024312 82.874 144.8319
406.952038 82.892 144.6645
409.900981 82.909 144.4905
412.871292 82.925 144.3109
415.863128 82.939 144.1259
418.876643 82.953 143.9346
421.911996 82.966 143.7355
424.969344 82.979 143.5261
428.048847 82.991 143.3033
431.150666 83.004 143.0632
434.274961 83.017 142.8016
437.421897 83.029 142.5143
440.591636 83.042 142.1972
443.784345 83.053 141.8462
447.000189 83.064 141.4577
450.239337 83.072 141.0287
453.501956 83.078 140.5567
456.788219 83.080 140.0405
460.098294 83.077 139.4800
463.432356 83.069 138.8763
466.790578 83.053 138.2322
470.173135 83.029 137.5519
473.580203 82.996 136.8415
477.011961 82.952 136.1089
480.468586 82.897 135.3642
483.950259 82.829 134.6198
487.457163 82.749 133.8898
490.989478 82.654 133.1904
494.547390 82.547 132.5386
498.131084 82.427 131.9521
501.740748 82.296 131.4483
505.376568 82.155 131.0433
509.038735 82.007 130.7511
512.727439 81.855 130.5820
516.442874 81.702 130.5422
520.185232 81.552 130.6328
523.954708 81.410 130.8495
527.751500 81.278 131.1823
531.575805 81.160 131.6165
535.427822 81.059 132.1332
539.307753 80.977 132.7113
543.215800 80.915 133.3287
547.152165 80.872 133.9637
551.117055 80.850 134.5962
555.110677 80.845 135.2084
559.133237 80.858 135.7854
563.184947 80.885 136.3153
567.266018 80.925 136.7890
571.376661 80.975 137.2001
575.517092 81.033 137.5444
579.687526 81.098 137.8203
583.888181 81.167 138.0287
588.119275 81.238 138.1718
592.381030 81.310 138.2538
596.673667 81.382 138.2789
600.997410 81.453 138.2523
605.352485 81.521 138.1783
609.739119 81.587 138.0610
614.157540 81.649 137.9037
618.607979 81.708 137.7084
623.090667 81.764 137.4763
627.605839 81.816 137.2076
632.153730 81.865 136.9022
636.734576 81.909 136.5594
641.348617 81.948 136.1783
645.996094 81.982 135.7576
650.677248 82.010 135.2965
655.392323 82.030 134.7955
660.141566 82.042 134.2573
664.925224 82.043 133.6873
669.743546 82.033 133.0945
674.596784 82.009 132.4904
679.485191 81.972 131.8893
684.409020 81.920 131.3071
689.368530 81.854 130.7610
694.363979 81.773 130.2689
699.395626 81.680 129.8484
704.463736 81.575 129.5170
709.568570 81.460 129.2900
714.710396 81.339 129.1796
719.889483 81.215 129.1931
725.106099 81.092 129.3311
730.360516 80.974 129.5865
735.653010 80.865 129.9451
740.983855 80.766 130.3871
746.353329 80.681 130.8902
751.761713 80.610 131.4319
757.209288 80.553 131.9919
762.696339 80.510 132.5526
768.223151 80.481 133.0991
773.790013 80.465 133.6185
779.397214 80.460 134.1003
785.045047 80.466 134.5359
790.733808 80.482 134.9190
796.463791 80.506 135.2447
802.235296 80.537 135.5094
808.048623 80.575 135.7104
813.904077 80.618 135.8452
819.801961 80.665 135.9114
825.742584 80.715 135.9073
831.726255 80.767 135.8315
837.753287 80.820 135.6841
843.823992 80.872 135.4663
849.938689 80.922 135.1801
856.097695 80.968 134.8283
862.301332 81.010 134.4144
868.549922 81.046 133.9425
874.843793 81.075 133.4177
881.183272 81.095 132.8464
887.568689 81.106 132.2366
894.000378 81.106 131.5985
900.478673 81.095 130.9438
907.003913 81.070 130.2864
913.576437 81.034 129.6423
920.196588 80.984 129.0295
926.864712 80.922 128.4672
933.581156 80.850 127.9744
940.346270 80.771 127.5685
947.160407 80.686 127.2623
954.023921 80.601 127.0621
960.937172 80.520 126.9660
967.900519 80.447 126.9643
974.914325 80.384 127.0403
981.978956 80.335 127.1731
989.094780 80.300 127.3407
996.262169 80.281 127.5227
1003.481495 80.275 127.7020
1010.753136 80.282 127.8659
1018.077470 80.301 128.0058
1025.454879 80.331 128.1161
1032.885748 80.369 128.1927
1040.370463 80.416 128.2313
1047.909417 80.471 128.2265
1055.503000 80.532 128.1719
1063.151610 80.597 128.0602
1070.855645 80.666 127.8843
1078.615506 80.736 127.6388
1086.431599 80.804 127.3211
1094.304330 80.868 126.9325
1102.234110 80.924 126.4793
1110.221353 80.971 125.9726
1118.266475 81.006 125.4275
1126.369895 81.029 124.8621
1134.532035 81.039 124.2952
1142.753322 81.036 123.7452
1151.034184 81.022 123.2289
1159.375052 80.999 122.7600
1167.776361 80.968 122.3492
1176.238550 80.932 122.0025
1184.762060 80.895 121.7214
1193.347334 80.858 121.5025
1201.994821 80.823 121.3376
1210.704971 80.793 121.2145
1219.478238 80.769 121.1190
1228.315080 80.750 121.0357
1237.215957 80.735 120.9507
1246.181334 80.724 120.8530
1255.211678 80.715 120.7368
1264.307459 80.705 120.6017
1273.469152 80.692 120.4523
1282.697235 80.676 120.2973
1291.992188 80.655 120.1478
1301.354495 80.630 120.0156
1310.784647 80.601 119.9113
1320.283132 80.569 119.8417
1329.850448 80.536 119.8096
1339.487093 80.503 119.8132
1349.193569 80.471 119.8484
1358.970381 80.441 119.9111
1368.818041 80.412 119.9991
1378.737061 80.385 120.1122
1388.727958 80.360 120.2521
1398.791253 80.338 120.4212
1408.927471 80.320 120.6219
1419.137140 80.306 120.8542
1429.420793 80.299 121.1144
1439.778965 80.300 121.3940
1450.212197 80.309 121.6807
1460.721033 80.327 121.9599
1471.306019 80.352 122.2173
1481.967709 80.382 122.4404
1492.706658 80.416 122.6208
1503.523426 80.450 122.7558
1514.418576 80.480 122.8490
1525.392678 80.506 122.9096
1536.446302 80.525 122.9501
1547.580025 80.535 122.9852
1558.794428 80.535 123.0306
1570.090095 80.527 123.1021
1581.467615 80.509 123.2143
1592.927581 80.482 123.3809
1604.470591 80.449 123.6135
1616.097246 80.409 123.9220
1627.808153 80.366 124.3139
1639.603922 80.322 124.7933
1651.485168 80.280 125.3607
1663.452510 80.241 126.0118
1675.506573 80.210 126.7360
1687.647984 80.188 127.5165
1699.877377 80.178 128.3311
1712.195390 80.179 129.1549
1724.602663 80.192 129.9639
1737.099845 80.216 130.7368
1749.687587 80.248 131.4572
1762.366544 80.286 132.1146
1775.137379 80.328 132.7047
1788.000756 80.370 133.2289
1800.957346 80.410 133.6936
1814.007826 80.447 134.1089
1827.152874 80.480 134.4871
1840.393177 80.507 134.8412
1853.729425 80.528 135.1838
1867.162312 80.543 135.5258
1880.692540 80.553 135.8764
1894.320813 80.558 136.2434
1908.047843 80.559 136.6331
1921.874344 80.557 137.0506
1935.801038 80.553 137.4993
1949.828650 80.549 137.9798
1963.957912 80.546 138.4894
1978.189561 80.546 139.0220
1992.524338 80.550 139.5674
2006.962991 80.558 140.1128
2021.506272 80.572 140.6432
2036.154940 80.590 141.1437
2050.909758 80.612 141.6013
2065.771495 80.636 142.0070
2080.740927 80.660 142.3580
2095.818833 80.682 142.6575
2111.006001 80.700 142.9138
2126.303220 80.714 143.1384
2141.711290 80.722 143.3441
2157.231013 80.725 143.5435
2172.863198 80.724 143.7484
2188.608660 80.719 143.9692
2204.468221 80.712 144.2139
2220.442706 80.703 144.4881
2236.532950 80.696 144.7941
2252.739789 80.690 145.1317
2269.064070 80.688 145.4992
2285.506644 80.690 145.8936
2302.068367 80.699 146.3108
2318.750104 80.714 146.7455
2335.552723 80.738 147.1905
2352.477101 80.770 147.6372
2369.524119 80.811 148.0756
2386.694668 80.861 148.4949
2403.989641 80.921 148.8840
2421.409941 80.988 149.2331
2438.956476 81.062 149.5353
2456.630160 81.141 149.7883
2474.431915 81.222 149.9944
2492.362668 81.306 150.1608
2510.423356 81.390 150.2974
2528.614918 81.476 150.4155
2546.938304 81.563 150.5250
2565.394469 81.652 150.6328
2583.984375 81.746 150.7417
2602.708991 81.844 150.8509
2621.569293 81.948 150.9570
2640.566265 82.059 151.0552
2659.700897 82.176 151.1398
2678.974186 82.301 151.2037
2698.387137 82.431 151.2388
2717.940763 82.568 151.2356
2737.636082 82.708 151.1843
2757.474121 82.852 151.0766
2777.455915 82.995 150.9079
2797.582506 83.136 150.6796
2817.854942 83.272 150.3986
2838.274281 83.403 150.0762
2858.841586 83.526 149.7245
2879.557931 83.643 149.3542
2900.424394 83.755 148.9720
2921.442065 83.860 148.5809
2942.612039 83.959 148.1817
2963.935418 84.052 147.7747
2985.413316 84.138 147.3605
3007.046852 84.216 146.9409
3028.837153 84.286 146.5183
3050.785356 84.346 146.0954
3072.892604 84.398 145.6749
3095.160050 84.438 145.2585
3117.588856 84.469 144.8474
3140.180190 84.487 144.4421
3162.935230 84.493 144.0444
3185.855163 84.484 143.6589
3208.941182 84.460 143.2939
3232.194493 84.418 142.9621
3255.616307 84.359 142.6797
3279.207844 84.280 142.4666
3302.970336 84.184 142.3454
3326.905021 84.070 142.3415
3351.013146 83.939 142.4844
3375.295969 83.793 142.8080
3399.754755 83.637 143.3498
3424.390779 83.475 144.1467
3449.205326 83.315 145.2296
3474.199690 83.167 146.6176
3499.375173 83.041 148.3142
3524.733088 82.949 150.3048
3550.274757 82.901 152.5532
3576.001511 82.908 154.9956
