* Measurement data measured by REW V5.31.3
* Source: EXCL: Headset (USB-C to 3.5mm Headphone Jack Adapter), MICROPHONE (Master Volume), 0, volume: 0.750
* Format: 256k Log Swept Sine, 1 sweep at -12.0 dBFS with no timing reference
* Dated: May 15, 2025 10:57:16 PM
* REW Settings:
*  C-weighting compensation: Off
*  Target level: 75.0 dB
* Note: ; 
* Measurement: HD560s (worn) R6
* Smoothing: 1/6 octave
* Frequency Step: 96 ppo
* Start Frequency: 20.0 Hz
*
* Freq(Hz) SPL(dB) Phase(degrees)
20.187378 76.419 -105.9335
20.333664 76.444 -106.0791
20.481010 76.478 -106.2681
20.629424 76.521 -106.4876
20.778913 76.574 -106.7247
20.929486 76.636 -106.9680
21.081150 76.707 -107.2088
21.233912 76.787 -107.4421
21.387782 76.876 -107.6665
21.542767 76.973 -107.8837
21.698874 77.077 -108.0979
21.856113 77.185 -108.3149
22.014492 77.297 -108.5409
22.174018 77.411 -108.7816
22.334700 77.524 -109.0415
22.496546 77.635 -109.3234
22.659566 77.742 -109.6284
22.823766 77.844 -109.9556
22.989157 77.939 -110.3029
23.155745 78.026 -110.6671
23.323542 78.107 -111.0446
23.492554 78.178 -111.4317
23.662790 78.242 -111.8248
23.834261 78.298 -112.2207
24.006973 78.346 -112.6169
24.180938 78.385 -113.0108
24.356163 78.417 -113.4001
24.532658 78.441 -113.7825
24.710431 78.459 -114.1555
24.889493 78.469 -114.5167
25.069853 78.473 -114.8640
25.251519 78.473 -115.1959
25.434502 78.469 -115.5119
25.618811 78.462 -115.8128
25.804456 78.455 -116.1012
25.991445 78.448 -116.3810
26.179790 78.444 -116.6573
26.369500 78.444 -116.9359
26.560584 78.447 -117.2221
26.753053 78.455 -117.5203
26.946917 78.467 -117.8328
27.142185 78.483 -118.1596
27.338869 78.501 -118.4981
27.536977 78.523 -118.8438
27.736522 78.546 -119.1908
27.937512 78.570 -119.5330
28.139959 78.596 -119.8650
28.343872 78.622 -120.1833
28.549264 78.650 -120.4866
28.756143 78.680 -120.7766
28.964522 78.712 -121.0572
29.174411 78.745 -121.3344
29.385821 78.780 -121.6153
29.598763 78.817 -121.9068
29.813248 78.855 -122.2149
30.029287 78.895 -122.5439
30.246891 78.935 -122.8958
30.466073 78.975 -123.2701
30.686842 79.016 -123.6641
30.909212 79.058 -124.0736
31.133193 79.100 -124.4930
31.358797 79.143 -124.9160
31.586035 79.189 -125.3370
31.814921 79.236 -125.7508
32.045465 79.287 -126.1538
32.277680 79.341 -126.5440
32.511577 79.400 -126.9216
32.747169 79.462 -127.2884
32.984469 79.530 -127.6477
33.223488 79.601 -128.0040
33.464239 79.677 -128.3617
33.706735 79.757 -128.7250
33.950987 79.839 -129.0967
34.197010 79.924 -129.4779
34.444816 80.010 -129.8682
34.694417 80.096 -130.2655
34.945827 80.182 -130.6669
35.199059 80.267 -131.0689
35.454126 80.351 -131.4687
35.711041 80.433 -131.8638
35.969818 80.513 -132.2531
36.230470 80.590 -132.6361
36.493011 80.665 -133.0130
36.757455 80.737 -133.3839
37.023814 80.805 -133.7493
37.292104 80.870 -134.1092
37.562338 80.932 -134.4636
37.834530 80.991 -134.8125
38.108695 81.047 -135.1565
38.384846 81.102 -135.4966
38.662999 81.155 -135.8342
38.943167 81.207 -136.1711
39.225365 81.257 -136.5090
39.509608 81.307 -136.8496
39.795911 81.355 -137.1937
40.084289 81.402 -137.5416
40.374756 81.447 -137.8931
40.667328 81.490 -138.2474
40.962020 81.531 -138.6032
41.258848 81.571 -138.9592
41.557827 81.608 -139.3137
41.858972 81.643 -139.6651
42.162299 81.676 -140.0119
42.467824 81.707 -140.3525
42.775564 81.735 -140.6861
43.085533 81.761 -141.0120
43.397749 81.785 -141.3298
43.712227 81.808 -141.6397
44.028983 81.830 -141.9418
44.348036 81.851 -142.2361
44.669400 81.871 -142.5226
44.993093 81.892 -142.8013
45.319131 81.913 -143.0724
45.647532 81.934 -143.3364
45.978313 81.956 -143.5943
46.311491 81.977 -143.8471
46.647083 81.997 -144.0959
46.985107 82.016 -144.3408
47.325581 82.034 -144.5812
47.668521 82.051 -144.8159
48.013947 82.068 -145.0430
48.361876 82.084 -145.2613
48.712326 82.100 -145.4702
49.065315 82.117 -145.6704
49.420863 82.134 -145.8639
49.778987 82.151 -146.0532
50.139706 82.168 -146.2415
50.503039 82.185 -146.4322
50.869005 82.200 -146.6282
51.237623 82.214 -146.8318
51.608912 82.226 -147.0446
51.982891 82.238 -147.2665
52.359580 82.248 -147.4966
52.739000 82.257 -147.7327
53.121168 82.263 -147.9718
53.506106 82.267 -148.2107
53.893833 82.268 -148.4460
54.284370 82.265 -148.6751
54.677737 82.258 -148.8954
55.073955 82.247 -149.1043
55.473043 82.231 -149.2978
55.875024 82.209 -149.4712
56.279917 82.179 -149.6196
56.687745 82.139 -149.7405
57.098527 82.090 -149.8353
57.512287 82.030 -149.9104
57.929045 81.963 -149.9760
58.348822 81.893 -150.0451
58.771642 81.830 -150.1327
59.197525 81.784 -150.2572
59.626495 81.766 -150.4396
60.058573 81.785 -150.6994
60.493782 81.840 -151.0467
60.932145 81.927 -151.4761
61.373685 82.038 -151.9653
61.818424 82.161 -152.4828
62.266386 82.287 -152.9979
62.717593 82.407 -153.4894
63.172071 82.519 -153.9477
63.629842 82.619 -154.3720
64.090930 82.709 -154.7659
64.555359 82.788 -155.1337
65.023154 82.859 -155.4797
65.494339 82.923 -155.8081
65.968938 82.982 -156.1236
66.446976 83.036 -156.4316
66.928478 83.086 -156.7371
67.413469 83.134 -157.0439
67.901975 83.180 -157.3543
68.394021 83.223 -157.6687
68.889632 83.265 -157.9864
69.388835 83.305 -158.3064
69.891655 83.342 -158.6281
70.398118 83.377 -158.9513
70.908252 83.408 -159.2757
71.422083 83.436 -159.6004
71.939636 83.460 -159.9241
72.460941 83.480 -160.2455
72.986023 83.497 -160.5634
73.514909 83.510 -160.8771
74.047629 83.521 -161.1865
74.584208 83.529 -161.4917
75.124676 83.535 -161.7929
75.669061 83.538 -162.0903
76.217390 83.539 -162.3844
76.769692 83.537 -162.6755
77.325997 83.533 -162.9643
77.886333 83.527 -163.2517
78.450730 83.519 -163.5380
79.019216 83.509 -163.8232
79.591822 83.498 -164.1066
80.168577 83.486 -164.3876
80.749512 83.474 -164.6654
81.334656 83.461 -164.9391
81.924040 83.448 -165.2085
82.517696 83.435 -165.4732
83.115653 83.422 -165.7334
83.717943 83.409 -165.9896
84.324598 83.394 -166.2424
84.935649 83.380 -166.4926
85.551128 83.365 -166.7409
86.171066 83.349 -166.9881
86.795497 83.333 -167.2350
87.424453 83.317 -167.4827
88.057967 83.301 -167.7322
88.696071 83.285 -167.9845
89.338800 83.269 -168.2400
89.986185 83.253 -168.4988
90.638262 83.236 -168.7598
91.295065 83.220 -169.0215
91.956626 83.203 -169.2822
92.622982 83.186 -169.5400
93.294166 83.168 -169.7934
93.970214 83.150 -170.0413
94.651161 83.131 -170.2834
95.337042 83.113 -170.5200
96.027894 83.094 -170.7519
96.723752 83.074 -170.9807
97.424652 83.055 -171.2077
98.130631 83.036 -171.4346
98.841726 83.016 -171.6624
99.557974 82.997 -171.8918
100.279412 82.977 -172.1228
101.006078 82.957 -172.3550
101.738010 82.937 -172.5874
102.475245 82.916 -172.8187
103.217823 82.895 -173.0470
103.965782 82.875 -173.2709
104.719161 82.855 -173.4889
105.477999 82.836 -173.7001
106.242336 82.819 -173.9035
107.012212 82.804 -174.0983
107.787666 82.792 -174.2838
108.568740 82.782 -174.4606
109.355474 82.774 -174.6298
110.147909 82.768 -174.7934
110.946086 82.763 -174.9532
111.750047 82.759 -175.1109
112.559834 82.755 -175.2677
113.375489 82.751 -175.4244
114.197055 82.747 -175.5814
115.024574 82.742 -175.7389
115.858089 82.736 -175.8964
116.697645 82.730 -176.0532
117.543284 82.724 -176.2081
118.395051 82.718 -176.3600
119.252990 82.713 -176.5081
120.117147 82.708 -176.6517
120.987565 82.704 -176.7906
121.864291 82.701 -176.9251
122.747370 82.698 -177.0559
123.636848 82.695 -177.1841
124.532771 82.692 -177.3104
125.435187 82.688 -177.4358
126.344142 82.683 -177.5605
127.259684 82.677 -177.6847
128.181860 82.669 -177.8083
129.110718 82.660 -177.9310
130.046308 82.649 -178.0527
130.988677 82.637 -178.1731
131.937875 82.623 -178.2921
132.893951 82.607 -178.4093
133.856956 82.590 -178.5245
134.826938 82.572 -178.6377
135.803950 82.553 -178.7495
136.788041 82.532 -178.8607
137.779264 82.511 -178.9720
138.777669 82.489 -179.0834
139.783309 82.465 -179.1946
140.796237 82.441 -179.3046
141.816504 82.416 -179.4121
142.844165 82.390 -179.5159
143.879273 82.363 -179.6152
144.921881 82.336 -179.7095
145.972045 82.307 -179.7987
147.029819 82.278 -179.8833
148.095257 82.249 -179.9638
149.168417 82.219 179.9590
150.249353 82.188 179.8844
151.338121 82.158 179.8120
152.434780 82.128 179.7412
153.539385 82.097 179.6723
154.651995 82.067 179.6053
155.772667 82.037 179.5403
156.901460 82.006 179.4771
158.038432 81.975 179.4155
159.183644 81.945 179.3550
160.337154 81.914 179.2951
161.499023 81.884 179.2354
162.669312 81.854 179.1754
163.848081 81.824 179.1151
165.035392 81.795 179.0551
166.231306 81.767 178.9959
167.435887 81.738 178.9383
168.649196 81.710 178.8828
169.871298 81.681 178.8293
171.102255 81.651 178.7780
172.342133 81.621 178.7286
173.590995 81.590 178.6819
174.848907 81.558 178.6385
176.115934 81.525 178.5993
177.392143 81.493 178.5650
178.677599 81.461 178.5358
179.972371 81.430 178.5120
181.276525 81.401 178.4932
182.590129 81.374 178.4789
183.913252 81.348 178.4685
185.245964 81.323 178.4609
186.588332 81.299 178.4548
187.940428 81.274 178.4492
189.302322 81.248 178.4437
190.674085 81.221 178.4382
192.055788 81.193 178.4333
193.447503 81.164 178.4298
194.849303 81.134 178.4286
196.261262 81.103 178.4307
197.683452 81.071 178.4370
199.115948 81.038 178.4486
200.558824 81.005 178.4666
202.012156 80.972 178.4920
203.476019 80.940 178.5258
204.950490 80.908 178.5686
206.435646 80.877 178.6207
207.931564 80.847 178.6817
209.438322 80.817 178.7509
210.955998 80.789 178.8264
212.484672 80.761 178.9061
214.024424 80.734 178.9879
215.575333 80.708 179.0701
217.137481 80.684 179.1514
218.710948 80.661 179.2317
220.295818 80.641 179.3109
221.892172 80.623 179.3891
223.500094 80.607 179.4662
225.119668 80.593 179.5420
226.750978 80.580 179.6163
228.394109 80.570 179.6889
230.049147 80.561 179.7596
231.716178 80.554 179.8282
233.395289 80.548 179.8947
235.086567 80.544 179.9592
236.790102 80.541 -179.9779
238.505980 80.538 -179.9158
240.234293 80.537 -179.8540
241.975130 80.537 -179.7915
243.728581 80.538 -179.7278
245.494739 80.539 -179.6626
247.273695 80.541 -179.5959
249.065542 80.544 -179.5281
250.870374 80.547 -179.4601
252.688284 80.550 -179.3934
254.519367 80.554 -179.3296
256.363720 80.557 -179.2699
258.221437 80.560 -179.2150
260.092616 80.562 -179.1644
261.977354 80.564 -179.1172
263.875750 80.566 -179.0719
265.787903 80.567 -179.0271
267.713911 80.567 -178.9814
269.653877 80.567 -178.9341
271.607900 80.567 -178.8849
273.576083 80.566 -178.8345
275.558528 80.566 -178.7833
277.555338 80.565 -178.7320
279.566619 80.565 -178.6808
281.592474 80.566 -178.6296
283.633009 80.567 -178.5775
285.688331 80.569 -178.5232
287.758546 80.572 -178.4652
289.843763 80.575 -178.4023
291.944090 80.579 -178.3341
294.059638 80.583 -178.2608
296.190515 80.588 -178.1833
298.336833 80.593 -178.1032
300.498705 80.598 -178.0219
302.676243 80.602 -177.9405
304.869559 80.607 -177.8598
307.078770 80.611 -177.7797
309.303989 80.616 -177.7000
311.545334 80.621 -177.6199
313.802919 80.626 -177.5380
316.076865 80.632 -177.4529
318.367288 80.638 -177.3630
320.674309 80.645 -177.2674
322.998047 80.653 -177.1657
325.338624 80.660 -177.0583
327.696162 80.668 -176.9464
330.070783 80.676 -176.8313
332.462612 80.684 -176.7149
334.871773 80.691 -176.5991
337.298392 80.698 -176.4862
339.742595 80.705 -176.3777
342.204510 80.710 -176.2748
344.684265 80.715 -176.1777
347.181989 80.719 -176.0858
349.697813 80.721 -175.9981
352.231868 80.722 -175.9130
354.784285 80.722 -175.8287
357.355198 80.721 -175.7437
359.944741 80.719 -175.6567
362.553049 80.716 -175.5668
365.180258 80.712 -175.4732
367.826505 80.708 -175.3756
370.491927 80.704 -175.2742
373.176665 80.699 -175.1693
375.880856 80.694 -175.0612
378.604644 80.689 -174.9507
381.348169 80.683 -174.8383
384.111575 80.678 -174.7250
386.895006 80.673 -174.6119
389.698607 80.667 -174.4998
392.522524 80.661 -174.3897
395.366904 80.655 -174.2823
398.231895 80.649 -174.1778
401.117648 80.642 -174.0764
404.024312 80.635 -173.9778
406.952038 80.627 -173.8817
409.900981 80.619 -173.7881
412.871292 80.610 -173.6968
415.863128 80.599 -173.6080
418.876643 80.588 -173.5219
421.911996 80.576 -173.4387
424.969344 80.562 -173.3579
428.048847 80.546 -173.2789
431.150666 80.530 -173.2010
434.274961 80.512 -173.1233
437.421897 80.493 -173.0450
440.591636 80.473 -172.9655
443.784345 80.451 -172.8844
447.000189 80.428 -172.8016
450.239337 80.404 -172.7171
453.501956 80.379 -172.6311
456.788219 80.353 -172.5442
460.098294 80.327 -172.4568
463.432356 80.301 -172.3698
466.790578 80.274 -172.2834
470.173135 80.248 -172.1981
473.580203 80.222 -172.1137
477.011961 80.197 -172.0300
480.468586 80.172 -171.9467
483.950259 80.149 -171.8638
487.457163 80.126 -171.7812
490.989478 80.104 -171.6993
494.547390 80.083 -171.6186
498.131084 80.063 -171.5401
501.740748 80.044 -171.4646
505.376568 80.025 -171.3924
509.038735 80.008 -171.3235
512.727439 79.992 -171.2574
516.442874 79.977 -171.1929
520.185232 79.963 -171.1289
523.954708 79.950 -171.0639
527.751500 79.939 -170.9971
531.575805 79.929 -170.9277
535.427822 79.920 -170.8556
539.307753 79.913 -170.7807
543.215800 79.907 -170.7030
547.152165 79.902 -170.6222
551.117055 79.899 -170.5377
555.110677 79.898 -170.4486
559.133237 79.899 -170.3541
563.184947 79.901 -170.2534
567.266018 79.905 -170.1463
571.376661 79.911 -170.0331
575.517092 79.918 -169.9147
579.687526 79.928 -169.7925
583.888181 79.939 -169.6685
588.119275 79.951 -169.5450
592.381030 79.964 -169.4245
596.673667 79.978 -169.3092
600.997410 79.992 -169.2011
605.352485 80.005 -169.1014
609.739119 80.017 -169.0110
614.157540 80.029 -168.9299
618.607979 80.038 -168.8579
623.090667 80.044 -168.7944
627.605839 80.048 -168.7384
632.153730 80.049 -168.6887
636.734576 80.046 -168.6432
641.348617 80.039 -168.5996
645.996094 80.028 -168.5545
650.677248 80.013 -168.5045
655.392323 79.995 -168.4457
660.141566 79.972 -168.3741
664.925224 79.945 -168.2852
669.743546 79.916 -168.1744
674.596784 79.883 -168.0370
679.485191 79.848 -167.8688
684.409020 79.812 -167.6669
689.368530 79.776 -167.4298
694.363979 79.740 -167.1583
699.395626 79.707 -166.8551
704.463736 79.676 -166.5248
709.568570 79.649 -166.1738
714.710396 79.625 -165.8096
719.889483 79.606 -165.4399
725.106099 79.590 -165.0721
730.360516 79.577 -164.7127
735.653010 79.566 -164.3668
740.983855 79.557 -164.0374
746.353329 79.549 -163.7257
751.761713 79.541 -163.4311
757.209288 79.532 -163.1520
762.696339 79.522 -162.8862
768.223151 79.510 -162.6315
773.790013 79.498 -162.3859
779.397214 79.484 -162.1481
785.045047 79.470 -161.9169
790.733808 79.454 -161.6918
796.463791 79.438 -161.4722
802.235296 79.421 -161.2574
808.048623 79.404 -161.0465
813.904077 79.387 -160.8383
819.801961 79.370 -160.6317
825.742584 79.354 -160.4254
831.726255 79.338 -160.2188
837.753287 79.324 -160.0118
843.823992 79.311 -159.8047
849.938689 79.300 -159.5979
856.097695 79.291 -159.3919
862.301332 79.284 -159.1867
868.549922 79.279 -158.9826
874.843793 79.276 -158.7800
881.183272 79.274 -158.5793
887.568689 79.275 -158.3811
894.000378 79.278 -158.1861
900.478673 79.282 -157.9950
907.003913 79.288 -157.8082
913.576437 79.297 -157.6263
920.196588 79.307 -157.4499
926.864712 79.320 -157.2794
933.581156 79.334 -157.1153
940.346270 79.351 -156.9581
947.160407 79.369 -156.8082
954.023921 79.390 -156.6657
960.937172 79.413 -156.5307
967.900519 79.438 -156.4034
974.914325 79.465 -156.2833
981.978956 79.495 -156.1700
989.094780 79.526 -156.0630
996.262169 79.559 -155.9613
1003.481495 79.594 -155.8639
1010.753136 79.630 -155.7698
1018.077470 79.668 -155.6777
1025.454879 79.708 -155.5869
1032.885748 79.749 -155.4967
1040.370463 79.793 -155.4069
1047.909417 79.838 -155.3174
1055.503000 79.884 -155.2288
1063.151610 79.933 -155.1413
1070.855645 79.982 -155.0550
1078.615506 80.033 -154.9696
1086.431599 80.085 -154.8846
1094.304330 80.138 -154.7998
1102.234110 80.192 -154.7154
1110.221353 80.247 -154.6322
1118.266475 80.303 -154.5515
1126.369895 80.360 -154.4745
1134.532035 80.417 -154.4028
1142.753322 80.476 -154.3382
1151.034184 80.534 -154.2825
1159.375052 80.593 -154.2374
1167.776361 80.652 -154.2043
1176.238550 80.710 -154.1846
1184.762060 80.768 -154.1789
1193.347334 80.826 -154.1875
1201.994821 80.882 -154.2104
1210.704971 80.937 -154.2469
1219.478238 80.991 -154.2960
1228.315080 81.043 -154.3562
1237.215957 81.094 -154.4257
1246.181334 81.144 -154.5027
1255.211678 81.192 -154.5851
1264.307459 81.238 -154.6713
1273.469152 81.283 -154.7594
1282.697235 81.327 -154.8481
1291.992188 81.369 -154.9364
1301.354495 81.409 -155.0238
1310.784647 81.449 -155.1103
1320.283132 81.487 -155.1962
1329.850448 81.523 -155.2820
1339.487093 81.559 -155.3680
1349.193569 81.592 -155.4546
1358.970381 81.625 -155.5418
1368.818041 81.656 -155.6297
1378.737061 81.686 -155.7180
1388.727958 81.716 -155.8064
1398.791253 81.744 -155.8945
1408.927471 81.771 -155.9821
1419.137140 81.798 -156.0687
1429.420793 81.824 -156.1535
1439.778965 81.849 -156.2352
1450.212197 81.874 -156.3117
1460.721033 81.897 -156.3807
1471.306019 81.920 -156.4395
1481.967709 81.942 -156.4860
1492.706658 81.963 -156.5186
1503.523426 81.984 -156.5369
1514.418576 82.004 -156.5417
1525.392678 82.023 -156.5345
1536.446302 82.041 -156.5175
1547.580025 82.058 -156.4925
1558.794428 82.072 -156.4605
1570.090095 82.082 -156.4216
1581.467615 82.089 -156.3743
1592.927581 82.091 -156.3158
1604.470591 82.088 -156.2426
1616.097246 82.079 -156.1506
1627.808153 82.066 -156.0362
1639.603922 82.047 -155.8966
1651.485168 82.024 -155.7296
1663.452510 81.997 -155.5342
1675.506573 81.967 -155.3107
1687.647984 81.934 -155.0600
1699.877377 81.899 -154.7840
1712.195390 81.863 -154.4850
1724.602663 81.826 -154.1656
1737.099845 81.788 -153.8277
1749.687587 81.748 -153.4729
1762.366544 81.708 -153.1019
1775.137379 81.667 -152.7142
1788.000756 81.625 -152.3083
1800.957346 81.581 -151.8814
1814.007826 81.536 -151.4305
1827.152874 81.490 -150.9521
1840.393177 81.444 -150.4434
1853.729425 81.397 -149.9029
1867.162312 81.352 -149.3306
1880.692540 81.307 -148.7282
1894.320813 81.264 -148.0984
1908.047843 81.223 -147.4445
1921.874344 81.184 -146.7701
1935.801038 81.148 -146.0792
1949.828650 81.114 -145.3762
1963.957912 81.084 -144.6657
1978.189561 81.055 -143.9520
1992.524338 81.030 -143.2383
2006.962991 81.006 -142.5263
2021.506272 80.985 -141.8161
2036.154940 80.965 -141.1063
2050.909758 80.948 -140.3950
2065.771495 80.934 -139.6810
2080.740927 80.924 -138.9645
2095.818833 80.918 -138.2481
2111.006001 80.918 -137.5366
2126.303220 80.925 -136.8371
2141.711290 80.938 -136.1578
2157.231013 80.959 -135.5070
2172.863198 80.987 -134.8923
2188.608660 81.021 -134.3197
2204.468221 81.062 -133.7943
2220.442706 81.107 -133.3203
2236.532950 81.158 -132.9012
2252.739789 81.212 -132.5398
2269.064070 81.269 -132.2375
2285.506644 81.328 -131.9942
2302.068367 81.387 -131.8084
2318.750104 81.446 -131.6769
2335.552723 81.504 -131.5956
2352.477101 81.560 -131.5590
2369.524119 81.614 -131.5614
2386.694668 81.665 -131.5971
2403.989641 81.714 -131.6609
2421.409941 81.761 -131.7483
2438.956476 81.806 -131.8562
2456.630160 81.849 -131.9821
2474.431915 81.891 -132.1244
2492.362668 81.933 -132.2821
2510.423356 81.973 -132.4543
2528.614918 82.012 -132.6403
2546.938304 82.050 -132.8387
2565.394469 82.086 -133.0478
2583.984375 82.122 -133.2652
2602.708991 82.155 -133.4884
2621.569293 82.187 -133.7152
2640.566265 82.217 -133.9433
2659.700897 82.245 -134.1707
2678.974186 82.271 -134.3949
2698.387137 82.295 -134.6136
2717.940763 82.316 -134.8236
2737.636082 82.334 -135.0221
2757.474121 82.350 -135.2058
2777.455915 82.363 -135.3716
2797.582506 82.372 -135.5161
2817.854942 82.378 -135.6353
2838.274281 82.381 -135.7242
2858.841586 82.381 -135.7771
2879.557931 82.377 -135.7876
2900.424394 82.370 -135.7494
2921.442065 82.360 -135.6568
2942.612039 82.349 -135.5056
2963.935418 82.337 -135.2934
2985.413316 82.325 -135.0199
3007.046852 82.313 -134.6867
3028.837153 82.302 -134.2969
3050.785356 82.292 -133.8542
3072.892604 82.283 -133.3617
3095.160050 82.275 -132.8216
3117.588856 82.268 -132.2354
3140.180190 82.261 -131.6045
3162.935230 82.256 -130.9303
