* Measurement data measured by REW V5.31.3
* Source: EXCL: Headset (USB-C to 3.5mm Headphone Jack Adapter), MICROPHONE (Master Volume), 0, volume: 0.750
* Format: 256k Log Swept Sine, 1 sweep at -12.0 dBFS with no timing reference
* Dated: May 15, 2025 10:54:22 PM
* REW Settings:
*  C-weighting compensation: Off
*  Target level: 75.0 dB
* Note: ; 
* Measurement: HD560s (worn) L11
* Smoothing: 1/6 octave
* Frequency Step: 96 ppo
* Start Frequency: 20.0 Hz
*
* Freq(Hz) SPL(dB) Phase(degrees)
20.187378 77.064 -109.3839
20.333664 77.090 -109.5367
20.481010 77.126 -109.7406
20.629424 77.170 -109.9886
20.778913 77.223 -110.2732
20.929486 77.284 -110.5872
21.081150 77.352 -110.9237
21.233912 77.426 -111.2769
21.387782 77.505 -111.6417
21.542767 77.589 -112.0135
21.698874 77.675 -112.3887
21.856113 77.764 -112.7638
22.014492 77.854 -113.1360
22.174018 77.943 -113.5025
22.334700 78.032 -113.8611
22.496546 78.119 -114.2102
22.659566 78.204 -114.5486
22.823766 78.286 -114.8760
22.989157 78.364 -115.1929
23.155745 78.439 -115.5004
23.323542 78.509 -115.8003
23.492554 78.574 -116.0949
23.662790 78.635 -116.3867
23.834261 78.690 -116.6780
24.006973 78.740 -116.9710
24.180938 78.784 -117.2672
24.356163 78.822 -117.5677
24.532658 78.854 -117.8731
24.710431 78.881 -118.1836
24.889493 78.902 -118.4993
25.069853 78.919 -118.8206
25.251519 78.931 -119.1481
25.434502 78.939 -119.4830
25.618811 78.945 -119.8269
25.804456 78.948 -120.1817
25.991445 78.949 -120.5495
26.179790 78.950 -120.9317
26.369500 78.949 -121.3294
26.560584 78.948 -121.7423
26.753053 78.947 -122.1692
26.946917 78.946 -122.6076
27.142185 78.945 -123.0544
27.338869 78.945 -123.5057
27.536977 78.947 -123.9578
27.736522 78.951 -124.4078
27.937512 78.957 -124.8534
28.139959 78.966 -125.2938
28.343872 78.978 -125.7295
28.549264 78.993 -126.1616
28.756143 79.011 -126.5921
28.964522 79.031 -127.0227
29.174411 79.052 -127.4549
29.385821 79.075 -127.8889
29.598763 79.098 -128.3239
29.813248 79.121 -128.7582
30.029287 79.145 -129.1890
30.246891 79.167 -129.6133
30.466073 79.191 -130.0279
30.686842 79.215 -130.4305
30.909212 79.240 -130.8194
31.133193 79.268 -131.1939
31.358797 79.298 -131.5545
31.586035 79.332 -131.9023
31.814921 79.369 -132.2394
32.045465 79.410 -132.5681
32.277680 79.454 -132.8906
32.511577 79.503 -133.2095
32.747169 79.555 -133.5269
32.984469 79.610 -133.8450
33.223488 79.668 -134.1654
33.464239 79.729 -134.4898
33.706735 79.792 -134.8192
33.950987 79.858 -135.1544
34.197010 79.924 -135.4953
34.444816 79.991 -135.8415
34.694417 80.059 -136.1916
34.945827 80.126 -136.5439
35.199059 80.192 -136.8965
35.454126 80.256 -137.2476
35.711041 80.318 -137.5959
35.969818 80.379 -137.9409
36.230470 80.438 -138.2827
36.493011 80.494 -138.6219
36.757455 80.550 -138.9595
37.023814 80.603 -139.2959
37.292104 80.656 -139.6307
37.562338 80.709 -139.9625
37.834530 80.761 -140.2890
38.108695 80.814 -140.6071
38.384846 80.868 -140.9141
38.662999 80.922 -141.2078
38.943167 80.978 -141.4871
39.225365 81.035 -141.7519
39.509608 81.092 -142.0029
39.795911 81.148 -142.2410
40.084289 81.203 -142.4670
40.374756 81.255 -142.6816
40.667328 81.305 -142.8852
40.962020 81.352 -143.0786
41.258848 81.397 -143.2635
41.557827 81.440 -143.4426
41.858972 81.481 -143.6189
42.162299 81.522 -143.7957
42.467824 81.561 -143.9756
42.775564 81.600 -144.1603
43.085533 81.639 -144.3499
43.397749 81.678 -144.5437
43.712227 81.717 -144.7406
44.028983 81.756 -144.9391
44.348036 81.796 -145.1379
44.669400 81.835 -145.3354
44.993093 81.873 -145.5300
45.319131 81.910 -145.7196
45.647532 81.944 -145.9025
45.978313 81.976 -146.0778
46.311491 82.004 -146.2464
46.647083 82.029 -146.4111
46.985107 82.052 -146.5768
47.325581 82.072 -146.7498
47.668521 82.091 -146.9363
48.013947 82.108 -147.1415
48.361876 82.126 -147.3687
48.712326 82.144 -147.6186
49.065315 82.162 -147.8894
49.420863 82.182 -148.1776
49.778987 82.202 -148.4785
50.139706 82.223 -148.7875
50.503039 82.244 -149.1008
50.869005 82.264 -149.4161
51.237623 82.283 -149.7325
51.608912 82.301 -150.0503
51.982891 82.317 -150.3696
52.359580 82.331 -150.6895
52.739000 82.343 -151.0081
53.121168 82.352 -151.3218
53.506106 82.358 -151.6268
53.893833 82.362 -151.9196
54.284370 82.363 -152.1983
54.677737 82.361 -152.4618
55.073955 82.356 -152.7103
55.473043 82.349 -152.9438
55.875024 82.338 -153.1626
56.279917 82.324 -153.3668
56.687745 82.306 -153.5582
57.098527 82.286 -153.7408
57.512287 82.264 -153.9212
57.929045 82.242 -154.1077
58.348822 82.222 -154.3098
58.771642 82.207 -154.5367
59.197525 82.200 -154.7968
59.626495 82.204 -155.0967
60.058573 82.220 -155.4399
60.493782 82.248 -155.8253
60.932145 82.288 -156.2462
61.373685 82.336 -156.6908
61.818424 82.388 -157.1452
62.266386 82.442 -157.5969
62.717593 82.495 -158.0366
63.172071 82.546 -158.4597
63.629842 82.594 -158.8650
64.090930 82.639 -159.2529
64.555359 82.681 -159.6246
65.023154 82.721 -159.9805
65.494339 82.759 -160.3209
65.968938 82.796 -160.6459
66.446976 82.832 -160.9562
66.928478 82.866 -161.2531
67.413469 82.899 -161.5389
67.901975 82.931 -161.8163
68.394021 82.961 -162.0880
68.889632 82.990 -162.3567
69.388835 83.017 -162.6245
69.891655 83.041 -162.8929
70.398118 83.062 -163.1629
70.908252 83.081 -163.4352
71.422083 83.098 -163.7094
71.939636 83.112 -163.9852
72.460941 83.123 -164.2619
72.986023 83.132 -164.5388
73.514909 83.138 -164.8155
74.047629 83.141 -165.0917
74.584208 83.142 -165.3670
75.124676 83.141 -165.6410
75.669061 83.137 -165.9129
76.217390 83.131 -166.1820
76.769692 83.123 -166.4476
77.325997 83.113 -166.7090
77.886333 83.102 -166.9660
78.450730 83.089 -167.2183
79.019216 83.075 -167.4660
79.591822 83.061 -167.7090
80.168577 83.045 -167.9475
80.749512 83.030 -168.1818
81.334656 83.013 -168.4121
81.924040 82.997 -168.6389
82.517696 82.979 -168.8626
83.115653 82.962 -169.0839
83.717943 82.944 -169.3029
84.324598 82.926 -169.5200
84.935649 82.907 -169.7350
85.551128 82.888 -169.9480
86.171066 82.869 -170.1585
86.795497 82.849 -170.3665
87.424453 82.828 -170.5716
88.057967 82.807 -170.7740
88.696071 82.786 -170.9737
89.338800 82.764 -171.1712
89.986185 82.742 -171.3668
90.638262 82.720 -171.5606
91.295065 82.699 -171.7524
91.956626 82.677 -171.9413
92.622982 82.656 -172.1265
93.294166 82.636 -172.3075
93.970214 82.616 -172.4841
94.651161 82.596 -172.6568
95.337042 82.576 -172.8262
96.027894 82.557 -172.9930
96.723752 82.538 -173.1574
97.424652 82.519 -173.3192
98.130631 82.501 -173.4777
98.841726 82.484 -173.6324
99.557974 82.467 -173.7825
100.279412 82.452 -173.9272
101.006078 82.437 -174.0660
101.738010 82.423 -174.1984
102.475245 82.410 -174.3242
103.217823 82.398 -174.4434
103.965782 82.387 -174.5567
104.719161 82.377 -174.6652
105.477999 82.366 -174.7717
106.242336 82.356 -174.8802
107.012212 82.346 -174.9954
107.787666 82.336 -175.1216
108.568740 82.325 -175.2610
109.355474 82.314 -175.4135
110.147909 82.304 -175.5770
110.946086 82.293 -175.7483
111.750047 82.283 -175.9237
112.559834 82.273 -176.1001
113.375489 82.264 -176.2748
114.197055 82.256 -176.4460
115.024574 82.248 -176.6126
115.858089 82.240 -176.7741
116.697645 82.232 -176.9303
117.543284 82.225 -177.0814
118.395051 82.218 -177.2277
119.252990 82.212 -177.3701
120.117147 82.207 -177.5092
120.987565 82.202 -177.6457
121.864291 82.197 -177.7796
122.747370 82.192 -177.9109
123.636848 82.187 -178.0389
124.532771 82.182 -178.1631
125.435187 82.175 -178.2828
126.344142 82.168 -178.3977
127.259684 82.160 -178.5073
128.181860 82.151 -178.6115
129.110718 82.141 -178.7104
130.046308 82.130 -178.8043
130.988677 82.119 -178.8940
131.937875 82.107 -178.9810
132.893951 82.094 -179.0671
133.856956 82.080 -179.1541
134.826938 82.065 -179.2433
135.803950 82.049 -179.3345
136.788041 82.032 -179.4270
137.779264 82.013 -179.5188
138.777669 81.992 -179.6081
139.783309 81.971 -179.6936
140.796237 81.947 -179.7743
141.816504 81.923 -179.8499
142.844165 81.897 -179.9202
143.879273 81.870 -179.9851
144.921881 81.842 179.9557
145.972045 81.813 179.9025
147.029819 81.784 179.8548
148.095257 81.755 179.8121
149.168417 81.727 179.7738
150.249353 81.698 179.7393
151.338121 81.670 179.7083
152.434780 81.643 179.6812
153.539385 81.615 179.6580
154.651995 81.588 179.6389
155.772667 81.561 179.6236
156.901460 81.534 179.6118
158.038432 81.507 179.6025
159.183644 81.481 179.5947
160.337154 81.454 179.5871
161.499023 81.428 179.5784
162.669312 81.403 179.5674
163.848081 81.378 179.5541
165.035392 81.353 179.5388
166.231306 81.328 179.5229
167.435887 81.303 179.5082
168.649196 81.279 179.4963
169.871298 81.255 179.4885
171.102255 81.231 179.4856
172.342133 81.208 179.4879
173.590995 81.184 179.4954
174.848907 81.162 179.5074
176.115934 81.139 179.5231
177.392143 81.117 179.5414
178.677599 81.096 179.5606
179.972371 81.074 179.5795
181.276525 81.053 179.5971
182.590129 81.032 179.6132
183.913252 81.011 179.6281
185.245964 80.990 179.6426
186.588332 80.970 179.6575
187.940428 80.949 179.6734
189.302322 80.928 179.6906
190.674085 80.907 179.7090
192.055788 80.886 179.7282
193.447503 80.865 179.7477
194.849303 80.845 179.7665
196.261262 80.825 179.7839
197.683452 80.804 179.7994
199.115948 80.784 179.8129
200.558824 80.762 179.8244
202.012156 80.740 179.8345
203.476019 80.717 179.8436
204.950490 80.693 179.8521
206.435646 80.669 179.8603
207.931564 80.644 179.8681
209.438322 80.619 179.8750
210.955998 80.594 179.8805
212.484672 80.569 179.8844
214.024424 80.546 179.8871
215.575333 80.524 179.8894
217.137481 80.503 179.8925
218.710948 80.484 179.8975
220.295818 80.467 179.9052
221.892172 80.451 179.9161
223.500094 80.436 179.9301
225.119668 80.422 179.9470
226.750978 80.409 179.9664
228.394109 80.398 179.9877
230.049147 80.387 -179.9892
231.716178 80.377 -179.9645
233.395289 80.368 -179.9383
235.086567 80.359 -179.9106
236.790102 80.351 -179.8810
238.505980 80.345 -179.8487
240.234293 80.338 -179.8130
241.975130 80.333 -179.7730
243.728581 80.329 -179.7280
245.494739 80.326 -179.6776
247.273695 80.323 -179.6212
249.065542 80.321 -179.5588
250.870374 80.320 -179.4899
252.688284 80.320 -179.4145
254.519367 80.320 -179.3332
256.363720 80.321 -179.2470
258.221437 80.322 -179.1572
260.092616 80.323 -179.0649
261.977354 80.325 -178.9715
263.875750 80.327 -178.8781
265.787903 80.328 -178.7861
267.713911 80.328 -178.6963
269.653877 80.328 -178.6094
271.607900 80.327 -178.5252
273.576083 80.326 -178.4433
275.558528 80.324 -178.3630
277.555338 80.322 -178.2836
279.566619 80.321 -178.2045
281.592474 80.319 -178.1255
283.633009 80.319 -178.0462
285.688331 80.319 -177.9666
287.758546 80.319 -177.8867
289.843763 80.321 -177.8066
291.944090 80.323 -177.7266
294.059638 80.326 -177.6470
296.190515 80.331 -177.5681
298.336833 80.336 -177.4899
300.498705 80.341 -177.4118
302.676243 80.347 -177.3330
304.869559 80.354 -177.2526
307.078770 80.361 -177.1696
309.303989 80.368 -177.0828
311.545334 80.376 -176.9913
313.802919 80.384 -176.8943
316.076865 80.392 -176.7916
318.367288 80.400 -176.6833
320.674309 80.409 -176.5701
322.998047 80.418 -176.4528
325.338624 80.427 -176.3327
327.696162 80.436 -176.2112
330.070783 80.446 -176.0894
332.462612 80.456 -175.9685
334.871773 80.465 -175.8494
337.298392 80.475 -175.7326
339.742595 80.484 -175.6188
342.204510 80.492 -175.5079
344.684265 80.500 -175.4001
347.181989 80.507 -175.2950
349.697813 80.514 -175.1924
352.231868 80.519 -175.0920
354.784285 80.524 -174.9938
357.355198 80.527 -174.8976
359.944741 80.529 -174.8033
362.553049 80.530 -174.7108
365.180258 80.531 -174.6197
367.826505 80.530 -174.5297
370.491927 80.529 -174.4403
373.176665 80.527 -174.3512
375.880856 80.524 -174.2621
378.604644 80.521 -174.1728
381.348169 80.519 -174.0836
384.111575 80.516 -173.9947
386.895006 80.513 -173.9066
389.698607 80.510 -173.8193
392.522524 80.507 -173.7327
395.366904 80.504 -173.6461
398.231895 80.501 -173.5589
401.117648 80.498 -173.4703
404.024312 80.495 -173.3798
406.952038 80.491 -173.2869
409.900981 80.486 -173.1913
412.871292 80.480 -173.0931
415.863128 80.474 -172.9930
418.876643 80.466 -172.8919
421.911996 80.456 -172.7908
424.969344 80.445 -172.6907
428.048847 80.433 -172.5923
431.150666 80.419 -172.4960
434.274961 80.403 -172.4021
437.421897 80.386 -172.3105
440.591636 80.367 -172.2211
443.784345 80.347 -172.1335
447.000189 80.326 -172.0477
450.239337 80.305 -171.9635
453.501956 80.283 -171.8809
456.788219 80.260 -171.7997
460.098294 80.237 -171.7200
463.432356 80.214 -171.6419
466.790578 80.191 -171.5657
470.173135 80.169 -171.4917
473.580203 80.147 -171.4203
477.011961 80.125 -171.3519
480.468586 80.104 -171.2865
483.950259 80.084 -171.2244
487.457163 80.065 -171.1654
490.989478 80.046 -171.1092
494.547390 80.028 -171.0553
498.131084 80.010 -171.0032
501.740748 79.991 -170.9520
505.376568 79.973 -170.9008
509.038735 79.955 -170.8488
512.727439 79.936 -170.7945
516.442874 79.918 -170.7368
520.185232 79.899 -170.6743
523.954708 79.881 -170.6055
527.751500 79.863 -170.5289
531.575805 79.847 -170.4426
535.427822 79.832 -170.3450
539.307753 79.819 -170.2348
543.215800 79.809 -170.1112
547.152165 79.803 -169.9742
551.117055 79.801 -169.8249
555.110677 79.802 -169.6653
559.133237 79.808 -169.4979
563.184947 79.817 -169.3263
567.266018 79.830 -169.1541
571.376661 79.847 -168.9844
575.517092 79.866 -168.8201
579.687526 79.887 -168.6631
583.888181 79.909 -168.5145
588.119275 79.932 -168.3747
592.381030 79.954 -168.2431
596.673667 79.977 -168.1187
600.997410 79.998 -168.0001
605.352485 80.018 -167.8858
609.739119 80.038 -167.7747
614.157540 80.056 -167.6660
618.607979 80.073 -167.5596
623.090667 80.088 -167.4557
627.605839 80.102 -167.3553
632.153730 80.115 -167.2595
636.734576 80.125 -167.1694
641.348617 80.133 -167.0859
645.996094 80.139 -167.0092
650.677248 80.143 -166.9391
655.392323 80.143 -166.8744
660.141566 80.141 -166.8135
664.925224 80.134 -166.7538
669.743546 80.125 -166.6922
674.596784 80.112 -166.6250
679.485191 80.095 -166.5485
684.409020 80.075 -166.4592
689.368530 80.052 -166.3538
694.363979 80.026 -166.2298
699.395626 79.999 -166.0852
704.463736 79.970 -165.9184
709.568570 79.939 -165.7288
714.710396 79.909 -165.5161
719.889483 79.878 -165.2809
725.106099 79.848 -165.0241
730.360516 79.819 -164.7471
735.653010 79.792 -164.4518
740.983855 79.765 -164.1403
746.353329 79.742 -163.8160
751.761713 79.720 -163.4825
757.209288 79.702 -163.1443
762.696339 79.687 -162.8063
768.223151 79.675 -162.4732
773.790013 79.666 -162.1496
779.397214 79.660 -161.8391
785.045047 79.656 -161.5444
790.733808 79.654 -161.2676
796.463791 79.653 -161.0098
802.235296 79.654 -160.7715
808.048623 79.655 -160.5526
813.904077 79.656 -160.3524
819.801961 79.656 -160.1700
825.742584 79.657 -160.0036
831.726255 79.657 -159.8514
837.753287 79.657 -159.7109
843.823992 79.656 -159.5796
849.938689 79.655 -159.4544
856.097695 79.653 -159.3324
862.301332 79.651 -159.2110
868.549922 79.649 -159.0878
874.843793 79.647 -158.9613
881.183272 79.645 -158.8302
887.568689 79.645 -158.6942
894.000378 79.646 -158.5529
900.478673 79.649 -158.4067
907.003913 79.654 -158.2560
913.576437 79.661 -158.1014
920.196588 79.671 -157.9438
926.864712 79.683 -157.7844
933.581156 79.698 -157.6244
940.346270 79.717 -157.4653
947.160407 79.738 -157.3088
954.023921 79.763 -157.1564
960.937172 79.791 -157.0100
967.900519 79.822 -156.8709
974.914325 79.856 -156.7406
981.978956 79.894 -156.6202
989.094780 79.934 -156.5108
996.262169 79.978 -156.4133
1003.481495 80.024 -156.3278
1010.753136 80.072 -156.2547
1018.077470 80.123 -156.1939
1025.454879 80.176 -156.1454
1032.885748 80.230 -156.1088
1040.370463 80.286 -156.0834
1047.909417 80.343 -156.0682
1055.503000 80.400 -156.0620
1063.151610 80.458 -156.0633
1070.855645 80.516 -156.0708
1078.615506 80.574 -156.0835
1086.431599 80.632 -156.1003
1094.304330 80.690 -156.1202
1102.234110 80.748 -156.1427
1110.221353 80.805 -156.1670
1118.266475 80.862 -156.1927
1126.369895 80.919 -156.2193
1134.532035 80.975 -156.2467
1142.753322 81.031 -156.2753
1151.034184 81.087 -156.3055
1159.375052 81.143 -156.3383
1167.776361 81.198 -156.3750
1176.238550 81.254 -156.4170
1184.762060 81.309 -156.4655
1193.347334 81.363 -156.5215
1201.994821 81.417 -156.5860
1210.704971 81.470 -156.6596
1219.478238 81.522 -156.7431
1228.315080 81.573 -156.8367
1237.215957 81.622 -156.9400
1246.181334 81.670 -157.0515
1255.211678 81.715 -157.1683
1264.307459 81.758 -157.2868
1273.469152 81.798 -157.4031
1282.697235 81.837 -157.5132
1291.992188 81.874 -157.6138
1301.354495 81.910 -157.7036
1310.784647 81.946 -157.7829
1320.283132 81.982 -157.8542
1329.850448 82.018 -157.9212
1339.487093 82.055 -157.9872
1349.193569 82.093 -158.0553
1358.970381 82.130 -158.1273
1368.818041 82.168 -158.2044
1378.737061 82.205 -158.2868
1388.727958 82.242 -158.3746
1398.791253 82.278 -158.4675
1408.927471 82.315 -158.5647
1419.137140 82.350 -158.6650
1429.420793 82.385 -158.7664
1439.778965 82.419 -158.8665
1450.212197 82.452 -158.9627
1460.721033 82.484 -159.0524
1471.306019 82.516 -159.1338
1481.967709 82.547 -159.2057
1492.706658 82.577 -159.2675
1503.523426 82.607 -159.3197
1514.418576 82.636 -159.3629
1525.392678 82.663 -159.3974
1536.446302 82.687 -159.4224
1547.580025 82.709 -159.4357
1558.794428 82.727 -159.4341
1570.090095 82.742 -159.4140
1581.467615 82.753 -159.3719
1592.927581 82.761 -159.3058
1604.470591 82.765 -159.2154
1616.097246 82.768 -159.1023
1627.808153 82.768 -158.9694
1639.603922 82.766 -158.8203
1651.485168 82.762 -158.6584
1663.452510 82.755 -158.4863
1675.506573 82.747 -158.3058
1687.647984 82.736 -158.1172
1699.877377 82.722 -157.9198
1712.195390 82.706 -157.7116
1724.602663 82.688 -157.4903
1737.099845 82.668 -157.2539
1749.687587 82.647 -157.0020
1762.366544 82.626 -156.7358
1775.137379 82.604 -156.4579
1788.000756 82.582 -156.1715
1800.957346 82.561 -155.8796
1814.007826 82.539 -155.5848
1827.152874 82.516 -155.2888
1840.393177 82.491 -154.9920
1853.729425 82.465 -154.6935
1867.162312 82.436 -154.3909
1880.692540 82.405 -154.0802
1894.320813 82.370 -153.7570
1908.047843 82.332 -153.4173
1921.874344 82.291 -153.0580
1935.801038 82.248 -152.6768
1949.828650 82.203 -152.2720
1963.957912 82.156 -151.8431
1978.189561 82.109 -151.3909
1992.524338 82.063 -150.9180
2006.962991 82.016 -150.4282
2021.506272 81.971 -149.9258
2036.154940 81.927 -149.4143
2050.909758 81.885 -148.8961
2065.771495 81.843 -148.3725
2080.740927 81.803 -147.8434
2095.818833 81.764 -147.3074
2111.006001 81.728 -146.7624
2126.303220 81.693 -146.2058
2141.711290 81.662 -145.6359
2157.231013 81.635 -145.0526
2172.863198 81.614 -144.4584
2188.608660 81.599 -143.8593
2204.468221 81.593 -143.2641
2220.442706 81.594 -142.6836
2236.532950 81.604 -142.1291
2252.739789 81.621 -141.6107
2269.064070 81.644 -141.1358
2285.506644 81.673 -140.7083
2302.068367 81.705 -140.3284
2318.750104 81.740 -139.9941
2335.552723 81.777 -139.7016
2352.477101 81.815 -139.4464
2369.524119 81.853 -139.2240
2386.694668 81.893 -139.0300
2403.989641 81.933 -138.8609
2421.409941 81.974 -138.7136
2438.956476 82.016 -138.5852
2456.630160 82.059 -138.4729
2474.431915 82.103 -138.3741
2492.362668 82.148 -138.2870
2510.423356 82.196 -138.2104
2528.614918 82.246 -138.1436
2546.938304 82.298 -138.0865
2565.394469 82.352 -138.0390
2583.984375 82.409 -138.0006
2602.708991 82.468 -137.9715
2621.569293 82.530 -137.9520
2640.566265 82.595 -137.9430
2659.700897 82.661 -137.9460
2678.974186 82.730 -137.9628
2698.387137 82.801 -137.9946
2717.940763 82.873 -138.0420
2737.636082 82.944 -138.1044
2757.474121 83.015 -138.1795
2777.455915 83.085 -138.2628
2797.582506 83.152 -138.3485
2817.854942 83.218 -138.4301
2838.274281 83.282 -138.5015
2858.841586 83.344 -138.5579
2879.557931 83.406 -138.5961
2900.424394 83.467 -138.6150
2921.442065 83.528 -138.6155
2942.612039 83.589 -138.5999
2963.935418 83.650 -138.5714
2985.413316 83.711 -138.5332
3007.046852 83.770 -138.4873
3028.837153 83.828 -138.4341
3050.785356 83.885 -138.3735
3072.892604 83.938 -138.3053
3095.160050 83.990 -138.2309
3117.588856 84.040 -138.1534
3140.180190 84.086 -138.0779
3162.935230 84.130 -138.0103
