* Measurement data measured by REW V5.31.3
* Source: EXCL: Headset (USB-C to 3.5mm Headphone Jack Adapter), MICROPHONE (Master Volume), 0, volume: 0.750
* Format: 256k Log Swept Sine, 1 sweep at -12.0 dBFS with no timing reference
* Dated: May 15, 2025 10:53:11 PM
* REW Settings:
*  C-weighting compensation: Off
*  Target level: 75.0 dB
* Note: ; 
* Measurement: HD560s (worn) L7
* Smoothing: 1/6 octave
* Frequency Step: 96 ppo
* Start Frequency: 20.0 Hz
*
* Freq(Hz) SPL(dB) Phase(degrees)
20.187378 75.914 -93.8671
20.333664 75.953 -94.1278
20.481010 76.005 -94.4778
20.629424 76.068 -94.9080
20.778913 76.138 -95.4073
20.929486 76.214 -95.9638
21.081150 76.293 -96.5650
21.233912 76.374 -97.1985
21.387782 76.454 -97.8524
21.542767 76.533 -98.5161
21.698874 76.609 -99.1806
21.856113 76.683 -99.8389
22.014492 76.754 -100.4862
22.174018 76.821 -101.1200
22.334700 76.885 -101.7397
22.496546 76.946 -102.3461
22.659566 77.003 -102.9412
22.823766 77.057 -103.5271
22.989157 77.106 -104.1056
23.155745 77.152 -104.6774
23.323542 77.194 -105.2417
23.492554 77.231 -105.7964
23.662790 77.265 -106.3376
23.834261 77.297 -106.8609
24.006973 77.327 -107.3612
24.180938 77.356 -107.8341
24.356163 77.385 -108.2763
24.532658 77.416 -108.6862
24.710431 77.450 -109.0642
24.889493 77.488 -109.4132
25.069853 77.530 -109.7375
25.251519 77.576 -110.0431
25.434502 77.625 -110.3363
25.618811 77.676 -110.6233
25.804456 77.729 -110.9095
25.991445 77.782 -111.1992
26.179790 77.834 -111.4950
26.369500 77.884 -111.7983
26.560584 77.931 -112.1093
26.753053 77.974 -112.4272
26.946917 78.013 -112.7508
27.142185 78.048 -113.0787
27.338869 78.080 -113.4094
27.536977 78.108 -113.7417
27.736522 78.133 -114.0744
27.937512 78.156 -114.4069
28.139959 78.176 -114.7389
28.343872 78.195 -115.0705
28.549264 78.214 -115.4025
28.756143 78.232 -115.7363
28.964522 78.250 -116.0743
29.174411 78.268 -116.4193
29.385821 78.288 -116.7748
29.598763 78.309 -117.1443
29.813248 78.332 -117.5313
30.029287 78.357 -117.9387
30.246891 78.384 -118.3680
30.466073 78.415 -118.8197
30.686842 78.448 -119.2928
30.909212 78.486 -119.7848
31.133193 78.528 -120.2921
31.358797 78.575 -120.8104
31.586035 78.626 -121.3346
31.814921 78.683 -121.8597
32.045465 78.745 -122.3809
32.277680 78.812 -122.8936
32.511577 78.883 -123.3939
32.747169 78.957 -123.8786
32.984469 79.033 -124.3452
33.223488 79.110 -124.7923
33.464239 79.187 -125.2194
33.706735 79.262 -125.6270
33.950987 79.335 -126.0167
34.197010 79.405 -126.3910
34.444816 79.471 -126.7532
34.694417 79.533 -127.1071
34.945827 79.591 -127.4571
35.199059 79.646 -127.8074
35.454126 79.697 -128.1620
35.711041 79.746 -128.5238
35.969818 79.793 -128.8940
36.230470 79.839 -129.2718
36.493011 79.884 -129.6541
36.757455 79.931 -130.0355
37.023814 79.978 -130.4088
37.292104 80.029 -130.7662
37.562338 80.082 -131.1004
37.834530 80.138 -131.4059
38.108695 80.198 -131.6798
38.384846 80.261 -131.9218
38.662999 80.326 -132.1341
38.943167 80.391 -132.3203
39.225365 80.455 -132.4843
39.509608 80.516 -132.6305
39.795911 80.573 -132.7626
40.084289 80.627 -132.8847
40.374756 80.677 -133.0012
40.667328 80.723 -133.1170
40.962020 80.767 -133.2377
41.258848 80.810 -133.3685
41.557827 80.853 -133.5132
41.858972 80.896 -133.6740
42.162299 80.940 -133.8509
42.467824 80.986 -134.0424
42.775564 81.035 -134.2463
43.085533 81.086 -134.4608
43.397749 81.139 -134.6851
43.712227 81.195 -134.9195
44.028983 81.253 -135.1647
44.348036 81.311 -135.4209
44.669400 81.368 -135.6872
44.993093 81.425 -135.9621
45.319131 81.481 -136.2430
45.647532 81.534 -136.5283
45.978313 81.586 -136.8175
46.311491 81.637 -137.1115
46.647083 81.687 -137.4123
46.985107 81.736 -137.7221
47.325581 81.784 -138.0416
47.668521 81.829 -138.3699
48.013947 81.873 -138.7041
48.361876 81.915 -139.0399
48.712326 81.955 -139.3727
49.065315 81.993 -139.6991
49.420863 82.029 -140.0172
49.778987 82.064 -140.3272
50.139706 82.098 -140.6317
50.503039 82.131 -140.9345
50.869005 82.163 -141.2406
51.237623 82.193 -141.5551
51.608912 82.222 -141.8826
51.982891 82.250 -142.2263
52.359580 82.276 -142.5873
52.739000 82.300 -142.9641
53.121168 82.321 -143.3526
53.506106 82.340 -143.7466
53.893833 82.356 -144.1384
54.284370 82.369 -144.5204
54.677737 82.381 -144.8857
55.073955 82.390 -145.2288
55.473043 82.400 -145.5454
55.875024 82.409 -145.8329
56.279917 82.421 -146.0896
56.687745 82.434 -146.3151
57.098527 82.449 -146.5112
57.512287 82.468 -146.6827
57.929045 82.489 -146.8392
58.348822 82.513 -146.9958
58.771642 82.538 -147.1729
59.197525 82.565 -147.3923
59.626495 82.590 -147.6733
60.058573 82.614 -148.0272
60.493782 82.636 -148.4547
60.932145 82.654 -148.9460
61.373685 82.672 -149.4840
61.818424 82.688 -150.0484
62.266386 82.706 -150.6198
62.717593 82.726 -151.1827
63.172071 82.748 -151.7264
63.629842 82.774 -152.2448
64.090930 82.803 -152.7361
64.555359 82.833 -153.2013
65.023154 82.866 -153.6431
65.494339 82.900 -154.0653
65.968938 82.933 -154.4712
66.446976 82.967 -154.8645
66.928478 82.999 -155.2480
67.413469 83.029 -155.6244
67.901975 83.059 -155.9958
68.394021 83.086 -156.3633
68.889632 83.112 -156.7276
69.388835 83.137 -157.0883
69.891655 83.160 -157.4452
70.398118 83.182 -157.7975
70.908252 83.202 -158.1451
71.422083 83.219 -158.4879
71.939636 83.234 -158.8263
72.460941 83.247 -159.1604
72.986023 83.258 -159.4903
73.514909 83.266 -159.8157
74.047629 83.271 -160.1362
74.584208 83.273 -160.4516
75.124676 83.273 -160.7620
75.669061 83.271 -161.0673
76.217390 83.266 -161.3678
76.769692 83.260 -161.6634
77.325997 83.251 -161.9543
77.886333 83.241 -162.2410
78.450730 83.229 -162.5240
79.019216 83.217 -162.8040
79.591822 83.204 -163.0814
80.168577 83.190 -163.3564
80.749512 83.175 -163.6291
81.334656 83.159 -163.8993
81.924040 83.143 -164.1670
82.517696 83.126 -164.4325
83.115653 83.109 -164.6961
83.717943 83.091 -164.9579
84.324598 83.073 -165.2182
84.935649 83.054 -165.4769
85.551128 83.035 -165.7338
86.171066 83.017 -165.9887
86.795497 82.997 -166.2412
87.424453 82.978 -166.4914
88.057967 82.959 -166.7394
88.696071 82.940 -166.9854
89.338800 82.920 -167.2300
89.986185 82.900 -167.4736
90.638262 82.880 -167.7170
91.295065 82.860 -167.9605
91.956626 82.840 -168.2043
92.622982 82.821 -168.4482
93.294166 82.801 -168.6913
93.970214 82.782 -168.9327
94.651161 82.763 -169.1714
95.337042 82.743 -169.4070
96.027894 82.723 -169.6395
96.723752 82.703 -169.8695
97.424652 82.683 -170.0980
98.130631 82.662 -170.3255
98.841726 82.642 -170.5525
99.557974 82.623 -170.7787
100.279412 82.605 -171.0035
101.006078 82.588 -171.2263
101.738010 82.572 -171.4463
102.475245 82.557 -171.6633
103.217823 82.543 -171.8771
103.965782 82.530 -172.0877
104.719161 82.518 -172.2950
105.477999 82.505 -172.4987
106.242336 82.494 -172.6992
107.012212 82.482 -172.8964
107.787666 82.471 -173.0904
108.568740 82.461 -173.2808
109.355474 82.453 -173.4671
110.147909 82.445 -173.6491
110.946086 82.439 -173.8274
111.750047 82.434 -174.0028
112.559834 82.430 -174.1762
113.375489 82.428 -174.3482
114.197055 82.426 -174.5190
115.024574 82.426 -174.6884
115.858089 82.426 -174.8561
116.697645 82.426 -175.0215
117.543284 82.427 -175.1839
118.395051 82.427 -175.3424
119.252990 82.426 -175.4962
120.117147 82.423 -175.6448
120.987565 82.419 -175.7885
121.864291 82.414 -175.9278
122.747370 82.406 -176.0639
123.636848 82.397 -176.1976
124.532771 82.386 -176.3296
125.435187 82.374 -176.4601
126.344142 82.361 -176.5896
127.259684 82.347 -176.7180
128.181860 82.333 -176.8449
129.110718 82.318 -176.9698
130.046308 82.302 -177.0920
130.988677 82.285 -177.2106
131.937875 82.267 -177.3250
132.893951 82.249 -177.4352
133.856956 82.229 -177.5414
134.826938 82.208 -177.6443
135.803950 82.186 -177.7446
136.788041 82.163 -177.8428
137.779264 82.140 -177.9394
138.777669 82.116 -178.0342
139.783309 82.092 -178.1271
140.796237 82.067 -178.2179
141.816504 82.040 -178.3061
142.844165 82.014 -178.3912
143.879273 81.986 -178.4726
144.921881 81.957 -178.5503
145.972045 81.928 -178.6242
147.029819 81.898 -178.6948
148.095257 81.867 -178.7623
149.168417 81.836 -178.8268
150.249353 81.805 -178.8883
151.338121 81.773 -178.9470
152.434780 81.742 -179.0029
153.539385 81.711 -179.0562
154.651995 81.680 -179.1069
155.772667 81.650 -179.1548
156.901460 81.621 -179.1997
158.038432 81.592 -179.2410
159.183644 81.564 -179.2786
160.337154 81.537 -179.3126
161.499023 81.510 -179.3434
162.669312 81.484 -179.3720
163.848081 81.459 -179.3990
165.035392 81.435 -179.4251
166.231306 81.410 -179.4508
167.435887 81.387 -179.4762
168.649196 81.364 -179.5014
169.871298 81.341 -179.5260
171.102255 81.318 -179.5497
172.342133 81.297 -179.5721
173.590995 81.275 -179.5924
174.848907 81.255 -179.6098
176.115934 81.234 -179.6237
177.392143 81.214 -179.6334
178.677599 81.194 -179.6385
179.972371 81.174 -179.6390
181.276525 81.154 -179.6349
182.590129 81.134 -179.6269
183.913252 81.114 -179.6163
185.245964 81.093 -179.6048
186.588332 81.071 -179.5946
187.940428 81.049 -179.5874
189.302322 81.025 -179.5846
190.674085 81.002 -179.5866
192.055788 80.978 -179.5930
193.447503 80.954 -179.6033
194.849303 80.929 -179.6167
196.261262 80.905 -179.6319
197.683452 80.881 -179.6478
199.115948 80.857 -179.6634
200.558824 80.834 -179.6781
202.012156 80.811 -179.6911
203.476019 80.789 -179.7022
204.950490 80.767 -179.7110
206.435646 80.745 -179.7177
207.931564 80.724 -179.7229
209.438322 80.703 -179.7278
210.955998 80.683 -179.7332
212.484672 80.663 -179.7396
214.024424 80.643 -179.7469
215.575333 80.623 -179.7542
217.137481 80.604 -179.7601
218.710948 80.584 -179.7632
220.295818 80.565 -179.7618
221.892172 80.547 -179.7552
223.500094 80.529 -179.7434
225.119668 80.513 -179.7272
226.750978 80.497 -179.7076
228.394109 80.482 -179.6858
230.049147 80.468 -179.6625
231.716178 80.456 -179.6382
233.395289 80.445 -179.6130
235.086567 80.434 -179.5869
236.790102 80.425 -179.5599
238.505980 80.417 -179.5323
240.234293 80.409 -179.5045
241.975130 80.403 -179.4772
243.728581 80.397 -179.4508
245.494739 80.392 -179.4253
247.273695 80.388 -179.4001
249.065542 80.384 -179.3741
250.870374 80.380 -179.3450
252.688284 80.377 -179.3107
254.519367 80.374 -179.2690
256.363720 80.370 -179.2182
258.221437 80.367 -179.1577
260.092616 80.363 -179.0873
261.977354 80.359 -179.0082
263.875750 80.356 -178.9222
265.787903 80.353 -178.8318
267.713911 80.350 -178.7401
269.653877 80.348 -178.6496
271.607900 80.346 -178.5625
273.576083 80.346 -178.4795
275.558528 80.345 -178.4006
277.555338 80.346 -178.3247
279.566619 80.347 -178.2506
281.592474 80.348 -178.1773
283.633009 80.350 -178.1038
285.688331 80.352 -178.0297
287.758546 80.355 -177.9550
289.843763 80.358 -177.8802
291.944090 80.361 -177.8059
294.059638 80.364 -177.7329
296.190515 80.367 -177.6614
298.336833 80.371 -177.5910
300.498705 80.374 -177.5209
302.676243 80.378 -177.4501
304.869559 80.382 -177.3777
307.078770 80.387 -177.3027
309.303989 80.391 -177.2242
311.545334 80.396 -177.1417
313.802919 80.402 -177.0546
316.076865 80.407 -176.9629
318.367288 80.413 -176.8666
320.674309 80.419 -176.7660
322.998047 80.425 -176.6617
325.338624 80.431 -176.5541
327.696162 80.437 -176.4435
330.070783 80.443 -176.3301
332.462612 80.449 -176.2142
334.871773 80.455 -176.0961
337.298392 80.461 -175.9762
339.742595 80.467 -175.8551
342.204510 80.473 -175.7333
344.684265 80.479 -175.6112
347.181989 80.484 -175.4893
349.697813 80.489 -175.3680
352.231868 80.494 -175.2477
354.784285 80.498 -175.1287
357.355198 80.502 -175.0108
359.944741 80.505 -174.8940
362.553049 80.507 -174.7777
365.180258 80.509 -174.6618
367.826505 80.510 -174.5460
370.491927 80.511 -174.4305
373.176665 80.511 -174.3158
375.880856 80.510 -174.2024
378.604644 80.510 -174.0913
381.348169 80.509 -173.9831
384.111575 80.507 -173.8784
386.895006 80.506 -173.7773
389.698607 80.504 -173.6798
392.522524 80.501 -173.5858
395.366904 80.498 -173.4950
398.231895 80.494 -173.4073
401.117648 80.490 -173.3226
404.024312 80.485 -173.2410
406.952038 80.480 -173.1620
409.900981 80.474 -173.0854
412.871292 80.467 -173.0106
415.863128 80.459 -172.9369
418.876643 80.449 -172.8638
421.911996 80.439 -172.7903
424.969344 80.426 -172.7160
428.048847 80.412 -172.6405
431.150666 80.397 -172.5642
434.274961 80.379 -172.4878
437.421897 80.360 -172.4123
440.591636 80.339 -172.3385
443.784345 80.317 -172.2670
447.000189 80.293 -172.1977
450.239337 80.268 -172.1302
453.501956 80.242 -172.0639
456.788219 80.216 -171.9981
460.098294 80.189 -171.9322
463.432356 80.163 -171.8661
466.790578 80.137 -171.7993
470.173135 80.111 -171.7318
473.580203 80.086 -171.6632
477.011961 80.062 -171.5931
480.468586 80.038 -171.5214
483.950259 80.015 -171.4478
487.457163 79.993 -171.3723
490.989478 79.972 -171.2948
494.547390 79.951 -171.2154
498.131084 79.932 -171.1343
501.740748 79.913 -171.0515
505.376568 79.896 -170.9669
509.038735 79.880 -170.8807
512.727439 79.865 -170.7929
516.442874 79.851 -170.7036
520.185232 79.839 -170.6130
523.954708 79.829 -170.5212
527.751500 79.821 -170.4285
531.575805 79.814 -170.3354
535.427822 79.810 -170.2427
539.307753 79.807 -170.1509
543.215800 79.808 -170.0608
547.152165 79.811 -169.9729
551.117055 79.816 -169.8873
555.110677 79.824 -169.8042
559.133237 79.834 -169.7236
563.184947 79.845 -169.6454
567.266018 79.859 -169.5697
571.376661 79.873 -169.4966
575.517092 79.888 -169.4265
579.687526 79.904 -169.3594
583.888181 79.919 -169.2955
588.119275 79.933 -169.2343
592.381030 79.947 -169.1755
596.673667 79.959 -169.1183
600.997410 79.969 -169.0621
605.352485 79.977 -169.0058
609.739119 79.983 -168.9480
614.157540 79.986 -168.8869
618.607979 79.986 -168.8200
623.090667 79.983 -168.7448
627.605839 79.977 -168.6578
632.153730 79.968 -168.5559
636.734576 79.956 -168.4359
641.348617 79.943 -168.2951
645.996094 79.928 -168.1317
650.677248 79.912 -167.9455
655.392323 79.897 -167.7374
660.141566 79.882 -167.5099
664.925224 79.869 -167.2671
669.743546 79.858 -167.0135
674.596784 79.848 -166.7542
679.485191 79.840 -166.4938
684.409020 79.834 -166.2362
689.368530 79.828 -165.9838
694.363979 79.824 -165.7383
699.395626 79.819 -165.5002
704.463736 79.815 -165.2690
709.568570 79.810 -165.0443
714.710396 79.805 -164.8250
719.889483 79.799 -164.6106
725.106099 79.792 -164.4004
730.360516 79.785 -164.1940
735.653010 79.777 -163.9912
740.983855 79.768 -163.7919
746.353329 79.758 -163.5958
751.761713 79.748 -163.4026
757.209288 79.736 -163.2116
762.696339 79.724 -163.0222
768.223151 79.710 -162.8337
773.790013 79.696 -162.6450
779.397214 79.681 -162.4556
785.045047 79.665 -162.2648
790.733808 79.649 -162.0728
796.463791 79.634 -161.8796
802.235296 79.618 -161.6860
808.048623 79.604 -161.4927
813.904077 79.590 -161.3008
819.801961 79.577 -161.1112
825.742584 79.565 -160.9246
831.726255 79.555 -160.7416
837.753287 79.546 -160.5624
843.823992 79.538 -160.3868
849.938689 79.531 -160.2147
856.097695 79.526 -160.0455
862.301332 79.521 -159.8790
868.549922 79.518 -159.7146
874.843793 79.517 -159.5521
881.183272 79.516 -159.3915
887.568689 79.517 -159.2327
894.000378 79.520 -159.0757
900.478673 79.524 -158.9209
907.003913 79.530 -158.7686
913.576437 79.537 -158.6192
920.196588 79.547 -158.4731
926.864712 79.558 -158.3306
933.581156 79.571 -158.1916
940.346270 79.586 -158.0561
947.160407 79.603 -157.9236
954.023921 79.623 -157.7938
960.937172 79.645 -157.6660
967.900519 79.670 -157.5401
974.914325 79.699 -157.4163
981.978956 79.730 -157.2952
989.094780 79.765 -157.1781
996.262169 79.803 -157.0663
1003.481495 79.845 -156.9611
1010.753136 79.890 -156.8636
1018.077470 79.938 -156.7744
1025.454879 79.989 -156.6940
1032.885748 80.042 -156.6227
1040.370463 80.098 -156.5604
1047.909417 80.155 -156.5072
1055.503000 80.214 -156.4632
1063.151610 80.275 -156.4287
1070.855645 80.336 -156.4040
1078.615506 80.398 -156.3893
1086.431599 80.460 -156.3846
1094.304330 80.522 -156.3896
1102.234110 80.584 -156.4036
1110.221353 80.645 -156.4260
1118.266475 80.705 -156.4558
1126.369895 80.765 -156.4922
1134.532035 80.824 -156.5345
1142.753322 80.882 -156.5822
1151.034184 80.938 -156.6354
1159.375052 80.994 -156.6943
1167.776361 81.049 -156.7597
1176.238550 81.103 -156.8322
1184.762060 81.156 -156.9122
1193.347334 81.207 -156.9993
1201.994821 81.258 -157.0928
1210.704971 81.306 -157.1915
1219.478238 81.354 -157.2947
1228.315080 81.400 -157.4021
1237.215957 81.444 -157.5136
1246.181334 81.487 -157.6291
1255.211678 81.527 -157.7474
1264.307459 81.566 -157.8667
1273.469152 81.603 -157.9843
1282.697235 81.637 -158.0968
1291.992188 81.670 -158.2006
1301.354495 81.701 -158.2924
1310.784647 81.731 -158.3697
1320.283132 81.760 -158.4319
1329.850448 81.790 -158.4803
1339.487093 81.821 -158.5182
1349.193569 81.853 -158.5497
1358.970381 81.887 -158.5794
1368.818041 81.921 -158.6115
1378.737061 81.957 -158.6496
1388.727958 81.994 -158.6961
1398.791253 82.031 -158.7525
1408.927471 82.068 -158.8195
1419.137140 82.105 -158.8966
1429.420793 82.141 -158.9821
1439.778965 82.175 -159.0729
1450.212197 82.208 -159.1651
1460.721033 82.240 -159.2542
1471.306019 82.270 -159.3363
1481.967709 82.299 -159.4079
1492.706658 82.326 -159.4671
1503.523426 82.353 -159.5131
1514.418576 82.379 -159.5468
1525.392678 82.403 -159.5693
1536.446302 82.424 -159.5813
1547.580025 82.444 -159.5817
1558.794428 82.459 -159.5680
1570.090095 82.471 -159.5360
1581.467615 82.479 -159.4812
1592.927581 82.484 -159.4003
1604.470591 82.485 -159.2916
1616.097246 82.485 -159.1567
1627.808153 82.483 -158.9992
1639.603922 82.480 -158.8249
1651.485168 82.476 -158.6403
1663.452510 82.471 -158.4517
1675.506573 82.465 -158.2641
1687.647984 82.456 -158.0804
1699.877377 82.444 -157.9008
1712.195390 82.428 -157.7225
1724.602663 82.407 -157.5400
1737.099845 82.383 -157.3461
1749.687587 82.354 -157.1337
1762.366544 82.321 -156.8970
1775.137379 82.286 -156.6328
1788.000756 82.249 -156.3399
1800.957346 82.211 -156.0194
1814.007826 82.173 -155.6730
1827.152874 82.135 -155.3027
1840.393177 82.097 -154.9105
1853.729425 82.059 -154.4982
1867.162312 82.021 -154.0680
1880.692540 81.983 -153.6215
1894.320813 81.945 -153.1604
1908.047843 81.907 -152.6859
1921.874344 81.869 -152.1990
1935.801038 81.831 -151.7007
1949.828650 81.792 -151.1915
1963.957912 81.752 -150.6714
1978.189561 81.712 -150.1400
1992.524338 81.672 -149.5975
2006.962991 81.632 -149.0438
2021.506272 81.591 -148.4789
2036.154940 81.552 -147.9026
2050.909758 81.513 -147.3148
2065.771495 81.475 -146.7155
2080.740927 81.440 -146.1057
2095.818833 81.407 -145.4867
2111.006001 81.378 -144.8594
2126.303220 81.352 -144.2241
2141.711290 81.330 -143.5809
2157.231013 81.314 -142.9305
2172.863198 81.304 -142.2752
2188.608660 81.301 -141.6193
2204.468221 81.306 -140.9699
2220.442706 81.320 -140.3367
2236.532950 81.342 -139.7303
2252.739789 81.373 -139.1613
2269.064070 81.410 -138.6387
2285.506644 81.454 -138.1681
2302.068367 81.503 -137.7520
2318.750104 81.554 -137.3894
2335.552723 81.608 -137.0771
2352.477101 81.664 -136.8108
2369.524119 81.720 -136.5856
2386.694668 81.778 -136.3968
2403.989641 81.836 -136.2400
2421.409941 81.895 -136.1119
2438.956476 81.954 -136.0101
2456.630160 82.015 -135.9333
2474.431915 82.078 -135.8806
2492.362668 82.142 -135.8518
2510.423356 82.208 -135.8469
2528.614918 82.275 -135.8662
2546.938304 82.343 -135.9098
2565.394469 82.413 -135.9779
2583.984375 82.483 -136.0704
2602.708991 82.554 -136.1870
2621.569293 82.624 -136.3266
2640.566265 82.693 -136.4873
2659.700897 82.761 -136.6664
2678.974186 82.828 -136.8607
2698.387137 82.892 -137.0662
2717.940763 82.953 -137.2790
2737.636082 83.012 -137.4952
2757.474121 83.069 -137.7110
2777.455915 83.122 -137.9229
2797.582506 83.172 -138.1275
2817.854942 83.220 -138.3218
2838.274281 83.264 -138.5026
2858.841586 83.305 -138.6665
2879.557931 83.342 -138.8104
2900.424394 83.376 -138.9304
2921.442065 83.406 -139.0221
2942.612039 83.432 -139.0805
2963.935418 83.454 -139.0996
2985.413316 83.473 -139.0738
3007.046852 83.490 -138.9989
3028.837153 83.505 -138.8723
3050.785356 83.519 -138.6947
3072.892604 83.532 -138.4691
3095.160050 83.547 -138.2010
3117.588856 83.562 -137.8978
