* Measurement data measured by REW V5.31.3
* Source: EXCL: Headset (USB-C to 3.5mm Headphone Jack Adapter), MICROPHONE (Master Volume), 0, volume: 0.750
* Format: 256k Log Swept Sine, 1 sweep at -12.0 dBFS with no timing reference
* Dated: May 15, 2025 10:52:55 PM
* REW Settings:
*  C-weighting compensation: Off
*  Target level: 75.0 dB
* Note: ; 
* Measurement: HD560s (worn) L6
* Smoothing: 1/6 octave
* Frequency Step: 96 ppo
* Start Frequency: 20.0 Hz
*
* Freq(Hz) SPL(dB) Phase(degrees)
20.187378 77.161 -108.1564
20.333664 77.187 -108.3527
20.481010 77.223 -108.6154
20.629424 77.266 -108.9363
20.778913 77.316 -109.3056
20.929486 77.371 -109.7130
21.081150 77.431 -110.1480
21.233912 77.495 -110.6003
21.387782 77.563 -111.0606
21.542767 77.633 -111.5206
21.698874 77.707 -111.9734
21.856113 77.783 -112.4141
22.014492 77.861 -112.8396
22.174018 77.942 -113.2484
22.334700 78.024 -113.6412
22.496546 78.107 -114.0199
22.659566 78.190 -114.3880
22.823766 78.273 -114.7494
22.989157 78.355 -115.1084
23.155745 78.434 -115.4691
23.323542 78.509 -115.8350
23.492554 78.579 -116.2085
23.662790 78.644 -116.5907
23.834261 78.703 -116.9814
24.006973 78.755 -117.3792
24.180938 78.800 -117.7815
24.356163 78.839 -118.1851
24.532658 78.871 -118.5864
24.710431 78.897 -118.9819
24.889493 78.919 -119.3690
25.069853 78.937 -119.7459
25.251519 78.952 -120.1122
25.434502 78.964 -120.4690
25.618811 78.976 -120.8187
25.804456 78.988 -121.1648
25.991445 79.000 -121.5114
26.179790 79.012 -121.8630
26.369500 79.024 -122.2232
26.560584 79.037 -122.5952
26.753053 79.049 -122.9806
26.946917 79.062 -123.3797
27.142185 79.074 -123.7913
27.338869 79.085 -124.2133
27.536977 79.097 -124.6427
27.736522 79.108 -125.0760
27.937512 79.119 -125.5101
28.139959 79.130 -125.9421
28.343872 79.142 -126.3698
28.549264 79.155 -126.7915
28.756143 79.169 -127.2061
28.964522 79.184 -127.6129
29.174411 79.200 -128.0114
29.385821 79.217 -128.4013
29.598763 79.234 -128.7824
29.813248 79.253 -129.1545
30.029287 79.272 -129.5180
30.246891 79.293 -129.8737
30.466073 79.316 -130.2232
30.686842 79.342 -130.5685
30.909212 79.371 -130.9121
31.133193 79.404 -131.2566
31.358797 79.440 -131.6042
31.586035 79.481 -131.9566
31.814921 79.524 -132.3141
32.045465 79.571 -132.6763
32.277680 79.621 -133.0416
32.511577 79.673 -133.4078
32.747169 79.726 -133.7727
32.984469 79.781 -134.1342
33.223488 79.838 -134.4906
33.464239 79.896 -134.8412
33.706735 79.955 -135.1859
33.950987 80.016 -135.5253
34.197010 80.079 -135.8602
34.444816 80.143 -136.1913
34.694417 80.210 -136.5194
34.945827 80.278 -136.8453
35.199059 80.348 -137.1695
35.454126 80.419 -137.4928
35.711041 80.490 -137.8160
35.969818 80.561 -138.1395
36.230470 80.630 -138.4636
36.493011 80.696 -138.7876
36.757455 80.759 -139.1098
37.023814 80.816 -139.4273
37.292104 80.868 -139.7369
37.562338 80.916 -140.0350
37.834530 80.959 -140.3191
38.108695 80.999 -140.5881
38.384846 81.037 -140.8432
38.662999 81.076 -141.0875
38.943167 81.115 -141.3257
39.225365 81.156 -141.5630
39.509608 81.198 -141.8041
39.795911 81.243 -142.0522
40.084289 81.288 -142.3087
40.374756 81.333 -142.5730
40.667328 81.378 -142.8431
40.962020 81.421 -143.1162
41.258848 81.464 -143.3895
41.557827 81.505 -143.6604
41.858972 81.544 -143.9270
42.162299 81.583 -144.1877
42.467824 81.620 -144.4412
42.775564 81.655 -144.6862
43.085533 81.690 -144.9207
43.397749 81.724 -145.1426
43.712227 81.756 -145.3495
44.028983 81.787 -145.5395
44.348036 81.818 -145.7115
44.669400 81.849 -145.8661
44.993093 81.880 -146.0058
45.319131 81.913 -146.1347
45.647532 81.946 -146.2581
45.978313 81.980 -146.3811
46.311491 82.016 -146.5080
46.647083 82.051 -146.6414
46.985107 82.085 -146.7822
47.325581 82.117 -146.9304
47.668521 82.148 -147.0851
48.013947 82.175 -147.2461
48.361876 82.200 -147.4136
48.712326 82.222 -147.5889
49.065315 82.242 -147.7741
49.420863 82.260 -147.9715
49.778987 82.277 -148.1828
50.139706 82.294 -148.4089
50.503039 82.311 -148.6490
50.869005 82.329 -148.9012
51.237623 82.347 -149.1628
51.608912 82.366 -149.4315
51.982891 82.385 -149.7059
52.359580 82.404 -149.9869
52.739000 82.423 -150.2767
53.121168 82.441 -150.5787
53.506106 82.459 -150.8957
53.893833 82.476 -151.2297
54.284370 82.491 -151.5809
54.677737 82.506 -151.9487
55.073955 82.521 -152.3324
55.473043 82.537 -152.7321
55.875024 82.554 -153.1490
56.279917 82.575 -153.5852
56.687745 82.599 -154.0416
57.098527 82.627 -154.5175
57.512287 82.659 -155.0090
57.929045 82.694 -155.5084
58.348822 82.730 -156.0042
58.771642 82.766 -156.4812
59.197525 82.799 -156.9224
59.626495 82.826 -157.3112
60.058573 82.846 -157.6359
60.493782 82.860 -157.8924
60.932145 82.868 -158.0868
61.373685 82.872 -158.2336
61.818424 82.874 -158.3522
62.266386 82.876 -158.4618
62.717593 82.881 -158.5779
63.172071 82.888 -158.7101
63.629842 82.899 -158.8633
64.090930 82.913 -159.0385
64.555359 82.931 -159.2348
65.023154 82.952 -159.4509
65.494339 82.976 -159.6852
65.968938 83.003 -159.9368
66.446976 83.031 -160.2045
66.928478 83.061 -160.4868
67.413469 83.092 -160.7812
67.901975 83.123 -161.0849
68.394021 83.154 -161.3945
68.889632 83.183 -161.7069
69.388835 83.211 -162.0195
69.891655 83.236 -162.3297
70.398118 83.260 -162.6360
70.908252 83.280 -162.9367
71.422083 83.298 -163.2311
71.939636 83.313 -163.5192
72.460941 83.325 -163.8014
72.986023 83.334 -164.0784
73.514909 83.340 -164.3510
74.047629 83.342 -164.6194
74.584208 83.342 -164.8838
75.124676 83.339 -165.1444
75.669061 83.334 -165.4018
76.217390 83.326 -165.6569
76.769692 83.317 -165.9110
77.325997 83.307 -166.1653
77.886333 83.295 -166.4208
78.450730 83.282 -166.6780
79.019216 83.267 -166.9371
79.591822 83.251 -167.1980
80.168577 83.234 -167.4603
80.749512 83.216 -167.7236
81.334656 83.197 -167.9870
81.924040 83.177 -168.2494
82.517696 83.157 -168.5097
83.115653 83.136 -168.7665
83.717943 83.116 -169.0189
84.324598 83.095 -169.2661
84.935649 83.075 -169.5079
85.551128 83.055 -169.7445
86.171066 83.035 -169.9766
86.795497 83.015 -170.2048
87.424453 82.994 -170.4300
88.057967 82.973 -170.6523
88.696071 82.951 -170.8718
89.338800 82.929 -171.0880
89.986185 82.906 -171.3004
90.638262 82.883 -171.5087
91.295065 82.860 -171.7125
91.956626 82.837 -171.9118
92.622982 82.815 -172.1064
93.294166 82.792 -172.2962
93.970214 82.769 -172.4809
94.651161 82.746 -172.6605
95.337042 82.723 -172.8349
96.027894 82.701 -173.0043
96.723752 82.678 -173.1686
97.424652 82.656 -173.3273
98.130631 82.634 -173.4802
98.841726 82.612 -173.6272
99.557974 82.591 -173.7693
100.279412 82.570 -173.9081
101.006078 82.549 -174.0457
101.738010 82.528 -174.1839
102.475245 82.508 -174.3239
103.217823 82.488 -174.4664
103.965782 82.468 -174.6116
104.719161 82.449 -174.7590
105.477999 82.432 -174.9077
106.242336 82.415 -175.0567
107.012212 82.400 -175.2049
107.787666 82.386 -175.3513
108.568740 82.373 -175.4951
109.355474 82.361 -175.6360
110.147909 82.349 -175.7737
110.946086 82.338 -175.9081
111.750047 82.328 -176.0391
112.559834 82.319 -176.1667
113.375489 82.311 -176.2906
114.197055 82.304 -176.4102
115.024574 82.299 -176.5246
115.858089 82.294 -176.6333
116.697645 82.290 -176.7366
117.543284 82.286 -176.8358
118.395051 82.283 -176.9331
119.252990 82.281 -177.0312
120.117147 82.278 -177.1326
120.987565 82.275 -177.2392
121.864291 82.272 -177.3520
122.747370 82.268 -177.4710
123.636848 82.263 -177.5957
124.532771 82.258 -177.7253
125.435187 82.251 -177.8586
126.344142 82.243 -177.9939
127.259684 82.234 -178.1291
128.181860 82.223 -178.2618
129.110718 82.211 -178.3893
130.046308 82.197 -178.5093
130.988677 82.181 -178.6195
131.937875 82.165 -178.7184
132.893951 82.148 -178.8053
133.856956 82.131 -178.8803
134.826938 82.113 -178.9450
135.803950 82.095 -179.0015
136.788041 82.077 -179.0525
137.779264 82.058 -179.1001
138.777669 82.039 -179.1462
139.783309 82.018 -179.1923
140.796237 81.997 -179.2389
141.816504 81.974 -179.2866
142.844165 81.950 -179.3351
143.879273 81.924 -179.3839
144.921881 81.897 -179.4321
145.972045 81.869 -179.4785
147.029819 81.841 -179.5220
148.095257 81.811 -179.5614
149.168417 81.781 -179.5960
150.249353 81.751 -179.6256
151.338121 81.721 -179.6507
152.434780 81.690 -179.6722
153.539385 81.660 -179.6915
154.651995 81.630 -179.7102
155.772667 81.599 -179.7292
156.901460 81.569 -179.7487
158.038432 81.540 -179.7680
159.183644 81.511 -179.7858
160.337154 81.484 -179.8003
161.499023 81.458 -179.8103
162.669312 81.433 -179.8151
163.848081 81.410 -179.8151
165.035392 81.388 -179.8109
166.231306 81.366 -179.8035
167.435887 81.346 -179.7934
168.649196 81.326 -179.7810
169.871298 81.306 -179.7664
171.102255 81.285 -179.7495
172.342133 81.264 -179.7303
173.590995 81.243 -179.7086
174.848907 81.221 -179.6843
176.115934 81.199 -179.6574
177.392143 81.177 -179.6283
178.677599 81.156 -179.5971
179.972371 81.135 -179.5645
181.276525 81.115 -179.5310
182.590129 81.096 -179.4971
183.913252 81.077 -179.4637
185.245964 81.058 -179.4312
186.588332 81.040 -179.4000
187.940428 81.021 -179.3707
189.302322 81.002 -179.3439
190.674085 80.983 -179.3196
192.055788 80.963 -179.2977
193.447503 80.944 -179.2776
194.849303 80.923 -179.2581
196.261262 80.903 -179.2380
197.683452 80.881 -179.2162
199.115948 80.859 -179.1918
200.558824 80.837 -179.1644
202.012156 80.813 -179.1345
203.476019 80.790 -179.1031
204.950490 80.765 -179.0714
206.435646 80.741 -179.0404
207.931564 80.716 -179.0105
209.438322 80.692 -178.9811
210.955998 80.667 -178.9511
212.484672 80.642 -178.9190
214.024424 80.618 -178.8837
215.575333 80.594 -178.8444
217.137481 80.572 -178.8007
218.710948 80.550 -178.7530
220.295818 80.529 -178.7024
221.892172 80.510 -178.6499
223.500094 80.493 -178.5968
225.119668 80.477 -178.5443
226.750978 80.462 -178.4936
228.394109 80.450 -178.4451
230.049147 80.438 -178.3988
231.716178 80.429 -178.3545
233.395289 80.421 -178.3115
235.086567 80.416 -178.2691
236.790102 80.411 -178.2268
238.505980 80.409 -178.1839
240.234293 80.408 -178.1397
241.975130 80.408 -178.0932
243.728581 80.408 -178.0432
245.494739 80.408 -177.9885
247.273695 80.409 -177.9282
249.065542 80.409 -177.8624
250.870374 80.409 -177.7919
252.688284 80.409 -177.7181
254.519367 80.408 -177.6429
256.363720 80.406 -177.5679
258.221437 80.404 -177.4946
260.092616 80.401 -177.4238
261.977354 80.398 -177.3552
263.875750 80.396 -177.2876
265.787903 80.394 -177.2193
267.713911 80.392 -177.1482
269.653877 80.391 -177.0728
271.607900 80.391 -176.9920
273.576083 80.392 -176.9054
275.558528 80.393 -176.8134
277.555338 80.395 -176.7169
279.566619 80.398 -176.6169
281.592474 80.401 -176.5143
283.633009 80.405 -176.4101
285.688331 80.410 -176.3047
287.758546 80.416 -176.1985
289.843763 80.422 -176.0913
291.944090 80.428 -175.9832
294.059638 80.435 -175.8745
296.190515 80.442 -175.7655
298.336833 80.450 -175.6567
300.498705 80.457 -175.5485
302.676243 80.465 -175.4411
304.869559 80.473 -175.3344
307.078770 80.482 -175.2282
309.303989 80.490 -175.1219
311.545334 80.499 -175.0149
313.802919 80.508 -174.9064
316.076865 80.517 -174.7958
318.367288 80.527 -174.6823
320.674309 80.536 -174.5656
322.998047 80.546 -174.4453
325.338624 80.556 -174.3213
327.696162 80.566 -174.1938
330.070783 80.576 -174.0633
332.462612 80.587 -173.9306
334.871773 80.598 -173.7967
337.298392 80.609 -173.6626
339.742595 80.621 -173.5298
342.204510 80.632 -173.3995
344.684265 80.643 -173.2726
347.181989 80.653 -173.1496
349.697813 80.662 -173.0302
352.231868 80.671 -172.9136
354.784285 80.677 -172.7988
357.355198 80.683 -172.6845
359.944741 80.687 -172.5697
362.553049 80.691 -172.4539
365.180258 80.693 -172.3369
367.826505 80.694 -172.2190
370.491927 80.695 -172.1005
373.176665 80.695 -171.9823
375.880856 80.695 -171.8655
378.604644 80.694 -171.7513
381.348169 80.694 -171.6410
384.111575 80.694 -171.5357
386.895006 80.693 -171.4359
389.698607 80.694 -171.3417
392.522524 80.694 -171.2527
395.366904 80.694 -171.1679
398.231895 80.694 -171.0856
401.117648 80.694 -171.0042
404.024312 80.692 -170.9221
406.952038 80.689 -170.8380
409.900981 80.685 -170.7509
412.871292 80.679 -170.6601
415.863128 80.671 -170.5651
418.876643 80.662 -170.4658
421.911996 80.650 -170.3626
424.969344 80.638 -170.2563
428.048847 80.623 -170.1479
431.150666 80.608 -170.0386
434.274961 80.591 -169.9295
437.421897 80.573 -169.8214
440.591636 80.554 -169.7147
443.784345 80.534 -169.6094
447.000189 80.513 -169.5056
450.239337 80.491 -169.4032
453.501956 80.468 -169.3020
456.788219 80.445 -169.2019
460.098294 80.422 -169.1030
463.432356 80.400 -169.0056
466.790578 80.378 -168.9102
470.173135 80.357 -168.8171
473.580203 80.337 -168.7266
477.011961 80.318 -168.6384
480.468586 80.299 -168.5520
483.950259 80.281 -168.4668
487.457163 80.264 -168.3825
490.989478 80.247 -168.2990
494.547390 80.230 -168.2162
498.131084 80.214 -168.1343
501.740748 80.199 -168.0533
505.376568 80.185 -167.9729
509.038735 80.171 -167.8924
512.727439 80.158 -167.8111
516.442874 80.146 -167.7282
520.185232 80.135 -167.6431
523.954708 80.125 -167.5554
527.751500 80.118 -167.4653
531.575805 80.112 -167.3730
535.427822 80.109 -167.2790
539.307753 80.108 -167.1838
543.215800 80.110 -167.0873
547.152165 80.114 -166.9894
551.117055 80.120 -166.8897
555.110677 80.129 -166.7878
559.133237 80.139 -166.6835
563.184947 80.150 -166.5767
567.266018 80.163 -166.4677
571.376661 80.176 -166.3571
575.517092 80.191 -166.2457
579.687526 80.206 -166.1341
583.888181 80.221 -166.0231
588.119275 80.237 -165.9133
592.381030 80.252 -165.8054
596.673667 80.267 -165.6997
600.997410 80.281 -165.5968
605.352485 80.293 -165.4971
609.739119 80.303 -165.4003
614.157540 80.310 -165.3055
618.607979 80.315 -165.2106
623.090667 80.316 -165.1130
627.605839 80.315 -165.0092
632.153730 80.310 -164.8956
636.734576 80.304 -164.7685
641.348617 80.296 -164.6250
645.996094 80.287 -164.4631
650.677248 80.277 -164.2821
655.392323 80.269 -164.0827
660.141566 80.261 -163.8670
664.925224 80.254 -163.6381
669.743546 80.248 -163.3999
674.596784 80.244 -163.1565
679.485191 80.241 -162.9114
684.409020 80.238 -162.6669
689.368530 80.237 -162.4245
694.363979 80.235 -162.1847
699.395626 80.234 -161.9477
704.463736 80.233 -161.7135
709.568570 80.232 -161.4821
714.710396 80.230 -161.2536
719.889483 80.228 -161.0280
725.106099 80.225 -160.8054
730.360516 80.222 -160.5859
735.653010 80.217 -160.3696
740.983855 80.212 -160.1559
746.353329 80.205 -159.9446
751.761713 80.197 -159.7349
757.209288 80.189 -159.5261
762.696339 80.179 -159.3179
768.223151 80.168 -159.1103
773.790013 80.158 -158.9039
779.397214 80.147 -158.6998
785.045047 80.136 -158.4993
790.733808 80.126 -158.3034
796.463791 80.116 -158.1132
802.235296 80.107 -157.9294
808.048623 80.099 -157.7524
813.904077 80.092 -157.5823
819.801961 80.085 -157.4188
825.742584 80.078 -157.2615
831.726255 80.072 -157.1093
837.753287 80.065 -156.9607
843.823992 80.058 -156.8139
849.938689 80.051 -156.6669
856.097695 80.043 -156.5175
862.301332 80.036 -156.3635
868.549922 80.029 -156.2032
874.843793 80.022 -156.0355
881.183272 80.017 -155.8599
887.568689 80.014 -155.6769
894.000378 80.012 -155.4878
900.478673 80.013 -155.2941
907.003913 80.017 -155.0979
913.576437 80.024 -154.9011
920.196588 80.034 -154.7057
926.864712 80.048 -154.5136
933.581156 80.064 -154.3261
940.346270 80.084 -154.1446
947.160407 80.107 -153.9701
954.023921 80.132 -153.8033
960.937172 80.161 -153.6448
967.900519 80.193 -153.4950
974.914325 80.228 -153.3543
981.978956 80.266 -153.2229
989.094780 80.307 -153.1012
996.262169 80.351 -152.9893
1003.481495 80.397 -152.8871
1010.753136 80.445 -152.7944
1018.077470 80.496 -152.7108
1025.454879 80.549 -152.6355
1032.885748 80.603 -152.5679
1040.370463 80.660 -152.5072
1047.909417 80.717 -152.4531
1055.503000 80.776 -152.4054
1063.151610 80.837 -152.3644
1070.855645 80.898 -152.3304
1078.615506 80.960 -152.3036
1086.431599 81.023 -152.2840
1094.304330 81.086 -152.2710
1102.234110 81.149 -152.2641
1110.221353 81.212 -152.2625
1118.266475 81.274 -152.2658
1126.369895 81.337 -152.2736
1134.532035 81.399 -152.2863
1142.753322 81.460 -152.3047
1151.034184 81.522 -152.3299
1159.375052 81.583 -152.3635
1167.776361 81.643 -152.4065
1176.238550 81.702 -152.4598
1184.762060 81.759 -152.5231
1193.347334 81.815 -152.5955
1201.994821 81.868 -152.6750
1210.704971 81.920 -152.7596
1219.478238 81.969 -152.8471
1228.315080 82.016 -152.9357
1237.215957 82.061 -153.0236
1246.181334 82.104 -153.1092
1255.211678 82.146 -153.1906
1264.307459 82.186 -153.2660
1273.469152 82.226 -153.3334
1282.697235 82.264 -153.3913
1291.992188 82.302 -153.4390
1301.354495 82.341 -153.4770
1310.784647 82.380 -153.5069
1320.283132 82.421 -153.5318
1329.850448 82.462 -153.5553
1339.487093 82.504 -153.5811
1349.193569 82.547 -153.6123
1358.970381 82.591 -153.6514
1368.818041 82.634 -153.6996
1378.737061 82.678 -153.7569
1388.727958 82.720 -153.8223
1398.791253 82.761 -153.8941
1408.927471 82.802 -153.9700
1419.137140 82.842 -154.0475
1429.420793 82.880 -154.1242
1439.778965 82.918 -154.1975
1450.212197 82.955 -154.2657
1460.721033 82.992 -154.3271
1471.306019 83.028 -154.3810
1481.967709 83.064 -154.4268
1492.706658 83.100 -154.4642
1503.523426 83.134 -154.4933
1514.418576 83.166 -154.5139
1525.392678 83.197 -154.5248
1536.446302 83.225 -154.5237
1547.580025 83.250 -154.5068
1558.794428 83.271 -154.4701
1570.090095 83.289 -154.4096
1581.467615 83.304 -154.3231
1592.927581 83.317 -154.2106
1604.470591 83.328 -154.0745
1616.097246 83.338 -153.9189
1627.808153 83.346 -153.7492
1639.603922 83.353 -153.5699
1651.485168 83.357 -153.3843
1663.452510 83.359 -153.1935
1675.506573 83.358 -152.9965
1687.647984 83.353 -152.7910
1699.877377 83.346 -152.5740
1712.195390 83.337 -152.3430
1724.602663 83.326 -152.0967
1737.099845 83.313 -151.8352
1749.687587 83.299 -151.5599
1762.366544 83.285 -151.2721
1775.137379 83.270 -150.9726
1788.000756 83.254 -150.6612
1800.957346 83.238 -150.3370
1814.007826 83.221 -149.9998
1827.152874 83.204 -149.6503
1840.393177 83.187 -149.2910
1853.729425 83.171 -148.9256
1867.162312 83.155 -148.5580
1880.692540 83.139 -148.1916
1894.320813 83.122 -147.8278
1908.047843 83.103 -147.4664
1921.874344 83.082 -147.1047
1935.801038 83.058 -146.7383
1949.828650 83.031 -146.3624
1963.957912 83.002 -145.9735
1978.189561 82.971 -145.5703
1992.524338 82.940 -145.1539
2006.962991 82.907 -144.7272
2021.506272 82.875 -144.2932
2036.154940 82.842 -143.8549
2050.909758 82.810 -143.4133
2065.771495 82.776 -142.9680
2080.740927 82.743 -142.5161
2095.818833 82.709 -142.0535
2111.006001 82.675 -141.5758
2126.303220 82.643 -141.0791
2141.711290 82.614 -140.5611
2157.231013 82.588 -140.0218
2172.863198 82.567 -139.4634
2188.608660 82.552 -138.8910
2204.468221 82.545 -138.3118
2220.442706 82.547 -137.7351
2236.532950 82.557 -137.1716
2252.739789 82.575 -136.6322
2269.064070 82.602 -136.1274
2285.506644 82.636 -135.6657
2302.068367 82.676 -135.2528
2318.750104 82.721 -134.8910
2335.552723 82.769 -134.5792
2352.477101 82.819 -134.3136
2369.524119 82.870 -134.0886
2386.694668 82.923 -133.8980
2403.989641 82.976 -133.7364
2421.409941 83.031 -133.5997
2438.956476 83.088 -133.4857
2456.630160 83.148 -133.3935
2474.431915 83.209 -133.3236
2492.362668 83.274 -133.2772
2510.423356 83.341 -133.2564
2528.614918 83.410 -133.2628
2546.938304 83.481 -133.2977
2565.394469 83.554 -133.3611
2583.984375 83.628 -133.4518
2602.708991 83.703 -133.5680
2621.569293 83.777 -133.7073
2640.566265 83.851 -133.8674
2659.700897 83.925 -134.0465
2678.974186 83.998 -134.2430
2698.387137 84.070 -134.4550
2717.940763 84.140 -134.6805
2737.636082 84.207 -134.9167
2757.474121 84.272 -135.1601
2777.455915 84.334 -135.4072
2797.582506 84.393 -135.6541
2817.854942 84.448 -135.8961
2838.274281 84.498 -136.1280
2858.841586 84.545 -136.3439
2879.557931 84.588 -136.5377
2900.424394 84.627 -136.7039
2921.442065 84.663 -136.8378
2942.612039 84.696 -136.9363
2963.935418 84.728 -136.9982
2985.413316 84.758 -137.0248
3007.046852 84.787 -137.0192
3028.837153 84.816 -136.9859
3050.785356 84.843 -136.9300
3072.892604 84.869 -136.8560
3095.160050 84.893 -136.7667
