* Measurement data measured by REW V5.31.3
* Source: EXCL: Headset (USB-C to 3.5mm Headphone Jack Adapter), MICROPHONE (Master Volume), 0, volume: 0.750
* Format: 256k Log Swept Sine, 1 sweep at -12.0 dBFS with no timing reference
* Dated: May 15, 2025 10:58:20 PM
* REW Settings:
*  C-weighting compensation: Off
*  Target level: 75.0 dB
* Note: ; 
* Measurement: HD560s (worn) R9
* Smoothing: 1/6 octave
* Frequency Step: 96 ppo
* Start Frequency: 20.0 Hz
*
* Freq(Hz) SPL(dB) Phase(degrees)
20.187378 77.072 -103.9766
20.333664 77.105 -104.1099
20.481010 77.151 -104.2867
20.629424 77.207 -104.4997
20.778913 77.272 -104.7414
20.929486 77.345 -105.0043
21.081150 77.425 -105.2822
21.233912 77.510 -105.5701
21.387782 77.601 -105.8645
21.542767 77.695 -106.1635
21.698874 77.792 -106.4667
21.856113 77.891 -106.7747
22.014492 77.992 -107.0889
22.174018 78.093 -107.4109
22.334700 78.192 -107.7423
22.496546 78.290 -108.0841
22.659566 78.385 -108.4363
22.823766 78.476 -108.7982
22.989157 78.562 -109.1679
23.155745 78.643 -109.5423
23.323542 78.717 -109.9181
23.492554 78.785 -110.2911
23.662790 78.846 -110.6576
23.834261 78.900 -111.0140
24.006973 78.947 -111.3576
24.180938 78.989 -111.6866
24.356163 79.025 -112.0005
24.532658 79.055 -112.2997
24.710431 79.081 -112.5860
24.889493 79.103 -112.8618
25.069853 79.121 -113.1305
25.251519 79.137 -113.3956
25.434502 79.150 -113.6610
25.618811 79.161 -113.9306
25.804456 79.171 -114.2079
25.991445 79.180 -114.4966
26.179790 79.190 -114.7994
26.369500 79.200 -115.1190
26.560584 79.211 -115.4574
26.753053 79.223 -115.8155
26.946917 79.236 -116.1939
27.142185 79.251 -116.5918
27.338869 79.268 -117.0074
27.536977 79.285 -117.4381
27.736522 79.303 -117.8798
27.937512 79.321 -118.3281
28.139959 79.338 -118.7777
28.343872 79.355 -119.2232
28.549264 79.372 -119.6594
28.756143 79.388 -120.0819
28.964522 79.403 -120.4871
29.174411 79.419 -120.8728
29.385821 79.436 -121.2382
29.598763 79.454 -121.5838
29.813248 79.475 -121.9114
30.029287 79.499 -122.2234
30.246891 79.527 -122.5231
30.466073 79.560 -122.8134
30.686842 79.597 -123.0974
30.909212 79.640 -123.3775
31.133193 79.688 -123.6560
31.358797 79.741 -123.9348
31.586035 79.799 -124.2157
31.814921 79.862 -124.5002
32.045465 79.928 -124.7903
32.277680 79.998 -125.0874
32.511577 80.071 -125.3928
32.747169 80.145 -125.7074
32.984469 80.221 -126.0310
33.223488 80.297 -126.3624
33.464239 80.373 -126.6999
33.706735 80.450 -127.0408
33.950987 80.527 -127.3821
34.197010 80.604 -127.7210
34.444816 80.682 -128.0550
34.694417 80.762 -128.3823
34.945827 80.844 -128.7018
35.199059 80.926 -129.0128
35.454126 81.010 -129.3152
35.711041 81.096 -129.6091
35.969818 81.182 -129.8953
36.230470 81.268 -130.1750
36.493011 81.354 -130.4502
36.757455 81.440 -130.7241
37.023814 81.525 -131.0004
37.292104 81.608 -131.2834
37.562338 81.689 -131.5772
37.834530 81.768 -131.8847
38.108695 81.844 -132.2074
38.384846 81.916 -132.5450
38.662999 81.985 -132.8952
38.943167 82.049 -133.2548
39.225365 82.108 -133.6199
39.509608 82.164 -133.9869
39.795911 82.217 -134.3526
40.084289 82.266 -134.7143
40.374756 82.311 -135.0696
40.667328 82.354 -135.4160
40.962020 82.393 -135.7508
41.258848 82.430 -136.0712
41.557827 82.465 -136.3750
41.858972 82.499 -136.6607
42.162299 82.532 -136.9284
42.467824 82.564 -137.1798
42.775564 82.595 -137.4175
43.085533 82.627 -137.6445
43.397749 82.657 -137.8640
43.712227 82.687 -138.0782
44.028983 82.715 -138.2890
44.348036 82.741 -138.4976
44.669400 82.765 -138.7053
44.993093 82.787 -138.9136
45.319131 82.808 -139.1241
45.647532 82.828 -139.3387
45.978313 82.846 -139.5590
46.311491 82.863 -139.7865
46.647083 82.880 -140.0217
46.985107 82.896 -140.2644
47.325581 82.912 -140.5132
47.668521 82.929 -140.7657
48.013947 82.945 -141.0182
48.361876 82.962 -141.2668
48.712326 82.980 -141.5076
49.065315 82.999 -141.7376
49.420863 83.018 -141.9551
49.778987 83.039 -142.1605
50.139706 83.060 -142.3554
50.503039 83.081 -142.5432
50.869005 83.102 -142.7278
51.237623 83.121 -142.9136
51.608912 83.139 -143.1047
51.982891 83.156 -143.3038
52.359580 83.172 -143.5125
52.739000 83.187 -143.7302
53.121168 83.201 -143.9548
53.506106 83.215 -144.1829
53.893833 83.230 -144.4104
54.284370 83.244 -144.6335
54.677737 83.260 -144.8484
55.073955 83.276 -145.0514
55.473043 83.292 -145.2390
55.875024 83.310 -145.4078
56.279917 83.329 -145.5550
56.687745 83.349 -145.6793
57.098527 83.371 -145.7815
57.512287 83.393 -145.8658
57.929045 83.416 -145.9404
58.348822 83.439 -146.0180
58.771642 83.462 -146.1163
59.197525 83.486 -146.2551
59.626495 83.510 -146.4528
60.058573 83.535 -146.7218
60.493782 83.561 -147.0638
60.932145 83.587 -147.4696
61.373685 83.614 -147.9212
61.818424 83.644 -148.3968
62.266386 83.675 -148.8757
62.717593 83.709 -149.3427
63.172071 83.745 -149.7886
63.629842 83.783 -150.2100
64.090930 83.823 -150.6074
64.555359 83.864 -150.9834
65.023154 83.906 -151.3412
65.494339 83.947 -151.6834
65.968938 83.989 -152.0114
66.446976 84.029 -152.3263
66.928478 84.067 -152.6291
67.413469 84.103 -152.9213
67.901975 84.137 -153.2054
68.394021 84.170 -153.4839
68.889632 84.200 -153.7592
69.388835 84.230 -154.0331
69.891655 84.258 -154.3061
70.398118 84.285 -154.5786
70.908252 84.310 -154.8506
71.422083 84.335 -155.1219
71.939636 84.358 -155.3928
72.460941 84.379 -155.6639
72.986023 84.399 -155.9356
73.514909 84.418 -156.2085
74.047629 84.434 -156.4828
74.584208 84.449 -156.7585
75.124676 84.460 -157.0350
75.669061 84.469 -157.3116
76.217390 84.475 -157.5871
76.769692 84.479 -157.8598
77.325997 84.479 -158.1283
77.886333 84.477 -158.3912
78.450730 84.474 -158.6481
79.019216 84.468 -158.8994
79.591822 84.461 -159.1462
80.168577 84.453 -159.3898
80.749512 84.443 -159.6315
81.334656 84.432 -159.8722
81.924040 84.420 -160.1125
82.517696 84.408 -160.3526
83.115653 84.395 -160.5923
83.717943 84.382 -160.8313
84.324598 84.369 -161.0691
84.935649 84.356 -161.3052
85.551128 84.343 -161.5395
86.171066 84.331 -161.7718
86.795497 84.318 -162.0022
87.424453 84.305 -162.2309
88.057967 84.292 -162.4579
88.696071 84.279 -162.6832
89.338800 84.266 -162.9068
89.986185 84.252 -163.1285
90.638262 84.237 -163.3483
91.295065 84.222 -163.5660
91.956626 84.206 -163.7820
92.622982 84.190 -163.9964
93.294166 84.174 -164.2097
93.970214 84.157 -164.4219
94.651161 84.140 -164.6327
95.337042 84.122 -164.8416
96.027894 84.105 -165.0475
96.723752 84.088 -165.2492
97.424652 84.070 -165.4457
98.130631 84.053 -165.6364
98.841726 84.037 -165.8211
99.557974 84.020 -166.0002
100.279412 84.004 -166.1744
101.006078 83.989 -166.3445
101.738010 83.974 -166.5109
102.475245 83.959 -166.6739
103.217823 83.946 -166.8332
103.965782 83.935 -166.9885
104.719161 83.925 -167.1394
105.477999 83.916 -167.2856
106.242336 83.910 -167.4270
107.012212 83.904 -167.5635
107.787666 83.901 -167.6955
108.568740 83.898 -167.8238
109.355474 83.896 -167.9496
110.147909 83.896 -168.0742
110.946086 83.896 -168.1990
111.750047 83.897 -168.3250
112.559834 83.900 -168.4526
113.375489 83.903 -168.5817
114.197055 83.906 -168.7118
115.024574 83.909 -168.8420
115.858089 83.912 -168.9719
116.697645 83.915 -169.1011
117.543284 83.917 -169.2292
118.395051 83.919 -169.3559
119.252990 83.919 -169.4807
120.117147 83.918 -169.6031
120.987565 83.916 -169.7228
121.864291 83.914 -169.8392
122.747370 83.910 -169.9522
123.636848 83.907 -170.0618
124.532771 83.903 -170.1680
125.435187 83.899 -170.2710
126.344142 83.895 -170.3705
127.259684 83.891 -170.4662
128.181860 83.886 -170.5574
129.110718 83.881 -170.6438
130.046308 83.876 -170.7250
130.988677 83.870 -170.8012
131.937875 83.863 -170.8730
132.893951 83.855 -170.9412
133.856956 83.847 -171.0076
134.826938 83.838 -171.0737
135.803950 83.828 -171.1410
136.788041 83.817 -171.2103
137.779264 83.805 -171.2814
138.777669 83.792 -171.3535
139.783309 83.779 -171.4258
140.796237 83.764 -171.4975
141.816504 83.749 -171.5678
142.844165 83.733 -171.6364
143.879273 83.717 -171.7029
144.921881 83.700 -171.7674
145.972045 83.682 -171.8297
147.029819 83.663 -171.8899
148.095257 83.644 -171.9477
149.168417 83.624 -172.0032
150.249353 83.604 -172.0563
151.338121 83.583 -172.1074
152.434780 83.561 -172.1570
153.539385 83.539 -172.2056
154.651995 83.517 -172.2542
155.772667 83.494 -172.3035
156.901460 83.472 -172.3542
158.038432 83.449 -172.4069
159.183644 83.428 -172.4616
160.337154 83.406 -172.5177
161.499023 83.386 -172.5744
162.669312 83.366 -172.6305
163.848081 83.347 -172.6851
165.035392 83.328 -172.7376
166.231306 83.310 -172.7873
167.435887 83.292 -172.8338
168.649196 83.274 -172.8766
169.871298 83.257 -172.9156
171.102255 83.239 -172.9508
172.342133 83.221 -172.9828
173.590995 83.203 -173.0119
174.848907 83.184 -173.0384
176.115934 83.166 -173.0621
177.392143 83.147 -173.0826
178.677599 83.127 -173.0988
179.972371 83.107 -173.1102
181.276525 83.085 -173.1161
182.590129 83.063 -173.1167
183.913252 83.040 -173.1127
185.245964 83.016 -173.1046
186.588332 82.991 -173.0932
187.940428 82.965 -173.0789
189.302322 82.939 -173.0620
190.674085 82.912 -173.0426
192.055788 82.885 -173.0204
193.447503 82.858 -172.9950
194.849303 82.831 -172.9655
196.261262 82.805 -172.9308
197.683452 82.779 -172.8896
199.115948 82.753 -172.8407
200.558824 82.729 -172.7835
202.012156 82.706 -172.7178
203.476019 82.684 -172.6444
204.950490 82.663 -172.5649
206.435646 82.643 -172.4815
207.931564 82.625 -172.3964
209.438322 82.608 -172.3118
210.955998 82.593 -172.2293
212.484672 82.578 -172.1495
214.024424 82.565 -172.0724
215.575333 82.552 -171.9978
217.137481 82.540 -171.9254
218.710948 82.530 -171.8552
220.295818 82.520 -171.7873
221.892172 82.511 -171.7220
223.500094 82.502 -171.6592
225.119668 82.495 -171.5990
226.750978 82.489 -171.5413
228.394109 82.484 -171.4857
230.049147 82.481 -171.4319
231.716178 82.478 -171.3793
233.395289 82.477 -171.3269
235.086567 82.477 -171.2735
236.790102 82.478 -171.2180
238.505980 82.481 -171.1597
240.234293 82.484 -171.0984
241.975130 82.488 -171.0344
243.728581 82.493 -170.9682
245.494739 82.498 -170.9003
247.273695 82.504 -170.8315
249.065542 82.510 -170.7624
250.870374 82.517 -170.6935
252.688284 82.523 -170.6251
254.519367 82.530 -170.5577
256.363720 82.537 -170.4912
258.221437 82.544 -170.4256
260.092616 82.551 -170.3608
261.977354 82.558 -170.2964
263.875750 82.565 -170.2324
265.787903 82.572 -170.1690
267.713911 82.578 -170.1064
269.653877 82.585 -170.0448
271.607900 82.591 -169.9845
273.576083 82.598 -169.9254
275.558528 82.605 -169.8677
277.555338 82.612 -169.8117
279.566619 82.620 -169.7574
281.592474 82.628 -169.7046
283.633009 82.637 -169.6532
285.688331 82.646 -169.6027
287.758546 82.655 -169.5524
289.843763 82.665 -169.5016
291.944090 82.674 -169.4495
294.059638 82.684 -169.3952
296.190515 82.694 -169.3381
298.336833 82.704 -169.2777
300.498705 82.715 -169.2137
302.676243 82.726 -169.1459
304.869559 82.738 -169.0740
307.078770 82.751 -168.9979
309.303989 82.764 -168.9178
311.545334 82.778 -168.8341
313.802919 82.792 -168.7473
316.076865 82.807 -168.6580
318.367288 82.823 -168.5667
320.674309 82.838 -168.4741
322.998047 82.855 -168.3808
325.338624 82.871 -168.2873
327.696162 82.888 -168.1942
330.070783 82.904 -168.1019
332.462612 82.921 -168.0108
334.871773 82.937 -167.9209
337.298392 82.953 -167.8323
339.742595 82.968 -167.7448
342.204510 82.982 -167.6582
344.684265 82.996 -167.5725
347.181989 83.008 -167.4872
349.697813 83.020 -167.4020
352.231868 83.030 -167.3162
354.784285 83.038 -167.2290
357.355198 83.046 -167.1397
359.944741 83.051 -167.0480
362.553049 83.056 -166.9541
365.180258 83.059 -166.8590
367.826505 83.062 -166.7639
370.491927 83.063 -166.6704
373.176665 83.064 -166.5797
375.880856 83.065 -166.4923
378.604644 83.065 -166.4084
381.348169 83.064 -166.3274
384.111575 83.064 -166.2483
386.895006 83.064 -166.1703
389.698607 83.063 -166.0925
392.522524 83.063 -166.0148
395.366904 83.063 -165.9368
398.231895 83.063 -165.8586
401.117648 83.062 -165.7800
404.024312 83.060 -165.7007
406.952038 83.058 -165.6206
409.900981 83.055 -165.5399
412.871292 83.052 -165.4590
415.863128 83.047 -165.3785
418.876643 83.041 -165.2988
421.911996 83.034 -165.2201
424.969344 83.026 -165.1424
428.048847 83.016 -165.0654
431.150666 83.005 -164.9889
434.274961 82.992 -164.9125
437.421897 82.977 -164.8359
440.591636 82.962 -164.7590
443.784345 82.945 -164.6814
447.000189 82.926 -164.6031
450.239337 82.907 -164.5244
453.501956 82.886 -164.4459
456.788219 82.865 -164.3683
460.098294 82.843 -164.2921
463.432356 82.821 -164.2177
466.790578 82.799 -164.1451
470.173135 82.777 -164.0742
473.580203 82.756 -164.0042
477.011961 82.735 -163.9345
480.468586 82.715 -163.8647
483.950259 82.695 -163.7945
487.457163 82.676 -163.7241
490.989478 82.658 -163.6538
494.547390 82.641 -163.5844
498.131084 82.624 -163.5165
501.740748 82.608 -163.4503
505.376568 82.592 -163.3858
509.038735 82.577 -163.3227
512.727439 82.564 -163.2603
516.442874 82.551 -163.1978
520.185232 82.540 -163.1343
523.954708 82.530 -163.0687
527.751500 82.521 -163.0000
531.575805 82.514 -162.9274
535.427822 82.509 -162.8500
539.307753 82.505 -162.7672
543.215800 82.503 -162.6786
547.152165 82.503 -162.5836
551.117055 82.505 -162.4818
555.110677 82.510 -162.3730
559.133237 82.516 -162.2573
563.184947 82.524 -162.1354
567.266018 82.535 -162.0080
571.376661 82.548 -161.8765
575.517092 82.562 -161.7425
579.687526 82.579 -161.6076
583.888181 82.597 -161.4738
588.119275 82.616 -161.3429
592.381030 82.635 -161.2167
596.673667 82.656 -161.0968
600.997410 82.675 -160.9846
605.352485 82.695 -160.8809
609.739119 82.713 -160.7862
614.157540 82.729 -160.7003
618.607979 82.744 -160.6227
623.090667 82.756 -160.5525
627.605839 82.766 -160.4885
632.153730 82.773 -160.4297
636.734576 82.777 -160.3747
641.348617 82.777 -160.3222
645.996094 82.774 -160.2702
650.677248 82.767 -160.2164
655.392323 82.757 -160.1573
660.141566 82.742 -160.0892
664.925224 82.723 -160.0077
669.743546 82.701 -159.9083
674.596784 82.675 -159.7865
679.485191 82.646 -159.6380
684.409020 82.616 -159.4598
689.368530 82.584 -159.2500
694.363979 82.552 -159.0084
699.395626 82.521 -158.7367
704.463736 82.491 -158.4382
709.568570 82.464 -158.1181
714.710396 82.439 -157.7821
719.889483 82.417 -157.4362
725.106099 82.398 -157.0861
730.360516 82.381 -156.7361
735.653010 82.366 -156.3895
740.983855 82.352 -156.0483
746.353329 82.339 -155.7134
751.761713 82.326 -155.3852
757.209288 82.313 -155.0633
762.696339 82.301 -154.7476
768.223151 82.288 -154.4382
773.790013 82.276 -154.1354
779.397214 82.264 -153.8401
785.045047 82.254 -153.5536
790.733808 82.244 -153.2774
796.463791 82.235 -153.0127
802.235296 82.228 -152.7604
808.048623 82.221 -152.5208
813.904077 82.215 -152.2935
819.801961 82.210 -152.0772
825.742584 82.205 -151.8701
831.726255 82.202 -151.6703
837.753287 82.199 -151.4760
843.823992 82.197 -151.2854
849.938689 82.196 -151.0976
856.097695 82.196 -150.9119
862.301332 82.198 -150.7279
868.549922 82.201 -150.5460
874.843793 82.205 -150.3667
881.183272 82.210 -150.1910
887.568689 82.217 -150.0199
894.000378 82.226 -149.8544
900.478673 82.236 -149.6955
907.003913 82.247 -149.5435
913.576437 82.260 -149.3986
920.196588 82.274 -149.2608
926.864712 82.289 -149.1299
933.581156 82.307 -149.0055
940.346270 82.326 -148.8873
947.160407 82.346 -148.7745
954.023921 82.368 -148.6663
960.937172 82.392 -148.5617
967.900519 82.417 -148.4599
974.914325 82.445 -148.3600
981.978956 82.474 -148.2616
989.094780 82.506 -148.1640
996.262169 82.540 -148.0672
1003.481495 82.577 -147.9713
1010.753136 82.616 -147.8764
1018.077470 82.657 -147.7832
1025.454879 82.701 -147.6922
1032.885748 82.748 -147.6039
1040.370463 82.796 -147.5187
1047.909417 82.846 -147.4372
1055.503000 82.898 -147.3598
1063.151610 82.951 -147.2870
1070.855645 83.005 -147.2189
1078.615506 83.061 -147.1554
1086.431599 83.116 -147.0962
1094.304330 83.173 -147.0403
1102.234110 83.229 -146.9870
1110.221353 83.285 -146.9353
1118.266475 83.342 -146.8845
1126.369895 83.398 -146.8342
1134.532035 83.455 -146.7842
1142.753322 83.511 -146.7348
1151.034184 83.567 -146.6865
1159.375052 83.623 -146.6398
1167.776361 83.680 -146.5957
1176.238550 83.736 -146.5551
1184.762060 83.792 -146.5186
1193.347334 83.847 -146.4869
1201.994821 83.903 -146.4605
1210.704971 83.957 -146.4393
1219.478238 84.012 -146.4236
1228.315080 84.065 -146.4131
1237.215957 84.118 -146.4079
1246.181334 84.170 -146.4079
1255.211678 84.221 -146.4127
1264.307459 84.271 -146.4217
1273.469152 84.320 -146.4338
1282.697235 84.369 -146.4478
1291.992188 84.416 -146.4619
1301.354495 84.462 -146.4748
1310.784647 84.508 -146.4852
1320.283132 84.552 -146.4924
1329.850448 84.596 -146.4957
1339.487093 84.639 -146.4949
1349.193569 84.682 -146.4893
1358.970381 84.724 -146.4790
1368.818041 84.766 -146.4637
1378.737061 84.807 -146.4440
1388.727958 84.849 -146.4200
1398.791253 84.892 -146.3922
1408.927471 84.934 -146.3610
1419.137140 84.977 -146.3265
1429.420793 85.021 -146.2882
1439.778965 85.064 -146.2455
1450.212197 85.108 -146.1971
1460.721033 85.153 -146.1416
1471.306019 85.197 -146.0773
1481.967709 85.242 -146.0024
1492.706658 85.288 -145.9154
1503.523426 85.333 -145.8149
1514.418576 85.379 -145.7003
1525.392678 85.424 -145.5713
1536.446302 85.469 -145.4283
1547.580025 85.513 -145.2716
1558.794428 85.555 -145.1010
1570.090095 85.597 -144.9165
1581.467615 85.636 -144.7175
1592.927581 85.673 -144.5035
1604.470591 85.709 -144.2740
1616.097246 85.742 -144.0296
1627.808153 85.774 -143.7713
1639.603922 85.804 -143.5009
1651.485168 85.834 -143.2204
1663.452510 85.862 -142.9318
1675.506573 85.890 -142.6371
1687.647984 85.918 -142.3378
1699.877377 85.946 -142.0349
1712.195390 85.973 -141.7285
1724.602663 86.001 -141.4179
1737.099845 86.029 -141.1020
1749.687587 86.058 -140.7802
1762.366544 86.087 -140.4523
1775.137379 86.116 -140.1191
1788.000756 86.147 -139.7819
1800.957346 86.179 -139.4425
1814.007826 86.212 -139.1025
1827.152874 86.248 -138.7643
1840.393177 86.286 -138.4311
1853.729425 86.326 -138.1066
1867.162312 86.368 -137.7953
1880.692540 86.413 -137.5019
1894.320813 86.460 -137.2306
1908.047843 86.507 -136.9848
1921.874344 86.556 -136.7672
1935.801038 86.604 -136.5795
1949.828650 86.652 -136.4235
1963.957912 86.700 -136.3012
1978.189561 86.746 -136.2148
1992.524338 86.790 -136.1663
2006.962991 86.833 -136.1570
2021.506272 86.872 -136.1875
2036.154940 86.908 -136.2570
2050.909758 86.940 -136.3637
2065.771495 86.968 -136.5045
2080.740927 86.991 -136.6759
2095.818833 87.011 -136.8737
2111.006001 87.026 -137.0947
2126.303220 87.038 -137.3363
2141.711290 87.046 -137.5973
2157.231013 87.051 -137.8770
2172.863198 87.053 -138.1754
2188.608660 87.053 -138.4923
2204.468221 87.049 -138.8271
2220.442706 87.043 -139.1786
2236.532950 87.033 -139.5455
2252.739789 87.019 -139.9258
2269.064070 87.002 -140.3173
2285.506644 86.981 -140.7171
2302.068367 86.957 -141.1220
2318.750104 86.928 -141.5285
2335.552723 86.896 -141.9331
2352.477101 86.861 -142.3328
2369.524119 86.823 -142.7250
2386.694668 86.782 -143.1080
2403.989641 86.740 -143.4806
2421.409941 86.697 -143.8421
2438.956476 86.652 -144.1927
2456.630160 86.608 -144.5324
2474.431915 86.563 -144.8614
2492.362668 86.518 -145.1794
2510.423356 86.473 -145.4858
2528.614918 86.429 -145.7797
2546.938304 86.385 -146.0600
2565.394469 86.343 -146.3258
2583.984375 86.301 -146.5761
2602.708991 86.260 -146.8107
2621.569293 86.221 -147.0297
2640.566265 86.184 -147.2343
2659.700897 86.148 -147.4264
2678.974186 86.113 -147.6078
2698.387137 86.080 -147.7799
2717.940763 86.047 -147.9430
2737.636082 86.013 -148.0956
2757.474121 85.979 -148.2343
2777.455915 85.942 -148.3540
2797.582506 85.903 -148.4484
2817.854942 85.862 -148.5104
2838.274281 85.818 -148.5332
2858.841586 85.774 -148.5108
2879.557931 85.728 -148.4382
2900.424394 85.682 -148.3117
2921.442065 85.636 -148.1296
2942.612039 85.592 -147.8913
2963.935418 85.549 -147.5978
2985.413316 85.509 -147.2511
3007.046852 85.471 -146.8542
3028.837153 85.435 -146.4110
3050.785356 85.402 -145.9250
3072.892604 85.372 -145.3999
3095.160050 85.344 -144.8392
