* Measurement data measured by REW V5.31.3
* Source: EXCL: Headset (USB-C to 3.5mm Headphone Jack Adapter), MICROPHONE (Master Volume), 0, volume: 0.260
* Format: 256k Log Swept Sine, 1 sweep at -12.0 dBFS with no timing reference
* Dated: Mar 17, 2025 12:34:44 PM
* REW Settings:
*  C-weighting compensation: Off
*  Target level: 75.0 dB
* Note: ; 
* Measurement: HD650 (Mystery) L9
* Smoothing: 1/6 octave
* Frequency Step: 96 ppo
* Start Frequency: 20.0 Hz
*
* Freq(Hz) SPL(dB) Phase(degrees)
20.187378 91.305 -60.3615
20.333664 91.327 -60.4078
20.481010 91.357 -60.4776
20.629424 91.395 -60.5796
20.778913 91.440 -60.7228
20.929486 91.491 -60.9161
21.081150 91.545 -61.1669
21.233912 91.602 -61.4799
21.387782 91.659 -61.8564
21.542767 91.713 -62.2943
21.698874 91.763 -62.7881
21.856113 91.807 -63.3293
22.014492 91.845 -63.9077
22.174018 91.876 -64.5120
22.334700 91.900 -65.1311
22.496546 91.919 -65.7549
22.659566 91.934 -66.3754
22.823766 91.946 -66.9872
22.989157 91.958 -67.5874
23.155745 91.972 -68.1762
23.323542 91.988 -68.7559
23.492554 92.008 -69.3302
23.662790 92.034 -69.9035
23.834261 92.064 -70.4796
24.006973 92.098 -71.0613
24.180938 92.136 -71.6493
24.356163 92.177 -72.2423
24.532658 92.219 -72.8371
24.710431 92.262 -73.4290
24.889493 92.306 -74.0126
25.069853 92.349 -74.5824
25.251519 92.391 -75.1337
25.434502 92.434 -75.6630
25.618811 92.477 -76.1687
25.804456 92.521 -76.6509
25.991445 92.566 -77.1113
26.179790 92.613 -77.5532
26.369500 92.663 -77.9805
26.560584 92.715 -78.3979
26.753053 92.770 -78.8097
26.946917 92.828 -79.2203
27.142185 92.889 -79.6337
27.338869 92.954 -80.0533
27.536977 93.023 -80.4826
27.736522 93.094 -80.9245
27.937512 93.168 -81.3820
28.139959 93.245 -81.8573
28.343872 93.321 -82.3522
28.549264 93.398 -82.8674
28.756143 93.472 -83.4020
28.964522 93.542 -83.9537
29.174411 93.607 -84.5186
29.385821 93.666 -85.0909
29.598763 93.717 -85.6643
29.813248 93.760 -86.2318
30.029287 93.795 -86.7871
30.246891 93.824 -87.3248
30.466073 93.847 -87.8414
30.686842 93.866 -88.3359
30.909212 93.883 -88.8093
31.133193 93.900 -89.2648
31.358797 93.919 -89.7074
31.586035 93.941 -90.1432
31.814921 93.968 -90.5785
32.045465 94.001 -91.0194
32.277680 94.040 -91.4712
32.511577 94.087 -91.9375
32.747169 94.140 -92.4204
32.984469 94.199 -92.9200
33.223488 94.264 -93.4346
33.464239 94.333 -93.9605
33.706735 94.405 -94.4930
33.950987 94.479 -95.0264
34.197010 94.553 -95.5553
34.444816 94.628 -96.0752
34.694417 94.702 -96.5835
34.945827 94.774 -97.0795
35.199059 94.844 -97.5647
35.454126 94.910 -98.0423
35.711041 94.972 -98.5163
35.969818 95.030 -98.9902
36.230470 95.081 -99.4666
36.493011 95.127 -99.9463
36.757455 95.166 -100.4286
37.023814 95.200 -100.9120
37.292104 95.228 -101.3946
37.562338 95.252 -101.8750
37.834530 95.273 -102.3529
38.108695 95.292 -102.8287
38.384846 95.309 -103.3033
38.662999 95.324 -103.7776
38.943167 95.337 -104.2514
39.225365 95.349 -104.7239
39.509608 95.357 -105.1937
39.795911 95.363 -105.6594
40.084289 95.365 -106.1200
40.374756 95.365 -106.5758
40.667328 95.361 -107.0275
40.962020 95.354 -107.4768
41.258848 95.345 -107.9247
41.557827 95.333 -108.3721
41.858972 95.320 -108.8187
42.162299 95.306 -109.2636
42.467824 95.293 -109.7055
42.775564 95.281 -110.1430
43.085533 95.273 -110.5751
43.397749 95.268 -111.0013
43.712227 95.268 -111.4217
44.028983 95.273 -111.8365
44.348036 95.283 -112.2466
44.669400 95.296 -112.6531
44.993093 95.314 -113.0573
45.319131 95.334 -113.4607
45.647532 95.357 -113.8647
45.978313 95.382 -114.2705
46.311491 95.408 -114.6789
46.647083 95.436 -115.0906
46.985107 95.466 -115.5057
47.325581 95.498 -115.9242
47.668521 95.532 -116.3455
48.013947 95.569 -116.7686
48.361876 95.608 -117.1918
48.712326 95.650 -117.6126
49.065315 95.693 -118.0285
49.420863 95.738 -118.4368
49.778987 95.784 -118.8357
50.139706 95.829 -119.2249
50.503039 95.875 -119.6048
50.869005 95.920 -119.9774
51.237623 95.964 -120.3447
51.608912 96.008 -120.7088
51.982891 96.050 -121.0710
52.359580 96.092 -121.4317
52.739000 96.133 -121.7906
53.121168 96.173 -122.1470
53.506106 96.212 -122.5002
53.893833 96.250 -122.8497
54.284370 96.286 -123.1955
54.677737 96.320 -123.5378
55.073955 96.351 -123.8767
55.473043 96.379 -124.2125
55.875024 96.405 -124.5452
56.279917 96.427 -124.8749
56.687745 96.445 -125.2024
57.098527 96.461 -125.5292
57.512287 96.474 -125.8573
57.929045 96.485 -126.1893
58.348822 96.496 -126.5280
58.771642 96.509 -126.8761
59.197525 96.526 -127.2362
59.626495 96.548 -127.6105
60.058573 96.577 -128.0004
60.493782 96.613 -128.4055
60.932145 96.656 -128.8241
61.373685 96.703 -129.2529
61.818424 96.752 -129.6877
62.266386 96.803 -130.1255
62.717593 96.852 -130.5640
63.172071 96.899 -131.0026
63.629842 96.942 -131.4409
64.090930 96.981 -131.8786
64.555359 97.016 -132.3152
65.023154 97.046 -132.7496
65.494339 97.073 -133.1810
65.968938 97.098 -133.6086
66.446976 97.119 -134.0323
66.928478 97.139 -134.4521
67.413469 97.157 -134.8681
67.901975 97.174 -135.2806
68.394021 97.189 -135.6897
68.889632 97.203 -136.0957
69.388835 97.217 -136.4990
69.891655 97.231 -136.8999
70.398118 97.245 -137.2991
70.908252 97.259 -137.6967
71.422083 97.273 -138.0932
71.939636 97.288 -138.4886
72.460941 97.304 -138.8827
72.986023 97.319 -139.2749
73.514909 97.335 -139.6647
74.047629 97.351 -140.0512
74.584208 97.366 -140.4338
75.124676 97.381 -140.8121
75.669061 97.396 -141.1857
76.217390 97.410 -141.5547
76.769692 97.424 -141.9190
77.325997 97.438 -142.2790
77.886333 97.451 -142.6353
78.450730 97.464 -142.9888
79.019216 97.476 -143.3407
79.591822 97.488 -143.6918
80.168577 97.498 -144.0429
80.749512 97.508 -144.3944
81.334656 97.517 -144.7462
81.924040 97.526 -145.0980
82.517696 97.535 -145.4493
83.115653 97.543 -145.7999
83.717943 97.550 -146.1494
84.324598 97.558 -146.4982
84.935649 97.565 -146.8469
85.551128 97.572 -147.1960
86.171066 97.579 -147.5462
86.795497 97.587 -147.8977
87.424453 97.595 -148.2502
88.057967 97.603 -148.6027
88.696071 97.613 -148.9543
89.338800 97.623 -149.3036
89.986185 97.635 -149.6495
90.638262 97.648 -149.9913
91.295065 97.662 -150.3290
91.956626 97.677 -150.6626
92.622982 97.693 -150.9924
93.294166 97.709 -151.3185
93.970214 97.724 -151.6411
94.651161 97.739 -151.9601
95.337042 97.752 -152.2755
96.027894 97.764 -152.5875
96.723752 97.773 -152.8965
97.424652 97.779 -153.2028
98.130631 97.783 -153.5068
98.841726 97.785 -153.8083
99.557974 97.784 -154.1075
100.279412 97.781 -154.4043
101.006078 97.776 -154.6995
101.738010 97.771 -154.9943
102.475245 97.764 -155.2897
103.217823 97.758 -155.5868
103.965782 97.752 -155.8859
104.719161 97.747 -156.1865
105.477999 97.743 -156.4878
106.242336 97.741 -156.7883
107.012212 97.740 -157.0861
107.787666 97.742 -157.3798
108.568740 97.744 -157.6684
109.355474 97.749 -157.9514
110.147909 97.754 -158.2290
110.946086 97.760 -158.5022
111.750047 97.767 -158.7718
112.559834 97.773 -159.0392
113.375489 97.780 -159.3059
114.197055 97.785 -159.5730
115.024574 97.790 -159.8412
115.858089 97.793 -160.1112
116.697645 97.795 -160.3829
117.543284 97.797 -160.6564
118.395051 97.797 -160.9319
119.252990 97.796 -161.2099
120.117147 97.795 -161.4905
120.987565 97.793 -161.7735
121.864291 97.791 -162.0582
122.747370 97.789 -162.3439
123.636848 97.788 -162.6297
124.532771 97.786 -162.9150
125.435187 97.786 -163.1996
126.344142 97.785 -163.4834
127.259684 97.785 -163.7661
128.181860 97.786 -164.0475
129.110718 97.788 -164.3273
130.046308 97.790 -164.6052
130.988677 97.793 -164.8809
131.937875 97.796 -165.1537
132.893951 97.800 -165.4230
133.856956 97.805 -165.6880
134.826938 97.810 -165.9484
135.803950 97.815 -166.2039
136.788041 97.820 -166.4554
137.779264 97.824 -166.7039
138.777669 97.827 -166.9510
139.783309 97.828 -167.1974
140.796237 97.827 -167.4436
141.816504 97.824 -167.6894
142.844165 97.819 -167.9344
143.879273 97.811 -168.1777
144.921881 97.802 -168.4189
145.972045 97.791 -168.6572
147.029819 97.780 -168.8924
148.095257 97.768 -169.1245
149.168417 97.755 -169.3535
150.249353 97.743 -169.5799
151.338121 97.733 -169.8045
152.434780 97.723 -170.0278
153.539385 97.714 -170.2507
154.651995 97.707 -170.4735
155.772667 97.701 -170.6965
156.901460 97.695 -170.9195
158.038432 97.691 -171.1425
159.183644 97.687 -171.3654
160.337154 97.683 -171.5882
161.499023 97.679 -171.8111
162.669312 97.674 -172.0344
163.848081 97.669 -172.2584
165.035392 97.663 -172.4833
166.231306 97.656 -172.7090
167.435887 97.648 -172.9352
168.649196 97.640 -173.1614
169.871298 97.632 -173.3871
171.102255 97.622 -173.6117
172.342133 97.613 -173.8345
173.590995 97.603 -174.0548
174.848907 97.592 -174.2723
176.115934 97.581 -174.4870
177.392143 97.569 -174.6992
178.677599 97.557 -174.9097
179.972371 97.544 -175.1190
181.276525 97.530 -175.3277
182.590129 97.515 -175.5358
183.913252 97.498 -175.7433
185.245964 97.480 -175.9501
186.588332 97.460 -176.1559
187.940428 97.439 -176.3607
189.302322 97.415 -176.5644
190.674085 97.390 -176.7671
192.055788 97.362 -176.9686
193.447503 97.332 -177.1688
194.849303 97.301 -177.3673
196.261262 97.267 -177.5639
197.683452 97.231 -177.7585
199.115948 97.193 -177.9509
200.558824 97.153 -178.1410
202.012156 97.111 -178.3289
203.476019 97.068 -178.5150
204.950490 97.024 -178.6996
206.435646 96.980 -178.8833
207.931564 96.937 -179.0663
209.438322 96.895 -179.2490
210.955998 96.856 -179.4317
212.484672 96.819 -179.6143
214.024424 96.785 -179.7968
215.575333 96.756 -179.9787
217.137481 96.731 179.8403
218.710948 96.711 179.6609
220.295818 96.695 179.4834
221.892172 96.684 179.3082
223.500094 96.677 179.1355
225.119668 96.674 178.9655
226.750978 96.675 178.7984
228.394109 96.679 178.6342
230.049147 96.686 178.4735
231.716178 96.695 178.3167
233.395289 96.705 178.1645
235.086567 96.717 178.0175
236.790102 96.729 177.8763
238.505980 96.742 177.7412
240.234293 96.753 177.6122
241.975130 96.764 177.4895
243.728581 96.774 177.3730
245.494739 96.782 177.2628
247.273695 96.789 177.1595
249.065542 96.794 177.0635
250.870374 96.798 176.9754
252.688284 96.801 176.8961
254.519367 96.804 176.8260
256.363720 96.806 176.7657
258.221437 96.808 176.7151
260.092616 96.811 176.6733
261.977354 96.815 176.6392
263.875750 96.818 176.6112
265.787903 96.823 176.5875
267.713911 96.827 176.5663
269.653877 96.831 176.5458
271.607900 96.834 176.5246
273.576083 96.835 176.5010
275.558528 96.835 176.4738
277.555338 96.831 176.4418
279.566619 96.825 176.4042
281.592474 96.814 176.3606
283.633009 96.799 176.3110
285.688331 96.780 176.2556
287.758546 96.757 176.1944
289.843763 96.729 176.1279
291.944090 96.696 176.0563
294.059638 96.660 175.9802
296.190515 96.619 175.9003
298.336833 96.576 175.8176
300.498705 96.529 175.7332
302.676243 96.480 175.6481
304.869559 96.430 175.5631
307.078770 96.378 175.4789
309.303989 96.327 175.3961
311.545334 96.276 175.3149
313.802919 96.226 175.2355
316.076865 96.177 175.1580
318.367288 96.131 175.0822
320.674309 96.088 175.0081
322.998047 96.049 174.9353
325.338624 96.014 174.8637
327.696162 95.983 174.7930
330.070783 95.956 174.7229
332.462612 95.935 174.6536
334.871773 95.919 174.5850
337.298392 95.908 174.5175
339.742595 95.902 174.4518
342.204510 95.901 174.3888
344.684265 95.905 174.3296
347.181989 95.914 174.2749
349.697813 95.926 174.2251
352.231868 95.941 174.1799
354.784285 95.958 174.1380
357.355198 95.977 174.0977
359.944741 95.997 174.0573
362.553049 96.016 174.0151
365.180258 96.034 173.9705
367.826505 96.050 173.9238
370.491927 96.063 173.8759
373.176665 96.071 173.8281
375.880856 96.075 173.7812
378.604644 96.074 173.7365
381.348169 96.068 173.6942
384.111575 96.057 173.6550
386.895006 96.041 173.6188
389.698607 96.021 173.5855
392.522524 95.997 173.5548
395.366904 95.970 173.5261
398.231895 95.942 173.4990
401.117648 95.912 173.4728
404.024312 95.882 173.4471
406.952038 95.854 173.4216
409.900981 95.828 173.3957
412.871292 95.805 173.3693
415.863128 95.786 173.3426
418.876643 95.771 173.3158
421.911996 95.760 173.2896
424.969344 95.754 173.2645
428.048847 95.752 173.2409
431.150666 95.753 173.2192
434.274961 95.757 173.1994
437.421897 95.762 173.1813
440.591636 95.767 173.1647
443.784345 95.773 173.1494
447.000189 95.777 173.1352
450.239337 95.779 173.1221
453.501956 95.778 173.1100
456.788219 95.775 173.0993
460.098294 95.770 173.0901
463.432356 95.761 173.0826
466.790578 95.751 173.0768
470.173135 95.738 173.0724
473.580203 95.724 173.0693
477.011961 95.709 173.0673
480.468586 95.693 173.0663
483.950259 95.676 173.0663
487.457163 95.659 173.0672
490.989478 95.642 173.0693
494.547390 95.625 173.0726
498.131084 95.610 173.0771
501.740748 95.596 173.0831
505.376568 95.585 173.0906
509.038735 95.578 173.0998
512.727439 95.575 173.1107
516.442874 95.578 173.1232
520.185232 95.586 173.1373
523.954708 95.601 173.1528
527.751500 95.622 173.1696
531.575805 95.650 173.1873
535.427822 95.683 173.2059
539.307753 95.721 173.2251
543.215800 95.762 173.2448
547.152165 95.805 173.2649
551.117055 95.849 173.2855
555.110677 95.891 173.3066
559.133237 95.931 173.3286
563.184947 95.966 173.3516
567.266018 95.996 173.3757
571.376661 96.020 173.4011
575.517092 96.036 173.4279
579.687526 96.044 173.4559
583.888181 96.043 173.4852
588.119275 96.032 173.5156
592.381030 96.011 173.5470
596.673667 95.981 173.5795
600.997410 95.941 173.6131
605.352485 95.891 173.6479
609.739119 95.833 173.6838
614.157540 95.767 173.7211
618.607979 95.695 173.7596
623.090667 95.618 173.7996
627.605839 95.539 173.8409
632.153730 95.459 173.8837
636.734576 95.380 173.9279
641.348617 95.303 173.9733
645.996094 95.232 174.0194
650.677248 95.165 174.0660
655.392323 95.106 174.1124
660.141566 95.054 174.1580
664.925224 95.011 174.2024
669.743546 94.977 174.2451
674.596784 94.952 174.2856
679.485191 94.936 174.3241
684.409020 94.930 174.3606
689.368530 94.932 174.3955
694.363979 94.942 174.4294
699.395626 94.960 174.4631
704.463736 94.985 174.4970
709.568570 95.015 174.5317
714.710396 95.050 174.5671
719.889483 95.087 174.6029
725.106099 95.125 174.6382
730.360516 95.163 174.6718
735.653010 95.200 174.7019
740.983855 95.234 174.7267
746.353329 95.265 174.7444
751.761713 95.292 174.7533
757.209288 95.314 174.7521
762.696339 95.331 174.7398
768.223151 95.344 174.7163
773.790013 95.351 174.6822
779.397214 95.353 174.6395
785.045047 95.348 174.5911
790.733808 95.338 174.5420
796.463791 95.319 174.4983
802.235296 95.292 174.4679
808.048623 95.255 174.4601
813.904077 95.208 174.4850
819.801961 95.150 174.5526
825.742584 95.084 174.6717
831.726255 95.011 174.8468
837.753287 94.934 175.0770
843.823992 94.857 175.3535
849.938689 94.782 175.6609
856.097695 94.714 175.9796
862.301332 94.656 176.2897
868.549922 94.608 176.5751
874.843793 94.571 176.8245
881.183272 94.547 177.0326
887.568689 94.536 177.1984
894.000378 94.536 177.3242
900.478673 94.547 177.4143
907.003913 94.569 177.4735
913.576437 94.600 177.5069
920.196588 94.639 177.5191
926.864712 94.684 177.5142
933.581156 94.733 177.4956
940.346270 94.785 177.4663
947.160407 94.837 177.4290
954.023921 94.889 177.3861
960.937172 94.938 177.3398
967.900519 94.984 177.2922
974.914325 95.025 177.2455
981.978956 95.062 177.2021
989.094780 95.095 177.1643
996.262169 95.123 177.1348
1003.481495 95.148 177.1158
1010.753136 95.170 177.1088
1018.077470 95.192 177.1144
1025.454879 95.214 177.1320
1032.885748 95.239 177.1600
1040.370463 95.268 177.1962
1047.909417 95.302 177.2377
1055.503000 95.341 177.2822
1063.151610 95.387 177.3277
1070.855645 95.437 177.3731
1078.615506 95.493 177.4182
1086.431599 95.552 177.4636
1094.304330 95.614 177.5099
1102.234110 95.677 177.5575
1110.221353 95.739 177.6063
1118.266475 95.800 177.6554
1126.369895 95.858 177.7035
1134.532035 95.912 177.7492
1142.753322 95.961 177.7913
1151.034184 96.005 177.8290
1159.375052 96.044 177.8622
1167.776361 96.078 177.8915
1176.238550 96.110 177.9178
1184.762060 96.139 177.9429
1193.347334 96.167 177.9679
1201.994821 96.196 177.9938
1210.704971 96.229 178.0206
1219.478238 96.265 178.0471
1228.315080 96.307 178.0709
1237.215957 96.355 178.0891
1246.181334 96.408 178.0987
1255.211678 96.468 178.0975
1264.307459 96.532 178.0844
1273.469152 96.600 178.0597
1282.697235 96.671 178.0247
1291.992188 96.744 177.9818
1301.354495 96.817 177.9332
1310.784647 96.890 177.8817
1320.283132 96.962 177.8290
1329.850448 97.032 177.7767
1339.487093 97.099 177.7260
1349.193569 97.163 177.6777
1358.970381 97.223 177.6326
1368.818041 97.279 177.5912
1378.737061 97.330 177.5542
1388.727958 97.377 177.5223
1398.791253 97.419 177.4958
1408.927471 97.457 177.4744
1419.137140 97.491 177.4575
1429.420793 97.522 177.4440
1439.778965 97.548 177.4330
1450.212197 97.572 177.4241
1460.721033 97.593 177.4174
1471.306019 97.611 177.4131
1481.967709 97.626 177.4117
1492.706658 97.639 177.4130
1503.523426 97.649 177.4165
1514.418576 97.655 177.4213
1525.392678 97.659 177.4271
1536.446302 97.658 177.4338
1547.580025 97.653 177.4421
1558.794428 97.645 177.4532
1570.090095 97.632 177.4686
1581.467615 97.615 177.4894
1592.927581 97.596 177.5169
1604.470591 97.574 177.5517
1616.097246 97.550 177.5943
1627.808153 97.526 177.6448
1639.603922 97.501 177.7035
1651.485168 97.477 177.7703
1663.452510 97.452 177.8454
1675.506573 97.429 177.9282
1687.647984 97.405 178.0182
1699.877377 97.383 178.1145
1712.195390 97.361 178.2156
1724.602663 97.340 178.3204
1737.099845 97.320 178.4277
1749.687587 97.301 178.5369
1762.366544 97.284 178.6476
1775.137379 97.269 178.7596
1788.000756 97.256 178.8729
1800.957346 97.246 178.9875
1814.007826 97.237 179.1036
1827.152874 97.231 179.2215
1840.393177 97.227 179.3416
1853.729425 97.224 179.4644
1867.162312 97.222 179.5896
1880.692540 97.219 179.7167
1894.320813 97.215 179.8453
1908.047843 97.209 179.9752
1921.874344 97.200 -179.8927
1935.801038 97.188 -179.7565
1949.828650 97.173 -179.6138
1963.957912 97.153 -179.4617
1978.189561 97.131 -179.2977
1992.524338 97.106 -179.1199
2006.962991 97.081 -178.9280
2021.506272 97.056 -178.7230
2036.154940 97.033 -178.5071
2050.909758 97.012 -178.2833
2065.771495 96.995 -178.0547
2080.740927 96.982 -177.8238
2095.818833 96.975 -177.5928
2111.006001 96.973 -177.3625
2126.303220 96.977 -177.1330
2141.711290 96.986 -176.9031
2157.231013 97.003 -176.6716
2172.863198 97.027 -176.4377
2188.608660 97.059 -176.2021
2204.468221 97.099 -175.9670
2220.442706 97.149 -175.7353
2236.532950 97.207 -175.5105
2252.739789 97.275 -175.2955
2269.064070 97.351 -175.0923
2285.506644 97.436 -174.9018
2302.068367 97.528 -174.7239
2318.750104 97.627 -174.5576
2335.552723 97.732 -174.4019
2352.477101 97.843 -174.2562
2369.524119 97.959 -174.1205
2386.694668 98.078 -173.9952
2403.989641 98.201 -173.8812
2421.409941 98.326 -173.7793
2438.956476 98.451 -173.6900
2456.630160 98.575 -173.6135
2474.431915 98.698 -173.5501
2492.362668 98.819 -173.4997
2510.423356 98.935 -173.4622
2528.614918 99.047 -173.4373
2546.938304 99.153 -173.4246
2565.394469 99.253 -173.4230
2583.984375 99.346 -173.4317
2602.708991 99.431 -173.4496
2621.569293 99.508 -173.4755
2640.566265 99.577 -173.5083
2659.700897 99.637 -173.5464
2678.974186 99.689 -173.5879
2698.387137 99.732 -173.6311
2717.940763 99.766 -173.6745
2737.636082 99.793 -173.7166
2757.474121 99.811 -173.7560
2777.455915 99.822 -173.7909
2797.582506 99.825 -173.8190
2817.854942 99.821 -173.8375
2838.274281 99.810 -173.8432
2858.841586 99.794 -173.8337
2879.557931 99.773 -173.8073
2900.424394 99.749 -173.7638
2921.442065 99.721 -173.7041
2942.612039 99.692 -173.6306
2963.935418 99.662 -173.5468
2985.413316 99.632 -173.4578
3007.046852 99.603 -173.3701
3028.837153 99.576 -173.2905
3050.785356 99.550 -173.2259
3072.892604 99.526 -173.1826
3095.160050 99.503 -173.1655
3117.588856 99.480 -173.1780
3140.180190 99.458 -173.2214
3162.935230 99.434 -173.2947
3185.855163 99.409 -173.3954
3208.941182 99.381 -173.5193
3232.194493 99.351 -173.6618
3255.616307 99.318 -173.8177
3279.207844 99.282 -173.9819
3302.970336 99.244 -174.1494
3326.905021 99.204 -174.3157
3351.013146 99.162 -174.4764
3375.295969 99.119 -174.6273
3399.754755 99.076 -174.7644
3424.390779 99.032 -174.8836
