* Measurement data measured by REW V5.31.3
* Source: EXCL: Headset (USB-C to 3.5mm Headphone Jack Adapter), MICROPHONE (Master Volume), 0, volume: 0.260
* Format: 256k Log Swept Sine, 1 sweep at -12.0 dBFS with no timing reference
* Dated: Mar 17, 2025 12:37:04 PM
* REW Settings:
*  C-weighting compensation: Off
*  Target level: 75.0 dB
* Note: ; 
* Measurement: HD650 (Geekria) L2
* Smoothing: 1/6 octave
* Frequency Step: 96 ppo
* Start Frequency: 20.0 Hz
*
* Freq(Hz) SPL(dB) Phase(degrees)
20.187378 91.498 -63.0227
20.333664 91.502 -63.2317
20.481010 91.509 -63.5201
20.629424 91.519 -63.8900
20.778913 91.533 -64.3423
20.929486 91.552 -64.8761
21.081150 91.576 -65.4876
21.233912 91.606 -66.1694
21.387782 91.641 -66.9104
21.542767 91.679 -67.6961
21.698874 91.722 -68.5088
21.856113 91.767 -69.3291
22.014492 91.815 -70.1369
22.174018 91.865 -70.9126
22.334700 91.916 -71.6390
22.496546 91.969 -72.3024
22.659566 92.023 -72.8939
22.823766 92.080 -73.4099
22.989157 92.140 -73.8527
23.155745 92.202 -74.2303
23.323542 92.266 -74.5551
23.492554 92.331 -74.8432
23.662790 92.397 -75.1120
23.834261 92.461 -75.3790
24.006973 92.523 -75.6597
24.180938 92.579 -75.9664
24.356163 92.630 -76.3075
24.532658 92.674 -76.6871
24.710431 92.710 -77.1057
24.889493 92.738 -77.5607
25.069853 92.761 -78.0478
25.251519 92.779 -78.5619
25.434502 92.795 -79.0985
25.618811 92.811 -79.6546
25.804456 92.830 -80.2286
25.991445 92.854 -80.8209
26.179790 92.885 -81.4328
26.369500 92.925 -82.0661
26.560584 92.973 -82.7216
26.753053 93.029 -83.3985
26.946917 93.093 -84.0938
27.142185 93.163 -84.8021
27.338869 93.238 -85.5156
27.536977 93.317 -86.2255
27.736522 93.398 -86.9227
27.937512 93.481 -87.5986
28.139959 93.564 -88.2464
28.343872 93.647 -88.8618
28.549264 93.729 -89.4425
28.756143 93.808 -89.9886
28.964522 93.882 -90.5017
29.174411 93.952 -90.9844
29.385821 94.015 -91.4396
29.598763 94.071 -91.8704
29.813248 94.119 -92.2797
30.029287 94.159 -92.6712
30.246891 94.192 -93.0493
30.466073 94.218 -93.4200
30.686842 94.240 -93.7909
30.909212 94.258 -94.1712
31.133193 94.276 -94.5705
31.358797 94.294 -94.9982
31.586035 94.314 -95.4617
31.814921 94.338 -95.9654
32.045465 94.367 -96.5095
32.277680 94.400 -97.0899
32.511577 94.439 -97.6986
32.747169 94.485 -98.3248
32.984469 94.536 -98.9562
33.223488 94.594 -99.5811
33.464239 94.658 -100.1896
33.706735 94.728 -100.7747
33.950987 94.801 -101.3329
34.197010 94.878 -101.8644
34.444816 94.956 -102.3720
34.694417 95.033 -102.8606
34.945827 95.108 -103.3363
35.199059 95.179 -103.8052
35.454126 95.244 -104.2731
35.711041 95.302 -104.7450
35.969818 95.354 -105.2245
36.230470 95.399 -105.7136
36.493011 95.437 -106.2131
36.757455 95.469 -106.7216
37.023814 95.495 -107.2369
37.292104 95.516 -107.7555
37.562338 95.534 -108.2733
37.834530 95.548 -108.7872
38.108695 95.561 -109.2947
38.384846 95.572 -109.7953
38.662999 95.582 -110.2901
38.943167 95.592 -110.7817
39.225365 95.601 -111.2732
39.509608 95.610 -111.7674
39.795911 95.618 -112.2660
40.084289 95.624 -112.7689
40.374756 95.630 -113.2747
40.667328 95.633 -113.7806
40.962020 95.636 -114.2834
41.258848 95.637 -114.7800
41.557827 95.637 -115.2682
41.858972 95.636 -115.7466
42.162299 95.635 -116.2149
42.467824 95.635 -116.6736
42.775564 95.635 -117.1239
43.085533 95.636 -117.5678
43.397749 95.639 -118.0071
43.712227 95.643 -118.4443
44.028983 95.650 -118.8809
44.348036 95.658 -119.3178
44.669400 95.669 -119.7549
44.993093 95.683 -120.1909
45.319131 95.699 -120.6241
45.647532 95.717 -121.0530
45.978313 95.738 -121.4766
46.311491 95.762 -121.8952
46.647083 95.789 -122.3097
46.985107 95.818 -122.7215
47.325581 95.849 -123.1316
47.668521 95.882 -123.5402
48.013947 95.917 -123.9472
48.361876 95.954 -124.3520
48.712326 95.992 -124.7548
49.065315 96.032 -125.1563
49.420863 96.073 -125.5583
49.778987 96.115 -125.9625
50.139706 96.158 -126.3702
50.503039 96.200 -126.7814
50.869005 96.242 -127.1943
51.237623 96.282 -127.6058
51.608912 96.321 -128.0116
51.982891 96.359 -128.4077
52.359580 96.395 -128.7908
52.739000 96.431 -129.1592
53.121168 96.466 -129.5132
53.506106 96.501 -129.8546
53.893833 96.536 -130.1864
54.284370 96.571 -130.5121
54.677737 96.605 -130.8347
55.073955 96.637 -131.1567
55.473043 96.668 -131.4792
55.875024 96.698 -131.8019
56.279917 96.727 -132.1241
56.687745 96.755 -132.4445
57.098527 96.782 -132.7621
57.512287 96.808 -133.0775
57.929045 96.834 -133.3930
58.348822 96.861 -133.7136
58.771642 96.889 -134.0468
59.197525 96.919 -134.4008
59.626495 96.950 -134.7831
60.058573 96.982 -135.1983
60.493782 97.015 -135.6464
60.932145 97.048 -136.1233
61.373685 97.082 -136.6219
61.818424 97.115 -137.1339
62.266386 97.148 -137.6515
62.717593 97.181 -138.1689
63.172071 97.212 -138.6821
63.629842 97.242 -139.1890
64.090930 97.270 -139.6889
64.555359 97.296 -140.1818
65.023154 97.320 -140.6682
65.494339 97.342 -141.1482
65.968938 97.362 -141.6219
66.446976 97.379 -142.0890
66.928478 97.394 -142.5497
67.413469 97.408 -143.0042
67.901975 97.420 -143.4535
68.394021 97.432 -143.8985
68.889632 97.443 -144.3404
69.388835 97.454 -144.7798
69.891655 97.466 -145.2167
70.398118 97.478 -145.6509
70.908252 97.490 -146.0821
71.422083 97.504 -146.5095
71.939636 97.517 -146.9327
72.460941 97.531 -147.3511
72.986023 97.544 -147.7644
73.514909 97.558 -148.1724
74.047629 97.571 -148.5755
74.584208 97.583 -148.9741
75.124676 97.596 -149.3690
75.669061 97.608 -149.7612
76.217390 97.620 -150.1515
76.769692 97.632 -150.5409
77.325997 97.644 -150.9300
77.886333 97.656 -151.3193
78.450730 97.668 -151.7089
79.019216 97.679 -152.0989
79.591822 97.690 -152.4891
80.168577 97.700 -152.8792
80.749512 97.710 -153.2686
81.334656 97.719 -153.6570
81.924040 97.728 -154.0444
82.517696 97.736 -154.4307
83.115653 97.744 -154.8161
83.717943 97.752 -155.2004
84.324598 97.760 -155.5832
84.935649 97.767 -155.9636
85.551128 97.776 -156.3406
86.171066 97.784 -156.7132
86.795497 97.793 -157.0809
87.424453 97.803 -157.4438
88.057967 97.814 -157.8028
88.696071 97.826 -158.1588
89.338800 97.840 -158.5132
89.986185 97.855 -158.8671
90.638262 97.872 -159.2214
91.295065 97.890 -159.5767
91.956626 97.910 -159.9334
92.622982 97.931 -160.2917
93.294166 97.952 -160.6516
93.970214 97.972 -161.0132
94.651161 97.991 -161.3766
95.337042 98.009 -161.7416
96.027894 98.023 -162.1080
96.723752 98.036 -162.4752
97.424652 98.044 -162.8426
98.130631 98.050 -163.2094
98.841726 98.053 -163.5748
99.557974 98.054 -163.9382
100.279412 98.052 -164.2991
101.006078 98.049 -164.6572
101.738010 98.045 -165.0127
102.475245 98.041 -165.3661
103.217823 98.037 -165.7180
103.965782 98.034 -166.0692
104.719161 98.031 -166.4202
105.477999 98.030 -166.7717
106.242336 98.030 -167.1236
107.012212 98.030 -167.4760
107.787666 98.032 -167.8282
108.568740 98.036 -168.1799
109.355474 98.040 -168.5307
110.147909 98.046 -168.8806
110.946086 98.052 -169.2300
111.750047 98.059 -169.5792
112.559834 98.067 -169.9285
113.375489 98.074 -170.2778
114.197055 98.081 -170.6270
115.024574 98.088 -170.9759
115.858089 98.093 -171.3240
116.697645 98.098 -171.6714
117.543284 98.101 -172.0177
118.395051 98.102 -172.3628
119.252990 98.102 -172.7064
120.117147 98.101 -173.0482
120.987565 98.099 -173.3880
121.864291 98.096 -173.7260
122.747370 98.092 -174.0627
123.636848 98.089 -174.3987
124.532771 98.085 -174.7345
125.435187 98.082 -175.0703
126.344142 98.080 -175.4061
127.259684 98.079 -175.7416
128.181860 98.079 -176.0768
129.110718 98.081 -176.4114
130.046308 98.083 -176.7453
130.988677 98.087 -177.0786
131.937875 98.091 -177.4109
132.893951 98.096 -177.7419
133.856956 98.101 -178.0708
134.826938 98.107 -178.3967
135.803950 98.112 -178.7187
136.788041 98.117 -179.0363
137.779264 98.121 -179.3497
138.777669 98.123 -179.6594
139.783309 98.124 -179.9660
140.796237 98.123 179.7295
141.816504 98.119 179.4264
142.844165 98.113 179.1241
143.879273 98.104 178.8220
144.921881 98.094 178.5195
145.972045 98.082 178.2164
147.029819 98.068 177.9124
148.095257 98.054 177.6074
149.168417 98.040 177.3015
150.249353 98.025 176.9950
151.338121 98.012 176.6882
152.434780 98.000 176.3817
153.539385 97.988 176.0756
154.651995 97.979 175.7706
155.772667 97.970 175.4669
156.901460 97.963 175.1646
158.038432 97.956 174.8640
159.183644 97.951 174.5652
160.337154 97.946 174.2684
161.499023 97.942 173.9733
162.669312 97.938 173.6799
163.848081 97.934 173.3878
165.035392 97.930 173.0967
166.231306 97.925 172.8061
167.435887 97.920 172.5160
168.649196 97.914 172.2263
169.871298 97.907 171.9371
171.102255 97.900 171.6486
172.342133 97.891 171.3610
173.590995 97.882 171.0746
174.848907 97.871 170.7899
176.115934 97.860 170.5068
177.392143 97.847 170.2253
178.677599 97.833 169.9453
179.972371 97.819 169.6663
181.276525 97.803 169.3878
182.590129 97.786 169.1097
183.913252 97.768 168.8318
185.245964 97.748 168.5541
186.588332 97.727 168.2773
187.940428 97.703 168.0015
189.302322 97.678 167.7271
190.674085 97.650 167.4545
192.055788 97.620 167.1836
193.447503 97.588 166.9144
194.849303 97.554 166.6470
196.261262 97.517 166.3813
197.683452 97.479 166.1174
199.115948 97.439 165.8551
200.558824 97.398 165.5941
202.012156 97.355 165.3338
203.476019 97.313 165.0739
204.950490 97.270 164.8139
206.435646 97.229 164.5539
207.931564 97.188 164.2942
209.438322 97.150 164.0350
210.955998 97.114 163.7768
212.484672 97.081 163.5197
214.024424 97.051 163.2636
215.575333 97.026 163.0088
217.137481 97.005 162.7553
218.710948 96.988 162.5034
220.295818 96.976 162.2532
221.892172 96.968 162.0051
223.500094 96.963 161.7589
225.119668 96.963 161.5148
226.750978 96.966 161.2727
228.394109 96.972 161.0325
230.049147 96.980 160.7944
231.716178 96.989 160.5583
233.395289 97.001 160.3245
235.086567 97.013 160.0930
236.790102 97.025 159.8640
238.505980 97.038 159.6376
240.234293 97.051 159.4138
241.975130 97.064 159.1932
243.728581 97.075 158.9759
245.494739 97.086 158.7625
247.273695 97.096 158.5535
249.065542 97.104 158.3495
250.870374 97.111 158.1509
252.688284 97.117 157.9585
254.519367 97.121 157.7727
256.363720 97.125 157.5941
258.221437 97.128 157.4233
260.092616 97.130 157.2604
261.977354 97.132 157.1055
263.875750 97.135 156.9580
265.787903 97.137 156.8172
267.713911 97.139 156.6814
269.653877 97.141 156.5487
271.607900 97.141 156.4167
273.576083 97.140 156.2829
275.558528 97.136 156.1450
277.555338 97.130 156.0015
279.566619 97.121 155.8512
281.592474 97.108 155.6940
283.633009 97.090 155.5302
285.688331 97.069 155.3605
287.758546 97.043 155.1861
289.843763 97.013 155.0081
291.944090 96.979 154.8279
294.059638 96.940 154.6468
296.190515 96.897 154.4656
298.336833 96.851 154.2852
300.498705 96.803 154.1057
302.676243 96.751 153.9275
304.869559 96.699 153.7504
307.078770 96.645 153.5743
309.303989 96.592 153.3990
311.545334 96.539 153.2239
313.802919 96.488 153.0487
316.076865 96.438 152.8730
318.367288 96.392 152.6967
320.674309 96.348 152.5197
322.998047 96.309 152.3423
325.338624 96.273 152.1648
327.696162 96.243 151.9877
330.070783 96.217 151.8116
332.462612 96.196 151.6370
334.871773 96.181 151.4644
337.298392 96.171 151.2938
339.742595 96.166 151.1252
342.204510 96.167 150.9580
344.684265 96.172 150.7915
347.181989 96.182 150.6250
349.697813 96.196 150.4578
352.231868 96.212 150.2894
354.784285 96.230 150.1201
357.355198 96.250 149.9507
359.944741 96.269 149.7826
362.553049 96.287 149.6175
365.180258 96.304 149.4565
367.826505 96.319 149.3004
370.491927 96.330 149.1490
373.176665 96.337 149.0022
375.880856 96.339 148.8589
378.604644 96.337 148.7186
381.348169 96.329 148.5800
384.111575 96.316 148.4427
386.895006 96.299 148.3058
389.698607 96.277 148.1689
392.522524 96.251 148.0317
395.366904 96.223 147.8940
398.231895 96.193 147.7557
401.117648 96.162 147.6168
404.024312 96.132 147.4776
406.952038 96.104 147.3383
409.900981 96.078 147.1995
412.871292 96.056 147.0612
415.863128 96.037 146.9239
418.876643 96.023 146.7876
421.911996 96.014 146.6522
424.969344 96.009 146.5175
428.048847 96.008 146.3830
431.150666 96.011 146.2482
434.274961 96.016 146.1126
437.421897 96.022 145.9757
440.591636 96.029 145.8372
443.784345 96.036 145.6971
447.000189 96.041 145.5554
450.239337 96.043 145.4129
453.501956 96.043 145.2703
456.788219 96.040 145.1288
460.098294 96.035 144.9893
463.432356 96.026 144.8524
466.790578 96.015 144.7186
470.173135 96.003 144.5876
473.580203 95.989 144.4588
477.011961 95.973 144.3316
480.468586 95.957 144.2053
483.950259 95.940 144.0792
487.457163 95.922 143.9531
490.989478 95.905 143.8268
494.547390 95.888 143.7007
498.131084 95.873 143.5750
501.740748 95.859 143.4497
505.376568 95.848 143.3252
509.038735 95.840 143.2015
512.727439 95.837 143.0787
516.442874 95.840 142.9568
520.185232 95.848 142.8357
523.954708 95.863 142.7151
527.751500 95.884 142.5949
531.575805 95.912 142.4749
535.427822 95.945 142.3550
539.307753 95.983 142.2350
543.215800 96.025 142.1147
547.152165 96.068 141.9942
551.117055 96.113 141.8734
555.110677 96.156 141.7523
559.133237 96.196 141.6312
563.184947 96.233 141.5102
567.266018 96.264 141.3896
571.376661 96.288 141.2697
575.517092 96.306 141.1508
579.687526 96.315 141.0331
583.888181 96.314 140.9167
588.119275 96.305 140.8013
592.381030 96.286 140.6868
596.673667 96.257 140.5726
600.997410 96.218 140.4584
605.352485 96.169 140.3438
609.739119 96.112 140.2286
614.157540 96.048 140.1127
618.607979 95.977 139.9963
623.090667 95.901 139.8794
627.605839 95.823 139.7623
632.153730 95.743 139.6455
636.734576 95.664 139.5292
641.348617 95.589 139.4138
645.996094 95.517 139.2992
650.677248 95.451 139.1854
655.392323 95.393 139.0720
660.141566 95.342 138.9583
664.925224 95.300 138.8436
669.743546 95.267 138.7271
674.596784 95.243 138.6076
679.485191 95.229 138.4846
684.409020 95.224 138.3576
689.368530 95.227 138.2263
694.363979 95.238 138.0909
699.395626 95.257 137.9518
704.463736 95.282 137.8096
709.568570 95.312 137.6649
714.710396 95.346 137.5179
719.889483 95.382 137.3690
725.106099 95.419 137.2176
730.360516 95.456 137.0630
735.653010 95.490 136.9042
740.983855 95.521 136.7398
746.353329 95.548 136.5685
751.761713 95.571 136.3892
757.209288 95.588 136.2007
762.696339 95.601 136.0029
768.223151 95.608 135.7961
773.790013 95.609 135.5822
779.397214 95.604 135.3643
785.045047 95.592 135.1471
790.733808 95.574 134.9369
796.463791 95.547 134.7417
802.235296 95.511 134.5709
808.048623 95.466 134.4345
813.904077 95.413 134.3423
819.801961 95.351 134.3019
825.742584 95.283 134.3174
831.726255 95.211 134.3861
837.753287 95.138 134.4986
843.823992 95.068 134.6386
849.938689 95.002 134.7863
856.097695 94.944 134.9216
862.301332 94.895 135.0282
868.549922 94.855 135.0949
874.843793 94.825 135.1162
881.183272 94.805 135.0916
887.568689 94.796 135.0237
894.000378 94.797 134.9173
900.478673 94.808 134.7777
907.003913 94.828 134.6101
913.576437 94.856 134.4193
920.196588 94.891 134.2094
926.864712 94.932 133.9837
933.581156 94.977 133.7453
940.346270 95.023 133.4966
947.160407 95.070 133.2401
954.023921 95.116 132.9782
960.937172 95.159 132.7135
967.900519 95.198 132.4489
974.914325 95.232 132.1873
981.978956 95.262 131.9321
989.094780 95.286 131.6866
996.262169 95.306 131.4539
1003.481495 95.322 131.2360
1010.753136 95.336 131.0339
1018.077470 95.350 130.8469
1025.454879 95.365 130.6732
1032.885748 95.384 130.5097
1040.370463 95.406 130.3530
1047.909417 95.434 130.1996
1055.503000 95.468 130.0463
1063.151610 95.508 129.8907
1070.855645 95.553 129.7314
1078.615506 95.603 129.5677
1086.431599 95.657 129.3991
1094.304330 95.714 129.2256
1102.234110 95.771 129.0466
1110.221353 95.828 128.8615
1118.266475 95.882 128.6694
1126.369895 95.931 128.4697
1134.532035 95.975 128.2621
1142.753322 96.013 128.0472
1151.034184 96.044 127.8264
1159.375052 96.068 127.6016
1167.776361 96.085 127.3754
1176.238550 96.097 127.1509
1184.762060 96.105 126.9312
1193.347334 96.111 126.7189
1201.994821 96.116 126.5162
1210.704971 96.123 126.3239
1219.478238 96.133 126.1412
1228.315080 96.148 125.9665
1237.215957 96.168 125.7967
1246.181334 96.194 125.6285
1255.211678 96.226 125.4591
1264.307459 96.264 125.2862
1273.469152 96.306 125.1088
1282.697235 96.351 124.9268
1291.992188 96.399 124.7409
1301.354495 96.448 124.5523
1310.784647 96.497 124.3628
1320.283132 96.545 124.1738
1329.850448 96.590 123.9871
1339.487093 96.633 123.8043
1349.193569 96.672 123.6269
1358.970381 96.707 123.4566
1368.818041 96.738 123.2952
1378.737061 96.763 123.1444
1388.727958 96.783 123.0057
1398.791253 96.799 122.8806
1408.927471 96.810 122.7697
1419.137140 96.817 122.6732
1429.420793 96.821 122.5906
1439.778965 96.821 122.5211
1450.212197 96.819 122.4636
1460.721033 96.814 122.4174
1471.306019 96.807 122.3815
1481.967709 96.798 122.3549
1492.706658 96.787 122.3362
1503.523426 96.774 122.3240
1514.418576 96.759 122.3169
1525.392678 96.741 122.3142
1536.446302 96.719 122.3160
1547.580025 96.694 122.3236
1558.794428 96.664 122.3389
1570.090095 96.631 122.3643
1581.467615 96.595 122.4020
1592.927581 96.556 122.4536
1604.470591 96.515 122.5203
1616.097246 96.474 122.6023
1627.808153 96.433 122.6996
1639.603922 96.392 122.8120
1651.485168 96.352 122.9391
1663.452510 96.314 123.0804
1675.506573 96.278 123.2352
1687.647984 96.243 123.4027
1699.877377 96.211 123.5818
1712.195390 96.181 123.7710
1724.602663 96.153 123.9685
1737.099845 96.128 124.1727
1749.687587 96.106 124.3817
1762.366544 96.087 124.5941
1775.137379 96.072 124.8088
1788.000756 96.062 125.0250
1800.957346 96.055 125.2420
1814.007826 96.054 125.4592
1827.152874 96.056 125.6761
1840.393177 96.062 125.8925
1853.729425 96.071 126.1082
1867.162312 96.083 126.3219
1880.692540 96.097 126.5317
1894.320813 96.111 126.7351
1908.047843 96.126 126.9293
1921.874344 96.141 127.1118
1935.801038 96.153 127.2814
1949.828650 96.164 127.4376
1963.957912 96.172 127.5815
1978.189561 96.177 127.7148
1992.524338 96.180 127.8403
2006.962991 96.182 127.9601
2021.506272 96.182 128.0759
2036.154940 96.183 128.1881
2050.909758 96.185 128.2966
2065.771495 96.189 128.4006
2080.740927 96.196 128.4990
2095.818833 96.206 128.5904
2111.006001 96.221 128.6742
2126.303220 96.239 128.7503
2141.711290 96.262 128.8199
2157.231013 96.289 128.8850
2172.863198 96.321 128.9482
2188.608660 96.359 129.0115
2204.468221 96.402 129.0758
2220.442706 96.452 129.1412
2236.532950 96.509 129.2073
2252.739789 96.573 129.2737
2269.064070 96.644 129.3402
2285.506644 96.722 129.4066
2302.068367 96.806 129.4730
2318.750104 96.897 129.5396
2335.552723 96.994 129.6068
2352.477101 97.097 129.6749
2369.524119 97.204 129.7438
2386.694668 97.316 129.8134
2403.989641 97.430 129.8823
2421.409941 97.547 129.9494
2438.956476 97.665 130.0135
2456.630160 97.782 130.0737
2474.431915 97.899 130.1292
2492.362668 98.014 130.1796
2510.423356 98.125 130.2245
2528.614918 98.232 130.2641
2546.938304 98.334 130.2986
2565.394469 98.431 130.3291
2583.984375 98.521 130.3567
2602.708991 98.604 130.3825
2621.569293 98.679 130.4077
2640.566265 98.748 130.4332
2659.700897 98.808 130.4601
2678.974186 98.861 130.4891
2698.387137 98.907 130.5210
2717.940763 98.945 130.5565
2737.636082 98.976 130.5963
2757.474121 99.000 130.6409
2777.455915 99.017 130.6916
2797.582506 99.029 130.7496
2817.854942 99.034 130.8172
2838.274281 99.034 130.8967
2858.841586 99.029 130.9901
2879.557931 99.020 131.0990
2900.424394 99.009 131.2233
2921.442065 98.996 131.3613
2942.612039 98.982 131.5101
2963.935418 98.967 131.6648
2985.413316 98.954 131.8198
3007.046852 98.942 131.9685
3028.837153 98.931 132.1045
3050.785356 98.922 132.2223
3072.892604 98.914 132.3180
3095.160050 98.907 132.3891
3117.588856 98.900 132.4346
3140.180190 98.893 132.4547
3162.935230 98.885 132.4509
3185.855163 98.876 132.4254
3208.941182 98.866 132.3810
3232.194493 98.854 132.3212
3255.616307 98.841 132.2498
3279.207844 98.826 132.1709
3302.970336 98.810 132.0886
3326.905021 98.793 132.0065
3351.013146 98.776 131.9279
3375.295969 98.759 131.8559
3399.754755 98.743 131.7933
3424.390779 98.728 131.7429
3449.205326 98.715 131.7073
3474.199690 98.703 131.6891
3499.375173 98.694 131.6909
3524.733088 98.688 131.7152
