* Measurement data measured by REW V5.31.3
* Source: EXCL: Headset (USB-C to 3.5mm Headphone Jack Adapter), MICROPHONE (Master Volume), 0, volume: 0.260
* Format: 256k Log Swept Sine, 1 sweep at -12.0 dBFS with no timing reference
* Dated: Mar 17, 2025 12:37:19 PM
* REW Settings:
*  C-weighting compensation: Off
*  Target level: 75.0 dB
* Note: ; 
* Measurement: HD650 (Geekria) L3
* Smoothing: 1/6 octave
* Frequency Step: 96 ppo
* Start Frequency: 20.0 Hz
*
* Freq(Hz) SPL(dB) Phase(degrees)
20.187378 91.304 -61.8193
20.333664 91.302 -62.0144
20.481010 91.299 -62.2758
20.629424 91.297 -62.5961
20.778913 91.294 -62.9676
20.929486 91.294 -63.3827
21.081150 91.295 -63.8345
21.233912 91.298 -64.3171
21.387782 91.305 -64.8253
21.542767 91.316 -65.3548
21.698874 91.331 -65.9014
21.856113 91.351 -66.4615
22.014492 91.375 -67.0315
22.174018 91.404 -67.6077
22.334700 91.438 -68.1863
22.496546 91.476 -68.7634
22.659566 91.518 -69.3348
22.823766 91.563 -69.8965
22.989157 91.611 -70.4447
23.155745 91.661 -70.9757
23.323542 91.713 -71.4862
23.492554 91.766 -71.9734
23.662790 91.820 -72.4352
23.834261 91.873 -72.8700
24.006973 91.926 -73.2773
24.180938 91.978 -73.6574
24.356163 92.029 -74.0115
24.532658 92.079 -74.3423
24.710431 92.127 -74.6533
24.889493 92.174 -74.9496
25.069853 92.221 -75.2376
25.251519 92.266 -75.5245
25.434502 92.311 -75.8188
25.618811 92.355 -76.1293
25.804456 92.400 -76.4649
25.991445 92.444 -76.8337
26.179790 92.489 -77.2429
26.369500 92.533 -77.6978
26.560584 92.578 -78.2014
26.753053 92.623 -78.7540
26.946917 92.668 -79.3536
27.142185 92.714 -79.9953
27.338869 92.760 -80.6721
27.536977 92.808 -81.3752
27.736522 92.858 -82.0947
27.937512 92.910 -82.8205
28.139959 92.963 -83.5423
28.343872 93.018 -84.2509
28.549264 93.074 -84.9383
28.756143 93.131 -85.5984
28.964522 93.188 -86.2267
29.174411 93.245 -86.8210
29.385821 93.300 -87.3810
29.598763 93.353 -87.9086
29.813248 93.404 -88.4073
30.029287 93.452 -88.8822
30.246891 93.499 -89.3394
30.466073 93.544 -89.7853
30.686842 93.587 -90.2261
30.909212 93.630 -90.6672
31.133193 93.673 -91.1121
31.358797 93.717 -91.5625
31.586035 93.762 -92.0181
31.814921 93.809 -92.4769
32.045465 93.859 -92.9356
32.277680 93.913 -93.3907
32.511577 93.971 -93.8389
32.747169 94.034 -94.2782
32.984469 94.100 -94.7081
33.223488 94.171 -95.1296
33.464239 94.245 -95.5450
33.706735 94.322 -95.9576
33.950987 94.398 -96.3709
34.197010 94.474 -96.7886
34.444816 94.547 -97.2137
34.694417 94.618 -97.6485
34.945827 94.683 -98.0951
35.199059 94.744 -98.5547
35.454126 94.799 -99.0282
35.711041 94.848 -99.5158
35.969818 94.892 -100.0171
36.230470 94.931 -100.5309
36.493011 94.964 -101.0550
36.757455 94.992 -101.5867
37.023814 95.015 -102.1226
37.292104 95.034 -102.6592
37.562338 95.049 -103.1933
37.834530 95.061 -103.7220
38.108695 95.070 -104.2433
38.384846 95.076 -104.7556
38.662999 95.080 -105.2581
38.943167 95.083 -105.7505
39.225365 95.085 -106.2326
39.509608 95.087 -106.7048
39.795911 95.090 -107.1675
40.084289 95.094 -107.6213
40.374756 95.099 -108.0669
40.667328 95.106 -108.5052
40.962020 95.114 -108.9369
41.258848 95.124 -109.3626
41.557827 95.135 -109.7831
41.858972 95.146 -110.1989
42.162299 95.157 -110.6111
42.467824 95.168 -111.0210
42.775564 95.179 -111.4301
43.085533 95.190 -111.8406
43.397749 95.201 -112.2543
43.712227 95.212 -112.6726
44.028983 95.223 -113.0961
44.348036 95.235 -113.5239
44.669400 95.248 -113.9539
44.993093 95.261 -114.3828
45.319131 95.276 -114.8072
45.647532 95.292 -115.2242
45.978313 95.310 -115.6319
46.311491 95.329 -116.0302
46.647083 95.352 -116.4208
46.985107 95.378 -116.8062
47.325581 95.407 -117.1897
47.668521 95.440 -117.5735
48.013947 95.475 -117.9587
48.361876 95.512 -118.3450
48.712326 95.550 -118.7304
49.065315 95.589 -119.1128
49.420863 95.626 -119.4901
49.778987 95.663 -119.8613
50.139706 95.699 -120.2268
50.503039 95.734 -120.5882
50.869005 95.768 -120.9480
51.237623 95.801 -121.3087
51.608912 95.836 -121.6720
51.982891 95.870 -122.0389
52.359580 95.906 -122.4091
52.739000 95.942 -122.7813
53.121168 95.979 -123.1534
53.506106 96.015 -123.5233
53.893833 96.049 -123.8891
54.284370 96.082 -124.2498
54.677737 96.112 -124.6053
55.073955 96.140 -124.9561
55.473043 96.165 -125.3024
55.875024 96.187 -125.6443
56.279917 96.206 -125.9816
56.687745 96.221 -126.3140
57.098527 96.233 -126.6424
57.512287 96.243 -126.9686
57.929045 96.251 -127.2957
58.348822 96.258 -127.6274
58.771642 96.268 -127.9673
59.197525 96.281 -128.3185
59.626495 96.299 -128.6828
60.058573 96.324 -129.0609
60.493782 96.357 -129.4517
60.932145 96.396 -129.8524
61.373685 96.440 -130.2591
61.818424 96.488 -130.6678
62.266386 96.538 -131.0753
62.717593 96.586 -131.4805
63.172071 96.633 -131.8836
63.629842 96.677 -132.2857
64.090930 96.717 -132.6878
64.555359 96.753 -133.0904
65.023154 96.786 -133.4929
65.494339 96.814 -133.8950
65.968938 96.840 -134.2961
66.446976 96.863 -134.6965
66.928478 96.883 -135.0968
67.413469 96.902 -135.4975
67.901975 96.920 -135.8992
68.394021 96.936 -136.3014
68.889632 96.952 -136.7032
69.388835 96.967 -137.1031
69.891655 96.982 -137.4994
70.398118 96.996 -137.8906
70.908252 97.010 -138.2758
71.422083 97.023 -138.6548
71.939636 97.037 -139.0284
72.460941 97.050 -139.3976
72.986023 97.064 -139.7637
73.514909 97.078 -140.1275
74.047629 97.092 -140.4898
74.584208 97.106 -140.8506
75.124676 97.121 -141.2104
75.669061 97.136 -141.5693
76.217390 97.151 -141.9276
76.769692 97.165 -142.2855
77.325997 97.180 -142.6432
77.886333 97.194 -143.0008
78.450730 97.207 -143.3584
79.019216 97.220 -143.7158
79.591822 97.233 -144.0732
80.168577 97.244 -144.4304
80.749512 97.255 -144.7871
81.334656 97.265 -145.1432
81.924040 97.275 -145.4987
82.517696 97.284 -145.8537
83.115653 97.293 -146.2086
83.717943 97.302 -146.5636
84.324598 97.310 -146.9187
84.935649 97.319 -147.2736
85.551128 97.328 -147.6279
86.171066 97.337 -147.9811
86.795497 97.347 -148.3326
87.424453 97.357 -148.6820
88.057967 97.369 -149.0292
88.696071 97.381 -149.3737
89.338800 97.395 -149.7151
89.986185 97.409 -150.0529
90.638262 97.424 -150.3864
91.295065 97.439 -150.7158
91.956626 97.455 -151.0414
92.622982 97.472 -151.3638
93.294166 97.489 -151.6836
93.970214 97.505 -152.0010
94.651161 97.520 -152.3164
95.337042 97.535 -152.6298
96.027894 97.547 -152.9416
96.723752 97.558 -153.2523
97.424652 97.566 -153.5622
98.130631 97.572 -153.8718
98.841726 97.575 -154.1815
99.557974 97.575 -154.4914
100.279412 97.574 -154.8016
101.006078 97.572 -155.1119
101.738010 97.568 -155.4217
102.475245 97.563 -155.7302
103.217823 97.559 -156.0367
103.965782 97.554 -156.3403
104.719161 97.551 -156.6407
105.477999 97.548 -156.9379
106.242336 97.546 -157.2322
107.012212 97.545 -157.5241
107.787666 97.546 -157.8146
108.568740 97.549 -158.1044
109.355474 97.553 -158.3944
110.147909 97.558 -158.6851
110.946086 97.564 -158.9769
111.750047 97.570 -159.2698
112.559834 97.577 -159.5641
113.375489 97.584 -159.8595
114.197055 97.590 -160.1557
115.024574 97.596 -160.4523
115.858089 97.600 -160.7487
116.697645 97.603 -161.0447
117.543284 97.605 -161.3400
118.395051 97.606 -161.6347
119.252990 97.605 -161.9289
120.117147 97.604 -162.2225
120.987565 97.601 -162.5151
121.864291 97.599 -162.8060
122.747370 97.595 -163.0940
123.636848 97.592 -163.3782
124.532771 97.589 -163.6580
125.435187 97.587 -163.9330
126.344142 97.586 -164.2033
127.259684 97.585 -164.4695
128.181860 97.586 -164.7324
129.110718 97.588 -164.9931
130.046308 97.592 -165.2528
130.988677 97.596 -165.5129
131.937875 97.601 -165.7743
132.893951 97.607 -166.0380
133.856956 97.613 -166.3042
134.826938 97.618 -166.5725
135.803950 97.623 -166.8419
136.788041 97.627 -167.1110
137.779264 97.630 -167.3786
138.777669 97.632 -167.6436
139.783309 97.631 -167.9054
140.796237 97.629 -168.1637
141.816504 97.624 -168.4184
142.844165 97.618 -168.6696
143.879273 97.609 -168.9178
144.921881 97.598 -169.1635
145.972045 97.586 -169.4074
147.029819 97.573 -169.6500
148.095257 97.559 -169.8919
149.168417 97.546 -170.1334
150.249353 97.532 -170.3746
151.338121 97.519 -170.6151
152.434780 97.507 -170.8546
153.539385 97.496 -171.0927
154.651995 97.487 -171.3293
155.772667 97.478 -171.5643
156.901460 97.471 -171.7978
158.038432 97.464 -172.0294
159.183644 97.458 -172.2590
160.337154 97.452 -172.4860
161.499023 97.446 -172.7104
162.669312 97.440 -172.9323
163.848081 97.433 -173.1524
165.035392 97.427 -173.3716
166.231306 97.420 -173.5903
167.435887 97.413 -173.8091
168.649196 97.405 -174.0276
169.871298 97.397 -174.2456
171.102255 97.388 -174.4624
172.342133 97.378 -174.6776
173.590995 97.368 -174.8910
174.848907 97.357 -175.1025
176.115934 97.344 -175.3127
177.392143 97.331 -175.5222
178.677599 97.317 -175.7318
179.972371 97.301 -175.9420
181.276525 97.284 -176.1529
182.590129 97.266 -176.3644
183.913252 97.247 -176.5757
185.245964 97.226 -176.7863
186.588332 97.203 -176.9952
187.940428 97.179 -177.2021
189.302322 97.153 -177.4067
190.674085 97.125 -177.6092
192.055788 97.095 -177.8101
193.447503 97.063 -178.0100
194.849303 97.029 -178.2095
196.261262 96.993 -178.4090
197.683452 96.955 -178.6085
199.115948 96.915 -178.8072
200.558824 96.874 -179.0041
202.012156 96.832 -179.1979
203.476019 96.789 -179.3875
204.950490 96.747 -179.5725
206.435646 96.705 -179.7530
207.931564 96.665 -179.9297
209.438322 96.626 179.8964
210.955998 96.590 179.7243
212.484672 96.557 179.5531
214.024424 96.527 179.3822
215.575333 96.502 179.2115
217.137481 96.481 179.0411
218.710948 96.465 178.8714
220.295818 96.453 178.7027
221.892172 96.446 178.5353
223.500094 96.442 178.3696
225.119668 96.442 178.2059
226.750978 96.445 178.0447
228.394109 96.451 177.8864
230.049147 96.458 177.7311
231.716178 96.466 177.5796
233.395289 96.476 177.4321
235.086567 96.486 177.2893
236.790102 96.496 177.1517
238.505980 96.507 177.0197
240.234293 96.518 176.8931
241.975130 96.529 176.7723
243.728581 96.539 176.6576
245.494739 96.549 176.5493
247.273695 96.558 176.4479
249.065542 96.566 176.3534
250.870374 96.573 176.2656
252.688284 96.578 176.1837
254.519367 96.583 176.1068
256.363720 96.586 176.0342
258.221437 96.589 175.9652
260.092616 96.592 175.8994
261.977354 96.594 175.8369
263.875750 96.596 175.7777
265.787903 96.599 175.7218
267.713911 96.601 175.6691
269.653877 96.603 175.6188
271.607900 96.604 175.5703
273.576083 96.603 175.5221
275.558528 96.600 175.4731
277.555338 96.594 175.4218
279.566619 96.584 175.3667
281.592474 96.571 175.3074
283.633009 96.553 175.2436
285.688331 96.531 175.1755
287.758546 96.505 175.1039
289.843763 96.475 175.0297
291.944090 96.441 174.9534
294.059638 96.403 174.8759
296.190515 96.361 174.7972
298.336833 96.316 174.7175
300.498705 96.268 174.6368
302.676243 96.218 174.5550
304.869559 96.166 174.4724
307.078770 96.113 174.3893
309.303989 96.060 174.3062
311.545334 96.008 174.2234
313.802919 95.957 174.1415
316.076865 95.908 174.0607
318.367288 95.862 173.9815
320.674309 95.819 173.9041
322.998047 95.780 173.8287
325.338624 95.746 173.7557
327.696162 95.715 173.6849
330.070783 95.689 173.6167
332.462612 95.668 173.5511
334.871773 95.652 173.4882
337.298392 95.640 173.4279
339.742595 95.634 173.3700
342.204510 95.632 173.3140
344.684265 95.635 173.2594
347.181989 95.642 173.2059
349.697813 95.653 173.1530
352.231868 95.667 173.1003
354.784285 95.684 173.0479
357.355198 95.703 172.9956
359.944741 95.723 172.9435
362.553049 95.743 172.8918
365.180258 95.761 172.8406
367.826505 95.777 172.7901
370.491927 95.790 172.7407
373.176665 95.798 172.6924
375.880856 95.802 172.6455
378.604644 95.799 172.5999
381.348169 95.792 172.5558
384.111575 95.779 172.5133
386.895006 95.761 172.4728
389.698607 95.739 172.4348
392.522524 95.713 172.3994
395.366904 95.684 172.3668
398.231895 95.653 172.3365
401.117648 95.622 172.3080
404.024312 95.591 172.2806
406.952038 95.562 172.2539
409.900981 95.536 172.2275
412.871292 95.513 172.2016
415.863128 95.494 172.1762
418.876643 95.480 172.1516
421.911996 95.470 172.1277
424.969344 95.465 172.1049
428.048847 95.463 172.0830
431.150666 95.465 172.0618
434.274961 95.469 172.0408
437.421897 95.474 172.0195
440.591636 95.480 171.9974
443.784345 95.485 171.9747
447.000189 95.490 171.9515
450.239337 95.492 171.9289
453.501956 95.492 171.9077
456.788219 95.489 171.8889
460.098294 95.483 171.8730
463.432356 95.475 171.8604
466.790578 95.464 171.8508
470.173135 95.452 171.8442
473.580203 95.438 171.8401
477.011961 95.423 171.8380
480.468586 95.406 171.8377
483.950259 95.389 171.8387
487.457163 95.372 171.8411
490.989478 95.355 171.8447
494.547390 95.338 171.8496
498.131084 95.322 171.8558
501.740748 95.308 171.8635
505.376568 95.297 171.8725
509.038735 95.289 171.8831
512.727439 95.285 171.8953
516.442874 95.287 171.9091
520.185232 95.294 171.9246
523.954708 95.308 171.9418
527.751500 95.329 171.9609
531.575805 95.356 171.9818
535.427822 95.388 172.0045
539.307753 95.426 172.0288
543.215800 95.467 172.0546
547.152165 95.510 172.0815
551.117055 95.555 172.1091
555.110677 95.598 172.1373
559.133237 95.639 172.1659
563.184947 95.676 172.1947
567.266018 95.708 172.2236
571.376661 95.733 172.2524
575.517092 95.752 172.2811
579.687526 95.762 172.3097
583.888181 95.763 172.3381
588.119275 95.754 172.3664
592.381030 95.736 172.3947
596.673667 95.708 172.4228
600.997410 95.670 172.4508
605.352485 95.623 172.4785
609.739119 95.567 172.5059
614.157540 95.503 172.5330
618.607979 95.433 172.5599
623.090667 95.359 172.5867
627.605839 95.282 172.6138
632.153730 95.204 172.6414
636.734576 95.126 172.6695
641.348617 95.052 172.6982
645.996094 94.982 172.7273
650.677248 94.918 172.7563
655.392323 94.861 172.7848
660.141566 94.812 172.8124
664.925224 94.772 172.8384
669.743546 94.741 172.8624
674.596784 94.719 172.8838
679.485191 94.706 172.9023
684.409020 94.702 172.9177
689.368530 94.707 172.9299
694.363979 94.720 172.9390
699.395626 94.740 172.9454
704.463736 94.766 172.9495
709.568570 94.798 172.9515
714.710396 94.833 172.9515
719.889483 94.871 172.9494
725.106099 94.909 172.9448
730.360516 94.947 172.9366
735.653010 94.984 172.9237
740.983855 95.017 172.9047
746.353329 95.046 172.8781
751.761713 95.071 172.8423
757.209288 95.091 172.7965
762.696339 95.106 172.7400
768.223151 95.115 172.6732
773.790013 95.119 172.5977
779.397214 95.117 172.5164
785.045047 95.109 172.4340
790.733808 95.093 172.3568
796.463791 95.068 172.2932
802.235296 95.035 172.2527
808.048623 94.992 172.2458
813.904077 94.940 172.2829
819.801961 94.880 172.3725
825.742584 94.813 172.5193
831.726255 94.741 172.7219
837.753287 94.668 172.9712
843.823992 94.597 173.2514
849.938689 94.531 173.5425
856.097695 94.472 173.8239
862.301332 94.422 174.0785
868.549922 94.380 174.2943
874.843793 94.349 174.4651
881.183272 94.329 174.5901
887.568689 94.319 174.6718
894.000378 94.319 174.7150
900.478673 94.330 174.7254
907.003913 94.350 174.7085
913.576437 94.378 174.6692
920.196588 94.414 174.6117
926.864712 94.455 174.5394
933.581156 94.500 174.4549
940.346270 94.547 174.3605
947.160407 94.595 174.2584
954.023921 94.641 174.1508
960.937172 94.685 174.0403
967.900519 94.724 173.9297
974.914325 94.758 173.8224
981.978956 94.787 173.7217
989.094780 94.811 173.6317
996.262169 94.831 173.5555
1003.481495 94.847 173.4958
1010.753136 94.861 173.4536
1018.077470 94.875 173.4284
1025.454879 94.890 173.4182
1032.885748 94.909 173.4197
1040.370463 94.932 173.4289
1047.909417 94.960 173.4417
1055.503000 94.995 173.4546
1063.151610 95.036 173.4647
1070.855645 95.082 173.4705
1078.615506 95.133 173.4712
1086.431599 95.188 173.4666
1094.304330 95.245 173.4568
1102.234110 95.303 173.4418
1110.221353 95.360 173.4210
1118.266475 95.415 173.3934
1126.369895 95.466 173.3584
1134.532035 95.511 173.3154
1142.753322 95.550 173.2645
1151.034184 95.582 173.2067
1159.375052 95.608 173.1437
1167.776361 95.627 173.0781
1176.238550 95.641 173.0128
1184.762060 95.651 172.9514
1193.347334 95.659 172.8970
1201.994821 95.666 172.8523
1210.704971 95.675 172.8185
1219.478238 95.687 172.7955
1228.315080 95.703 172.7817
1237.215957 95.726 172.7740
1246.181334 95.754 172.7687
1255.211678 95.789 172.7623
1264.307459 95.830 172.7520
1273.469152 95.875 172.7360
1282.697235 95.924 172.7137
1291.992188 95.975 172.6854
1301.354495 96.028 172.6522
1310.784647 96.080 172.6156
1320.283132 96.131 172.5775
1329.850448 96.179 172.5399
1339.487093 96.225 172.5048
1349.193569 96.266 172.4744
1358.970381 96.303 172.4510
1368.818041 96.335 172.4368
1378.737061 96.361 172.4338
1388.727958 96.382 172.4439
1398.791253 96.399 172.4685
1408.927471 96.410 172.5085
1419.137140 96.418 172.5642
1429.420793 96.421 172.6351
1439.778965 96.422 172.7205
1450.212197 96.420 172.8195
1460.721033 96.416 172.9311
1471.306019 96.409 173.0543
1481.967709 96.401 173.1877
1492.706658 96.392 173.3297
1503.523426 96.381 173.4781
1514.418576 96.367 173.6310
1525.392678 96.352 173.7871
1536.446302 96.332 173.9460
1547.580025 96.310 174.1083
1558.794428 96.283 174.2759
1570.090095 96.253 174.4510
1581.467615 96.219 174.6363
1592.927581 96.183 174.8339
1604.470591 96.144 175.0454
1616.097246 96.104 175.2722
1627.808153 96.064 175.5150
1639.603922 96.025 175.7741
1651.485168 95.986 176.0500
1663.452510 95.949 176.3424
1675.506573 95.913 176.6508
1687.647984 95.880 176.9744
1699.877377 95.848 177.3118
1712.195390 95.819 177.6613
1724.602663 95.792 178.0207
1737.099845 95.769 178.3877
1749.687587 95.749 178.7601
1762.366544 95.733 179.1357
1775.137379 95.721 179.5129
1788.000756 95.713 179.8903
1800.957346 95.710 -179.7332
1814.007826 95.712 -179.3585
1827.152874 95.718 -178.9862
1840.393177 95.727 -178.6162
1853.729425 95.740 -178.2482
1867.162312 95.755 -177.8826
1880.692540 95.772 -177.5203
1894.320813 95.790 -177.1635
1908.047843 95.809 -176.8146
1921.874344 95.827 -176.4763
1935.801038 95.844 -176.1508
1949.828650 95.860 -175.8393
1963.957912 95.873 -175.5418
1978.189561 95.885 -175.2570
1992.524338 95.894 -174.9830
2006.962991 95.901 -174.7173
2021.506272 95.908 -174.4581
2036.154940 95.915 -174.2043
2050.909758 95.924 -173.9557
2065.771495 95.934 -173.7127
2080.740927 95.948 -173.4759
2095.818833 95.966 -173.2464
2111.006001 95.987 -173.0252
2126.303220 96.013 -172.8125
2141.711290 96.044 -172.6075
2157.231013 96.079 -172.4087
2172.863198 96.120 -172.2139
2188.608660 96.166 -172.0214
2204.468221 96.219 -171.8301
2220.442706 96.279 -171.6403
2236.532950 96.345 -171.4523
2252.739789 96.419 -171.2670
2269.064070 96.501 -171.0850
2285.506644 96.590 -170.9069
2302.068367 96.685 -170.7330
2318.750104 96.788 -170.5638
2335.552723 96.897 -170.3996
2352.477101 97.011 -170.2402
2369.524119 97.129 -170.0860
2386.694668 97.252 -169.9370
2403.989641 97.377 -169.7942
2421.409941 97.505 -169.6583
2438.956476 97.633 -169.5303
2456.630160 97.761 -169.4107
2474.431915 97.887 -169.3000
2492.362668 98.011 -169.1987
2510.423356 98.131 -169.1073
2528.614918 98.247 -169.0259
2546.938304 98.358 -168.9543
2565.394469 98.462 -168.8914
2583.984375 98.559 -168.8359
2602.708991 98.649 -168.7863
2621.569293 98.731 -168.7408
2640.566265 98.805 -168.6978
2659.700897 98.870 -168.6557
2678.974186 98.927 -168.6129
2698.387137 98.977 -168.5680
2717.940763 99.018 -168.5201
2737.636082 99.053 -168.4679
2757.474121 99.080 -168.4107
2777.455915 99.100 -168.3474
2797.582506 99.114 -168.2769
2817.854942 99.122 -168.1978
2838.274281 99.124 -168.1083
2858.841586 99.122 -168.0069
2879.557931 99.116 -167.8926
2900.424394 99.107 -167.7655
2921.442065 99.096 -167.6270
2942.612039 99.084 -167.4799
2963.935418 99.072 -167.3282
2985.413316 99.060 -167.1772
3007.046852 99.048 -167.0331
3028.837153 99.038 -166.9019
3050.785356 99.030 -166.7890
3072.892604 99.021 -166.6982
3095.160050 99.014 -166.6320
3117.588856 99.006 -166.5915
3140.180190 98.999 -166.5761
3162.935230 98.990 -166.5846
3185.855163 98.980 -166.6148
3208.941182 98.969 -166.6643
3232.194493 98.956 -166.7303
3255.616307 98.942 -166.8094
3279.207844 98.926 -166.8982
3302.970336 98.909 -166.9930
3326.905021 98.891 -167.0899
3351.013146 98.873 -167.1854
3375.295969 98.855 -167.2763
3399.754755 98.838 -167.3591
