* Measurement data measured by REW V5.31.3
* Source: EXCL: Headset (USB-C to 3.5mm Headphone Jack Adapter), MICROPHONE (Master Volume), 0, volume: 0.260
* Format: 256k Log Swept Sine, 1 sweep at -12.0 dBFS with no timing reference
* Dated: Mar 17, 2025 12:35:01 PM
* REW Settings:
*  C-weighting compensation: Off
*  Target level: 75.0 dB
* Note: ; 
* Measurement: HD650 (Mystery) L10
* Smoothing: 1/6 octave
* Frequency Step: 96 ppo
* Start Frequency: 20.0 Hz
*
* Freq(Hz) SPL(dB) Phase(degrees)
20.187378 91.712 -63.7962
20.333664 91.713 -63.9968
20.481010 91.714 -64.2621
20.629424 91.715 -64.5802
20.778913 91.717 -64.9383
20.929486 91.720 -65.3240
21.081150 91.724 -65.7262
21.233912 91.731 -66.1356
21.387782 91.740 -66.5454
21.542767 91.753 -66.9512
21.698874 91.771 -67.3513
21.856113 91.794 -67.7460
22.014492 91.822 -68.1381
22.174018 91.855 -68.5314
22.334700 91.894 -68.9311
22.496546 91.938 -69.3424
22.659566 91.985 -69.7703
22.823766 92.035 -70.2188
22.989157 92.085 -70.6904
23.155745 92.135 -71.1860
23.323542 92.184 -71.7040
23.492554 92.230 -72.2412
23.662790 92.272 -72.7926
23.834261 92.309 -73.3515
24.006973 92.343 -73.9110
24.180938 92.373 -74.4639
24.356163 92.401 -75.0038
24.532658 92.427 -75.5258
24.710431 92.454 -76.0271
24.889493 92.482 -76.5072
25.069853 92.513 -76.9681
25.251519 92.548 -77.4139
25.434502 92.589 -77.8505
25.618811 92.634 -78.2843
25.804456 92.684 -78.7221
25.991445 92.739 -79.1695
26.179790 92.796 -79.6311
26.369500 92.855 -80.1094
26.560584 92.914 -80.6056
26.753053 92.973 -81.1192
26.946917 93.031 -81.6490
27.142185 93.087 -82.1933
27.338869 93.142 -82.7508
27.536977 93.195 -83.3204
27.736522 93.247 -83.9016
27.937512 93.299 -84.4942
28.139959 93.350 -85.0978
28.343872 93.400 -85.7113
28.549264 93.449 -86.3321
28.756143 93.497 -86.9561
28.964522 93.544 -87.5777
29.174411 93.589 -88.1898
29.385821 93.632 -88.7852
29.598763 93.675 -89.3570
29.813248 93.717 -89.9003
30.029287 93.759 -90.4125
30.246891 93.802 -90.8943
30.466073 93.846 -91.3497
30.686842 93.894 -91.7853
30.909212 93.943 -92.2098
31.133193 93.996 -92.6323
31.358797 94.051 -93.0615
31.586035 94.109 -93.5047
31.814921 94.169 -93.9667
32.045465 94.231 -94.4499
32.277680 94.295 -94.9545
32.511577 94.360 -95.4782
32.747169 94.428 -96.0177
32.984469 94.498 -96.5686
33.223488 94.570 -97.1261
33.464239 94.644 -97.6859
33.706735 94.720 -98.2443
33.950987 94.797 -98.7985
34.197010 94.873 -99.3469
34.444816 94.949 -99.8891
34.694417 95.024 -100.4256
34.945827 95.095 -100.9580
35.199059 95.162 -101.4880
35.454126 95.225 -102.0171
35.711041 95.282 -102.5463
35.969818 95.333 -103.0757
36.230470 95.378 -103.6042
36.493011 95.417 -104.1301
36.757455 95.451 -104.6512
37.023814 95.480 -105.1654
37.292104 95.505 -105.6713
37.562338 95.526 -106.1686
37.834530 95.545 -106.6580
38.108695 95.561 -107.1409
38.384846 95.575 -107.6191
38.662999 95.586 -108.0945
38.943167 95.595 -108.5684
39.225365 95.601 -109.0417
39.509608 95.606 -109.5150
39.795911 95.608 -109.9889
40.084289 95.609 -110.4640
40.374756 95.610 -110.9413
40.667328 95.611 -111.4219
40.962020 95.614 -111.9069
41.258848 95.618 -112.3970
41.557827 95.625 -112.8922
41.858972 95.635 -113.3920
42.162299 95.647 -113.8953
42.467824 95.663 -114.4010
42.775564 95.681 -114.9080
43.085533 95.701 -115.4157
43.397749 95.723 -115.9238
43.712227 95.746 -116.4320
44.028983 95.770 -116.9400
44.348036 95.794 -117.4467
44.669400 95.817 -117.9506
44.993093 95.840 -118.4496
45.319131 95.861 -118.9413
45.647532 95.882 -119.4233
45.978313 95.903 -119.8934
46.311491 95.925 -120.3501
46.647083 95.948 -120.7923
46.985107 95.973 -121.2196
47.325581 96.001 -121.6326
47.668521 96.031 -122.0327
48.013947 96.065 -122.4221
48.361876 96.102 -122.8040
48.712326 96.141 -123.1822
49.065315 96.181 -123.5608
49.420863 96.221 -123.9438
49.778987 96.262 -124.3347
50.139706 96.302 -124.7357
50.503039 96.341 -125.1479
50.869005 96.379 -125.5705
51.237623 96.416 -126.0015
51.608912 96.452 -126.4376
51.982891 96.487 -126.8748
52.359580 96.522 -127.3094
52.739000 96.556 -127.7389
53.121168 96.590 -128.1618
53.506106 96.622 -128.5782
53.893833 96.654 -128.9892
54.284370 96.684 -129.3960
54.677737 96.712 -129.7995
55.073955 96.738 -130.1994
55.473043 96.763 -130.5945
55.875024 96.785 -130.9825
56.279917 96.806 -131.3610
56.687745 96.825 -131.7281
57.098527 96.843 -132.0830
57.512287 96.861 -132.4272
57.929045 96.878 -132.7642
58.348822 96.897 -133.0999
58.771642 96.917 -133.4420
59.197525 96.940 -133.7994
59.626495 96.965 -134.1801
60.058573 96.993 -134.5896
60.493782 97.023 -135.0293
60.932145 97.055 -135.4962
61.373685 97.088 -135.9837
61.818424 97.121 -136.4832
62.266386 97.154 -136.9866
62.717593 97.185 -137.4870
63.172071 97.215 -137.9797
63.629842 97.243 -138.4622
64.090930 97.268 -138.9339
64.555359 97.292 -139.3955
65.023154 97.315 -139.8492
65.494339 97.336 -140.2975
65.968938 97.356 -140.7432
66.446976 97.374 -141.1883
66.928478 97.393 -141.6342
67.413469 97.410 -142.0815
67.901975 97.427 -142.5299
68.394021 97.443 -142.9785
68.889632 97.460 -143.4264
69.388835 97.476 -143.8723
69.891655 97.492 -144.3149
70.398118 97.508 -144.7532
70.908252 97.524 -145.1864
71.422083 97.540 -145.6140
71.939636 97.556 -146.0359
72.460941 97.573 -146.4525
72.986023 97.589 -146.8646
73.514909 97.605 -147.2732
74.047629 97.620 -147.6797
74.584208 97.635 -148.0849
75.124676 97.650 -148.4896
75.669061 97.665 -148.8942
76.217390 97.679 -149.2986
76.769692 97.693 -149.7023
77.325997 97.707 -150.1047
77.886333 97.721 -150.5054
78.450730 97.734 -150.9044
79.019216 97.747 -151.3016
79.591822 97.760 -151.6975
80.168577 97.773 -152.0921
80.749512 97.785 -152.4856
81.334656 97.797 -152.8779
81.924040 97.807 -153.2690
82.517696 97.818 -153.6589
83.115653 97.827 -154.0477
83.717943 97.836 -154.4358
84.324598 97.843 -154.8238
84.935649 97.851 -155.2125
85.551128 97.857 -155.6022
86.171066 97.864 -155.9934
86.795497 97.871 -156.3862
87.424453 97.879 -156.7805
88.057967 97.888 -157.1763
88.696071 97.898 -157.5730
89.338800 97.910 -157.9701
89.986185 97.923 -158.3671
90.638262 97.938 -158.7636
91.295065 97.954 -159.1591
91.956626 97.972 -159.5534
92.622982 97.990 -159.9458
93.294166 98.009 -160.3359
93.970214 98.027 -160.7230
94.651161 98.044 -161.1067
95.337042 98.060 -161.4866
96.027894 98.073 -161.8625
96.723752 98.084 -162.2345
97.424652 98.093 -162.6028
98.130631 98.098 -162.9681
98.841726 98.101 -163.3310
99.557974 98.101 -163.6924
100.279412 98.098 -164.0526
101.006078 98.094 -164.4120
101.738010 98.089 -164.7706
102.475245 98.083 -165.1284
103.217823 98.077 -165.4855
103.965782 98.071 -165.8421
104.719161 98.066 -166.1985
105.477999 98.062 -166.5550
106.242336 98.061 -166.9119
107.012212 98.061 -167.2692
107.787666 98.063 -167.6265
108.568740 98.067 -167.9837
109.355474 98.072 -168.3404
110.147909 98.079 -168.6963
110.946086 98.086 -169.0511
111.750047 98.094 -169.4047
112.559834 98.102 -169.7567
113.375489 98.110 -170.1071
114.197055 98.116 -170.4559
115.024574 98.122 -170.8034
115.858089 98.127 -171.1499
116.697645 98.130 -171.4957
117.543284 98.132 -171.8411
118.395051 98.132 -172.1861
119.252990 98.130 -172.5305
120.117147 98.126 -172.8742
120.987565 98.121 -173.2170
121.864291 98.115 -173.5587
122.747370 98.107 -173.8989
123.636848 98.099 -174.2372
124.532771 98.091 -174.5733
125.435187 98.083 -174.9066
126.344142 98.077 -175.2369
127.259684 98.071 -175.5639
128.181860 98.067 -175.8874
129.110718 98.065 -176.2073
130.046308 98.064 -176.5233
130.988677 98.065 -176.8352
131.937875 98.067 -177.1428
132.893951 98.070 -177.4464
133.856956 98.073 -177.7461
134.826938 98.077 -178.0425
135.803950 98.081 -178.3363
136.788041 98.085 -178.6282
137.779264 98.089 -178.9191
138.777669 98.091 -179.2098
139.783309 98.092 -179.5009
140.796237 98.091 -179.7929
141.816504 98.089 179.9140
142.844165 98.084 179.6196
143.879273 98.078 179.3240
144.921881 98.070 179.0273
145.972045 98.061 178.7296
147.029819 98.051 178.4312
148.095257 98.040 178.1323
149.168417 98.030 177.8333
150.249353 98.019 177.5345
151.338121 98.010 177.2360
152.434780 98.001 176.9381
153.539385 97.994 176.6406
154.651995 97.988 176.3436
155.772667 97.984 176.0468
156.901460 97.980 175.7504
158.038432 97.978 175.4540
159.183644 97.976 175.1572
160.337154 97.974 174.8597
161.499023 97.972 174.5609
162.669312 97.970 174.2606
163.848081 97.968 173.9588
165.035392 97.965 173.6560
166.231306 97.961 173.3527
167.435887 97.957 173.0497
168.649196 97.952 172.7475
169.871298 97.947 172.4464
171.102255 97.941 172.1463
172.342133 97.935 171.8471
173.590995 97.927 171.5487
174.848907 97.919 171.2510
176.115934 97.909 170.9541
177.392143 97.897 170.6580
178.677599 97.885 170.3629
179.972371 97.871 170.0686
181.276525 97.856 169.7752
182.590129 97.839 169.4826
183.913252 97.821 169.1908
185.245964 97.802 168.9001
186.588332 97.781 168.6109
187.940428 97.759 168.3232
189.302322 97.734 168.0374
190.674085 97.708 167.7533
192.055788 97.681 167.4708
193.447503 97.651 167.1895
194.849303 97.619 166.9095
196.261262 97.586 166.6307
197.683452 97.550 166.3531
199.115948 97.513 166.0765
200.558824 97.473 165.8011
202.012156 97.432 165.5267
203.476019 97.390 165.2533
204.950490 97.347 164.9807
206.435646 97.303 164.7086
207.931564 97.261 164.4368
209.438322 97.220 164.1648
210.955998 97.182 163.8926
212.484672 97.147 163.6204
214.024424 97.116 163.3491
215.575333 97.088 163.0794
217.137481 97.066 162.8120
218.710948 97.048 162.5468
220.295818 97.035 162.2839
221.892172 97.026 162.0228
223.500094 97.022 161.7631
225.119668 97.020 161.5043
226.750978 97.022 161.2465
228.394109 97.026 160.9894
230.049147 97.031 160.7336
231.716178 97.039 160.4792
233.395289 97.047 160.2271
235.086567 97.055 159.9779
236.790102 97.065 159.7324
238.505980 97.074 159.4916
240.234293 97.082 159.2570
241.975130 97.090 159.0294
243.728581 97.097 158.8102
245.494739 97.103 158.6001
247.273695 97.108 158.3993
249.065542 97.111 158.2078
250.870374 97.113 158.0247
252.688284 97.114 157.8490
254.519367 97.115 157.6797
256.363720 97.114 157.5157
258.221437 97.114 157.3565
260.092616 97.115 157.2013
261.977354 97.116 157.0497
263.875750 97.117 156.9012
265.787903 97.119 156.7552
267.713911 97.122 156.6108
269.653877 97.124 156.4669
271.607900 97.125 156.3217
273.576083 97.125 156.1736
275.558528 97.122 156.0205
277.555338 97.117 155.8613
279.566619 97.107 155.6951
281.592474 97.094 155.5221
283.633009 97.077 155.3427
285.688331 97.055 155.1578
287.758546 97.028 154.9688
289.843763 96.996 154.7771
291.944090 96.960 154.5841
294.059638 96.920 154.3910
296.190515 96.876 154.1986
298.336833 96.829 154.0075
300.498705 96.779 153.8181
302.676243 96.727 153.6306
304.869559 96.673 153.4449
307.078770 96.619 153.2611
309.303989 96.564 153.0790
311.545334 96.511 152.8984
313.802919 96.458 152.7194
316.076865 96.408 152.5420
318.367288 96.361 152.3662
320.674309 96.316 152.1922
322.998047 96.276 152.0203
325.338624 96.239 151.8505
327.696162 96.207 151.6832
330.070783 96.179 151.5183
332.462612 96.157 151.3561
334.871773 96.139 151.1963
337.298392 96.127 151.0388
339.742595 96.120 150.8834
342.204510 96.117 150.7300
344.684265 96.120 150.5785
347.181989 96.126 150.4285
349.697813 96.137 150.2799
352.231868 96.150 150.1324
354.784285 96.166 149.9855
357.355198 96.183 149.8384
359.944741 96.201 149.6901
362.553049 96.218 149.5400
365.180258 96.233 149.3875
367.826505 96.246 149.2327
370.491927 96.256 149.0761
373.176665 96.261 148.9184
375.880856 96.262 148.7604
378.604644 96.257 148.6028
381.348169 96.248 148.4462
384.111575 96.233 148.2909
386.895006 96.214 148.1373
389.698607 96.191 147.9851
392.522524 96.164 147.8344
395.366904 96.135 147.6848
398.231895 96.104 147.5363
401.117648 96.073 147.3885
404.024312 96.042 147.2415
406.952038 96.012 147.0952
409.900981 95.985 146.9495
412.871292 95.961 146.8045
415.863128 95.940 146.6602
418.876643 95.924 146.5167
421.911996 95.913 146.3743
424.969344 95.905 146.2333
428.048847 95.902 146.0940
431.150666 95.901 145.9565
434.274961 95.903 145.8208
437.421897 95.906 145.6865
440.591636 95.910 145.5530
443.784345 95.913 145.4196
447.000189 95.915 145.2856
450.239337 95.916 145.1509
453.501956 95.914 145.0160
456.788219 95.909 144.8814
460.098294 95.901 144.7479
463.432356 95.890 144.6164
466.790578 95.877 144.4873
470.173135 95.861 144.3610
473.580203 95.843 144.2374
477.011961 95.824 144.1160
480.468586 95.804 143.9966
483.950259 95.784 143.8784
487.457163 95.763 143.7609
490.989478 95.742 143.6436
494.547390 95.722 143.5266
498.131084 95.704 143.4097
501.740748 95.687 143.2932
505.376568 95.673 143.1774
509.038735 95.662 143.0627
512.727439 95.656 142.9495
516.442874 95.656 142.8380
520.185232 95.661 142.7285
523.954708 95.673 142.6206
527.751500 95.691 142.5141
531.575805 95.715 142.4085
535.427822 95.745 142.3033
539.307753 95.780 142.1982
543.215800 95.819 142.0926
547.152165 95.859 141.9865
551.117055 95.900 141.8800
555.110677 95.941 141.7733
559.133237 95.978 141.6667
563.184947 96.011 141.5608
567.266018 96.040 141.4559
571.376661 96.061 141.3526
575.517092 96.075 141.2510
579.687526 96.082 141.1514
583.888181 96.079 141.0537
588.119275 96.066 140.9577
592.381030 96.044 140.8632
596.673667 96.012 140.7703
600.997410 95.970 140.6788
605.352485 95.918 140.5887
609.739119 95.858 140.4999
614.157540 95.791 140.4120
618.607979 95.717 140.3249
623.090667 95.639 140.2382
627.605839 95.558 140.1517
632.153730 95.476 140.0654
636.734576 95.395 139.9792
641.348617 95.317 139.8932
645.996094 95.243 139.8074
650.677248 95.176 139.7220
655.392323 95.115 139.6367
660.141566 95.062 139.5511
664.925224 95.018 139.4649
669.743546 94.983 139.3771
674.596784 94.957 139.2870
679.485191 94.941 139.1940
684.409020 94.934 139.0976
689.368530 94.935 138.9977
694.363979 94.945 138.8947
699.395626 94.963 138.7889
704.463736 94.986 138.6807
709.568570 95.015 138.5702
714.710396 95.049 138.4575
719.889483 95.084 138.3423
725.106099 95.121 138.2244
730.360516 95.158 138.1028
735.653010 95.192 137.9767
740.983855 95.224 137.8448
746.353329 95.252 137.7057
751.761713 95.276 137.5579
757.209288 95.295 137.4002
762.696339 95.309 137.2321
768.223151 95.318 137.0536
773.790013 95.322 136.8660
779.397214 95.320 136.6714
785.045047 95.312 136.4733
790.733808 95.297 136.2767
796.463791 95.275 136.0875
802.235296 95.244 135.9131
808.048623 95.203 135.7624
813.904077 95.152 135.6448
819.801961 95.091 135.5697
825.742584 95.022 135.5452
831.726255 94.945 135.5755
837.753287 94.865 135.6590
843.823992 94.784 135.7867
849.938689 94.707 135.9431
856.097695 94.636 136.1089
862.301332 94.575 136.2650
868.549922 94.523 136.3958
874.843793 94.484 136.4908
881.183272 94.456 136.5453
887.568689 94.441 136.5591
894.000378 94.437 136.5347
900.478673 94.444 136.4767
907.003913 94.462 136.3900
913.576437 94.488 136.2796
920.196588 94.523 136.1500
926.864712 94.563 136.0046
933.581156 94.609 135.8466
940.346270 94.657 135.6784
947.160407 94.705 135.5021
954.023921 94.754 135.3197
960.937172 94.799 135.1331
967.900519 94.842 134.9443
974.914325 94.881 134.7554
981.978956 94.914 134.5690
989.094780 94.944 134.3875
996.262169 94.969 134.2137
1003.481495 94.991 134.0498
1010.753136 95.011 133.8972
1018.077470 95.030 133.7564
1025.454879 95.049 133.6270
1032.885748 95.071 133.5074
1040.370463 95.097 133.3958
1047.909417 95.127 133.2896
1055.503000 95.163 133.1868
1063.151610 95.203 133.0859
1070.855645 95.249 132.9862
1078.615506 95.300 132.8881
1086.431599 95.353 132.7925
1094.304330 95.410 132.7003
1102.234110 95.467 132.6118
1110.221353 95.524 132.5268
1118.266475 95.580 132.4442
1126.369895 95.633 132.3625
1134.532035 95.683 132.2798
1142.753322 95.728 132.1949
1151.034184 95.768 132.1065
1159.375052 95.804 132.0143
1167.776361 95.837 131.9185
1176.238550 95.866 131.8196
1184.762060 95.893 131.7186
1193.347334 95.920 131.6159
1201.994821 95.949 131.5118
1210.704971 95.981 131.4054
1219.478238 96.018 131.2948
1228.315080 96.059 131.1776
1237.215957 96.107 131.0509
1246.181334 96.160 130.9124
1255.211678 96.219 130.7608
1264.307459 96.282 130.5960
1273.469152 96.349 130.4190
1282.697235 96.418 130.2319
1291.992188 96.488 130.0376
1301.354495 96.559 129.8387
1310.784647 96.630 129.6378
1320.283132 96.699 129.4369
1329.850448 96.766 129.2376
1339.487093 96.830 129.0410
1349.193569 96.891 128.8478
1358.970381 96.949 128.6586
1368.818041 97.002 128.4737
1378.737061 97.051 128.2933
1388.727958 97.096 128.1174
1398.791253 97.136 127.9459
1408.927471 97.172 127.7779
1419.137140 97.204 127.6125
1429.420793 97.233 127.4484
1439.778965 97.258 127.2845
1450.212197 97.279 127.1207
1460.721033 97.298 126.9567
1471.306019 97.313 126.7928
1481.967709 97.325 126.6293
1492.706658 97.334 126.4660
1503.523426 97.340 126.3025
1514.418576 97.342 126.1388
1525.392678 97.339 125.9751
1536.446302 97.332 125.8124
1547.580025 97.321 125.6520
1558.794428 97.304 125.4957
1570.090095 97.283 125.3453
1581.467615 97.258 125.2024
1592.927581 97.229 125.0687
1604.470591 97.197 124.9453
1616.097246 97.163 124.8333
1627.808153 97.128 124.7331
1639.603922 97.092 124.6451
1651.485168 97.055 124.5694
1663.452510 97.019 124.5056
1675.506573 96.982 124.4532
1687.647984 96.946 124.4117
1699.877377 96.910 124.3804
1712.195390 96.874 124.3587
1724.602663 96.839 124.3463
1737.099845 96.804 124.3428
1749.687587 96.769 124.3484
1762.366544 96.737 124.3633
1775.137379 96.706 124.3882
1788.000756 96.677 124.4238
1800.957346 96.651 124.4708
1814.007826 96.627 124.5296
1827.152874 96.607 124.6004
1840.393177 96.589 124.6828
1853.729425 96.574 124.7757
1867.162312 96.561 124.8773
1880.692540 96.549 124.9854
1894.320813 96.537 125.0980
1908.047843 96.525 125.2141
1921.874344 96.511 125.3336
1935.801038 96.495 125.4575
1949.828650 96.477 125.5869
1963.957912 96.456 125.7230
1978.189561 96.434 125.8661
1992.524338 96.411 126.0162
2006.962991 96.387 126.1721
2021.506272 96.365 126.3323
2036.154940 96.344 126.4948
2050.909758 96.326 126.6582
2065.771495 96.310 126.8214
2080.740927 96.299 126.9842
2095.818833 96.292 127.1466
2111.006001 96.289 127.3095
2126.303220 96.293 127.4741
2141.711290 96.302 127.6414
2157.231013 96.317 127.8126
2172.863198 96.340 127.9875
2188.608660 96.371 128.1649
2204.468221 96.411 128.3425
2220.442706 96.459 128.5180
2236.532950 96.516 128.6890
2252.739789 96.582 128.8539
2269.064070 96.657 129.0117
2285.506644 96.740 129.1621
2302.068367 96.832 129.3052
2318.750104 96.930 129.4410
2335.552723 97.036 129.5691
2352.477101 97.149 129.6887
2369.524119 97.267 129.7982
2386.694668 97.389 129.8960
2403.989641 97.514 129.9807
2421.409941 97.642 130.0513
2438.956476 97.770 130.1077
2456.630160 97.898 130.1503
2474.431915 98.023 130.1802
2492.362668 98.146 130.1983
2510.423356 98.265 130.2054
2528.614918 98.379 130.2025
2546.938304 98.488 130.1905
2565.394469 98.591 130.1702
2583.984375 98.686 130.1426
2602.708991 98.775 130.1090
2621.569293 98.855 130.0700
2640.566265 98.928 130.0266
2659.700897 98.993 129.9797
2678.974186 99.049 129.9302
2698.387137 99.097 129.8790
2717.940763 99.137 129.8268
2737.636082 99.169 129.7747
2757.474121 99.194 129.7240
2777.455915 99.210 129.6768
2797.582506 99.219 129.6360
2817.854942 99.221 129.6047
2838.274281 99.217 129.5859
2858.841586 99.207 129.5819
2879.557931 99.193 129.5938
2900.424394 99.175 129.6216
2921.442065 99.154 129.6642
2942.612039 99.131 129.7194
2963.935418 99.107 129.7840
2985.413316 99.083 129.8532
3007.046852 99.060 129.9211
3028.837153 99.038 129.9814
3050.785356 99.017 130.0278
3072.892604 98.997 130.0549
3095.160050 98.977 130.0587
3117.588856 98.958 130.0368
3140.180190 98.939 129.9889
3162.935230 98.918 129.9168
3185.855163 98.895 129.8237
3208.941182 98.870 129.7138
3232.194493 98.843 129.5917
3255.616307 98.813 129.4624
3279.207844 98.781 129.3303
3302.970336 98.746 129.2000
3326.905021 98.711 129.0755
3351.013146 98.674 128.9610
3375.295969 98.637 128.8604
3399.754755 98.600 128.7771
3424.390779 98.565 128.7145
3449.205326 98.530 128.6755
3474.199690 98.499 128.6627
3499.375173 98.470 128.6777
3524.733088 98.444 128.7220
