* Measurement data measured by REW V5.31.3
* Source: EXCL: Headset (USB-C to 3.5mm Headphone Jack Adapter), MICROPHONE (Master Volume), 0, volume: 0.750
* Format: 256k Log Swept Sine, 1 sweep at -12.0 dBFS with no timing reference
* Dated: Apr 7, 2025 12:06:28 PM
* REW Settings:
*  C-weighting compensation: Off
*  Target level: 75.0 dB
* Note: ; 
* Measurement: HD6XX L8
* Smoothing: 1/6 octave
* Frequency Step: 96 ppo
* Start Frequency: 20.0 Hz
*
* Freq(Hz) SPL(dB) Phase(degrees)
20.187378 79.160 -96.6174
20.333664 79.208 -96.7245
20.481010 79.273 -96.8673
20.629424 79.352 -97.0408
20.778913 79.444 -97.2402
20.929486 79.547 -97.4606
21.081150 79.658 -97.6981
21.233912 79.774 -97.9495
21.387782 79.895 -98.2127
21.542767 80.016 -98.4864
21.698874 80.136 -98.7696
21.856113 80.254 -99.0619
22.014492 80.366 -99.3624
22.174018 80.472 -99.6698
22.334700 80.570 -99.9820
22.496546 80.659 -100.2964
22.659566 80.739 -100.6095
22.823766 80.810 -100.9178
22.989157 80.872 -101.2177
23.155745 80.928 -101.5064
23.323542 80.978 -101.7827
23.492554 81.024 -102.0468
23.662790 81.069 -102.3014
23.834261 81.114 -102.5512
24.006973 81.161 -102.8026
24.180938 81.211 -103.0630
24.356163 81.264 -103.3399
24.532658 81.320 -103.6396
24.710431 81.377 -103.9665
24.889493 81.434 -104.3221
25.069853 81.488 -104.7050
25.251519 81.538 -105.1106
25.434502 81.582 -105.5322
25.618811 81.619 -105.9613
25.804456 81.647 -106.3893
25.991445 81.666 -106.8079
26.179790 81.678 -107.2110
26.369500 81.684 -107.5947
26.560584 81.685 -107.9586
26.753053 81.685 -108.3058
26.946917 81.686 -108.6424
27.142185 81.691 -108.9770
27.338869 81.703 -109.3199
27.536977 81.723 -109.6811
27.736522 81.753 -110.0691
27.937512 81.793 -110.4895
28.139959 81.843 -110.9435
28.343872 81.901 -111.4280
28.549264 81.966 -111.9348
28.756143 82.034 -112.4518
28.964522 82.104 -112.9639
29.174411 82.173 -113.4548
29.385821 82.239 -113.9084
29.598763 82.300 -114.3110
29.813248 82.356 -114.6528
30.029287 82.408 -114.9292
30.246891 82.454 -115.1412
30.466073 82.497 -115.2960
30.686842 82.537 -115.4058
30.909212 82.576 -115.4869
31.133193 82.614 -115.5576
31.358797 82.654 -115.6358
31.586035 82.695 -115.7372
31.814921 82.739 -115.8735
32.045465 82.786 -116.0515
32.277680 82.837 -116.2726
32.511577 82.893 -116.5336
32.747169 82.954 -116.8280
32.984469 83.021 -117.1475
33.223488 83.095 -117.4830
33.464239 83.176 -117.8269
33.706735 83.264 -118.1730
33.950987 83.358 -118.5174
34.197010 83.457 -118.8583
34.444816 83.561 -119.1956
34.694417 83.668 -119.5300
34.945827 83.777 -119.8628
35.199059 83.885 -120.1950
35.454126 83.993 -120.5274
35.711041 84.098 -120.8604
35.969818 84.202 -121.1940
36.230470 84.302 -121.5282
36.493011 84.400 -121.8634
36.757455 84.496 -122.2003
37.023814 84.590 -122.5403
37.292104 84.682 -122.8853
37.562338 84.772 -123.2377
37.834530 84.861 -123.5993
38.108695 84.948 -123.9716
38.384846 85.033 -124.3548
38.662999 85.116 -124.7476
38.943167 85.197 -125.1470
39.225365 85.275 -125.5493
39.509608 85.350 -125.9500
39.795911 85.422 -126.3449
40.084289 85.489 -126.7312
40.374756 85.553 -127.1076
40.667328 85.613 -127.4750
40.962020 85.670 -127.8363
41.258848 85.723 -128.1959
41.557827 85.773 -128.5590
41.858972 85.822 -128.9306
42.162299 85.869 -129.3145
42.467824 85.915 -129.7125
42.775564 85.962 -130.1233
43.085533 86.010 -130.5429
43.397749 86.059 -130.9647
43.712227 86.110 -131.3803
44.028983 86.164 -131.7811
44.348036 86.218 -132.1597
44.669400 86.272 -132.5105
44.993093 86.326 -132.8306
45.319131 86.378 -133.1193
45.647532 86.427 -133.3784
45.978313 86.472 -133.6112
46.311491 86.513 -133.8223
46.647083 86.550 -134.0175
46.985107 86.583 -134.2036
47.325581 86.613 -134.3872
47.668521 86.640 -134.5744
48.013947 86.665 -134.7691
48.361876 86.688 -134.9726
48.712326 86.709 -135.1836
49.065315 86.728 -135.3986
49.420863 86.744 -135.6138
49.778987 86.759 -135.8257
50.139706 86.773 -136.0323
50.503039 86.786 -136.2331
50.869005 86.799 -136.4290
51.237623 86.811 -136.6221
51.608912 86.825 -136.8147
51.982891 86.838 -137.0098
52.359580 86.852 -137.2105
52.739000 86.866 -137.4203
53.121168 86.881 -137.6424
53.506106 86.896 -137.8798
53.893833 86.911 -138.1342
54.284370 86.927 -138.4065
54.677737 86.942 -138.6965
55.073955 86.958 -139.0033
55.473043 86.974 -139.3258
55.875024 86.991 -139.6633
56.279917 87.008 -140.0153
56.687745 87.025 -140.3820
57.098527 87.044 -140.7633
57.512287 87.064 -141.1581
57.929045 87.087 -141.5634
58.348822 87.112 -141.9727
58.771642 87.140 -142.3766
59.197525 87.170 -142.7634
59.626495 87.205 -143.1214
60.058573 87.242 -143.4417
60.493782 87.283 -143.7209
60.932145 87.328 -143.9616
61.373685 87.376 -144.1714
61.818424 87.427 -144.3609
62.266386 87.480 -144.5407
62.717593 87.535 -144.7201
63.172071 87.591 -144.9056
63.629842 87.649 -145.1013
64.090930 87.708 -145.3092
64.555359 87.768 -145.5300
65.023154 87.829 -145.7638
65.494339 87.890 -146.0105
65.968938 87.951 -146.2700
66.446976 88.011 -146.5415
66.928478 88.071 -146.8236
67.413469 88.129 -147.1143
67.901975 88.185 -147.4116
68.394021 88.239 -147.7141
68.889632 88.291 -148.0212
69.388835 88.340 -148.3330
69.891655 88.386 -148.6495
70.398118 88.430 -148.9703
70.908252 88.470 -149.2946
71.422083 88.507 -149.6210
71.939636 88.542 -149.9484
72.460941 88.573 -150.2760
72.986023 88.603 -150.6038
73.514909 88.630 -150.9326
74.047629 88.654 -151.2630
74.584208 88.677 -151.5958
75.124676 88.697 -151.9309
75.669061 88.716 -152.2678
76.217390 88.733 -152.6055
76.769692 88.748 -152.9428
77.325997 88.761 -153.2782
77.886333 88.773 -153.6107
78.450730 88.784 -153.9392
79.019216 88.794 -154.2630
79.591822 88.803 -154.5817
80.168577 88.810 -154.8951
80.749512 88.817 -155.2035
81.334656 88.822 -155.5076
81.924040 88.826 -155.8088
82.517696 88.830 -156.1084
83.115653 88.833 -156.4079
83.717943 88.835 -156.7083
84.324598 88.837 -157.0102
84.935649 88.839 -157.3141
85.551128 88.841 -157.6198
86.171066 88.842 -157.9272
86.795497 88.844 -158.2359
87.424453 88.845 -158.5453
88.057967 88.845 -158.8546
88.696071 88.846 -159.1631
89.338800 88.846 -159.4700
89.986185 88.846 -159.7748
90.638262 88.845 -160.0769
91.295065 88.844 -160.3762
91.956626 88.843 -160.6724
92.622982 88.841 -160.9659
93.294166 88.840 -161.2571
93.970214 88.838 -161.5465
94.651161 88.836 -161.8347
95.337042 88.834 -162.1224
96.027894 88.832 -162.4098
96.723752 88.830 -162.6973
97.424652 88.828 -162.9850
98.130631 88.827 -163.2727
98.841726 88.826 -163.5604
99.557974 88.826 -163.8475
100.279412 88.826 -164.1335
101.006078 88.828 -164.4178
101.738010 88.830 -164.6994
102.475245 88.834 -164.9778
103.217823 88.839 -165.2522
103.965782 88.845 -165.5223
104.719161 88.852 -165.7886
105.477999 88.859 -166.0521
106.242336 88.866 -166.3147
107.012212 88.872 -166.5783
107.787666 88.878 -166.8441
108.568740 88.883 -167.1124
109.355474 88.888 -167.3824
110.147909 88.893 -167.6534
110.946086 88.899 -167.9246
111.750047 88.905 -168.1960
112.559834 88.913 -168.4680
113.375489 88.922 -168.7411
114.197055 88.932 -169.0155
115.024574 88.942 -169.2911
115.858089 88.953 -169.5670
116.697645 88.965 -169.8418
117.543284 88.976 -170.1141
118.395051 88.987 -170.3827
119.252990 88.998 -170.6469
120.117147 89.008 -170.9064
120.987565 89.017 -171.1618
121.864291 89.025 -171.4137
122.747370 89.033 -171.6627
123.636848 89.039 -171.9089
124.532771 89.045 -172.1526
125.435187 89.049 -172.3938
126.344142 89.052 -172.6327
127.259684 89.055 -172.8696
128.181860 89.056 -173.1051
129.110718 89.056 -173.3397
130.046308 89.056 -173.5740
130.988677 89.054 -173.8083
131.937875 89.052 -174.0432
132.893951 89.049 -174.2789
133.856956 89.045 -174.5156
134.826938 89.041 -174.7534
135.803950 89.035 -174.9923
136.788041 89.029 -175.2321
137.779264 89.022 -175.4725
138.777669 89.013 -175.7130
139.783309 89.003 -175.9525
140.796237 88.992 -176.1900
141.816504 88.980 -176.4243
142.844165 88.966 -176.6543
143.879273 88.951 -176.8794
144.921881 88.935 -177.0992
145.972045 88.919 -177.3144
147.029819 88.901 -177.5257
148.095257 88.883 -177.7342
149.168417 88.864 -177.9408
150.249353 88.845 -178.1460
151.338121 88.826 -178.3502
152.434780 88.806 -178.5532
153.539385 88.786 -178.7546
154.651995 88.767 -178.9543
155.772667 88.748 -179.1517
156.901460 88.728 -179.3468
158.038432 88.709 -179.5394
159.183644 88.690 -179.7295
160.337154 88.670 -179.9172
161.499023 88.651 179.8974
162.669312 88.631 179.7141
163.848081 88.611 179.5328
165.035392 88.591 179.3533
166.231306 88.571 179.1755
167.435887 88.550 178.9995
168.649196 88.530 178.8252
169.871298 88.510 178.6525
171.102255 88.491 178.4814
172.342133 88.471 178.3118
173.590995 88.452 178.1434
174.848907 88.434 177.9758
176.115934 88.416 177.8087
177.392143 88.398 177.6415
178.677599 88.380 177.4741
179.972371 88.362 177.3068
181.276525 88.344 177.1401
182.590129 88.325 176.9746
183.913252 88.306 176.8111
185.245964 88.286 176.6499
186.588332 88.266 176.4913
187.940428 88.244 176.3354
189.302322 88.222 176.1823
190.674085 88.198 176.0319
192.055788 88.174 175.8848
193.447503 88.150 175.7413
194.849303 88.125 175.6016
196.261262 88.099 175.4653
197.683452 88.073 175.3319
199.115948 88.048 175.2001
200.558824 88.023 175.0687
202.012156 87.997 174.9365
203.476019 87.973 174.8024
204.950490 87.948 174.6660
206.435646 87.923 174.5270
207.931564 87.898 174.3857
209.438322 87.873 174.2424
210.955998 87.847 174.0981
212.484672 87.822 173.9540
214.024424 87.797 173.8109
215.575333 87.773 173.6699
217.137481 87.749 173.5314
218.710948 87.726 173.3960
220.295818 87.703 173.2640
221.892172 87.682 173.1359
223.500094 87.663 173.0120
225.119668 87.644 172.8929
226.750978 87.627 172.7789
228.394109 87.612 172.6704
230.049147 87.598 172.5670
231.716178 87.585 172.4681
233.395289 87.574 172.3727
235.086567 87.564 172.2799
236.790102 87.555 172.1887
238.505980 87.547 172.0984
240.234293 87.540 172.0081
241.975130 87.534 171.9174
243.728581 87.529 171.8257
245.494739 87.525 171.7333
247.273695 87.521 171.6406
249.065542 87.517 171.5483
250.870374 87.514 171.4575
252.688284 87.510 171.3687
254.519367 87.505 171.2826
256.363720 87.500 171.1997
258.221437 87.495 171.1204
260.092616 87.490 171.0450
261.977354 87.484 170.9738
263.875750 87.477 170.9065
265.787903 87.471 170.8425
267.713911 87.464 170.7812
269.653877 87.458 170.7217
271.607900 87.451 170.6627
273.576083 87.444 170.6033
275.558528 87.438 170.5432
277.555338 87.431 170.4824
279.566619 87.425 170.4210
281.592474 87.420 170.3594
283.633009 87.415 170.2983
285.688331 87.410 170.2383
287.758546 87.406 170.1802
289.843763 87.403 170.1244
291.944090 87.400 170.0707
294.059638 87.398 170.0187
296.190515 87.396 169.9681
298.336833 87.395 169.9188
300.498705 87.393 169.8708
302.676243 87.392 169.8248
304.869559 87.391 169.7811
307.078770 87.390 169.7404
309.303989 87.389 169.7031
311.545334 87.388 169.6692
313.802919 87.387 169.6388
316.076865 87.387 169.6116
318.367288 87.386 169.5869
320.674309 87.386 169.5643
322.998047 87.385 169.5435
325.338624 87.385 169.5243
327.696162 87.385 169.5065
330.070783 87.384 169.4900
332.462612 87.384 169.4747
334.871773 87.383 169.4606
337.298392 87.383 169.4478
339.742595 87.382 169.4364
342.204510 87.380 169.4268
344.684265 87.378 169.4191
347.181989 87.375 169.4135
349.697813 87.372 169.4098
352.231868 87.367 169.4075
354.784285 87.360 169.4061
357.355198 87.353 169.4044
359.944741 87.343 169.4016
362.553049 87.332 169.3964
365.180258 87.320 169.3884
367.826505 87.307 169.3775
370.491927 87.293 169.3645
373.176665 87.279 169.3499
375.880856 87.265 169.3342
378.604644 87.251 169.3175
381.348169 87.238 169.2998
384.111575 87.224 169.2812
386.895006 87.211 169.2623
389.698607 87.198 169.2437
392.522524 87.185 169.2262
395.366904 87.172 169.2111
398.231895 87.159 169.1996
401.117648 87.145 169.1928
404.024312 87.131 169.1917
406.952038 87.115 169.1963
409.900981 87.099 169.2062
412.871292 87.081 169.2207
415.863128 87.061 169.2382
418.876643 87.041 169.2573
421.911996 87.019 169.2766
424.969344 86.995 169.2949
428.048847 86.970 169.3118
431.150666 86.944 169.3273
434.274961 86.916 169.3422
437.421897 86.887 169.3572
440.591636 86.856 169.3734
443.784345 86.824 169.3912
447.000189 86.791 169.4115
450.239337 86.757 169.4346
453.501956 86.722 169.4605
456.788219 86.686 169.4890
460.098294 86.650 169.5193
463.432356 86.614 169.5507
466.790578 86.578 169.5825
470.173135 86.543 169.6143
473.580203 86.509 169.6454
477.011961 86.476 169.6759
480.468586 86.444 169.7056
483.950259 86.414 169.7347
487.457163 86.384 169.7639
490.989478 86.357 169.7933
494.547390 86.330 169.8230
498.131084 86.305 169.8530
501.740748 86.281 169.8829
505.376568 86.258 169.9125
509.038735 86.237 169.9415
512.727439 86.218 169.9697
516.442874 86.199 169.9974
520.185232 86.182 170.0247
523.954708 86.167 170.0522
527.751500 86.153 170.0804
531.575805 86.140 170.1099
535.427822 86.129 170.1416
539.307753 86.118 170.1764
543.215800 86.110 170.2156
547.152165 86.102 170.2606
551.117055 86.097 170.3124
555.110677 86.093 170.3717
559.133237 86.092 170.4387
563.184947 86.093 170.5130
567.266018 86.097 170.5936
571.376661 86.103 170.6791
575.517092 86.112 170.7677
579.687526 86.122 170.8577
583.888181 86.135 170.9470
588.119275 86.149 171.0341
592.381030 86.164 171.1176
596.673667 86.179 171.1969
600.997410 86.195 171.2716
605.352485 86.210 171.3420
609.739119 86.225 171.4085
614.157540 86.238 171.4717
618.607979 86.251 171.5322
623.090667 86.263 171.5901
627.605839 86.273 171.6457
632.153730 86.282 171.6989
636.734576 86.289 171.7498
641.348617 86.295 171.7984
645.996094 86.300 171.8450
650.677248 86.303 171.8901
655.392323 86.305 171.9342
660.141566 86.305 171.9780
664.925224 86.304 172.0219
669.743546 86.302 172.0663
674.596784 86.299 172.1110
679.485191 86.296 172.1562
684.409020 86.291 172.2018
689.368530 86.286 172.2477
694.363979 86.280 172.2939
699.395626 86.273 172.3403
704.463736 86.265 172.3868
709.568570 86.256 172.4328
714.710396 86.247 172.4775
719.889483 86.237 172.5202
725.106099 86.227 172.5597
730.360516 86.216 172.5948
735.653010 86.204 172.6246
740.983855 86.191 172.6480
746.353329 86.177 172.6644
751.761713 86.161 172.6735
757.209288 86.143 172.6755
762.696339 86.124 172.6709
768.223151 86.102 172.6606
773.790013 86.078 172.6458
779.397214 86.053 172.6273
785.045047 86.026 172.6063
790.733808 85.997 172.5830
796.463791 85.968 172.5578
802.235296 85.937 172.5302
808.048623 85.907 172.4997
813.904077 85.875 172.4655
819.801961 85.843 172.4269
825.742584 85.811 172.3835
831.726255 85.777 172.3355
837.753287 85.742 172.2836
843.823992 85.706 172.2296
849.938689 85.667 172.1761
856.097695 85.627 172.1273
862.301332 85.583 172.0886
868.549922 85.536 172.0665
874.843793 85.487 172.0686
881.183272 85.435 172.1021
887.568689 85.382 172.1740
894.000378 85.329 172.2891
900.478673 85.278 172.4500
907.003913 85.230 172.6563
913.576437 85.187 172.9041
920.196588 85.150 173.1863
926.864712 85.121 173.4938
933.581156 85.101 173.8159
940.346270 85.089 174.1420
947.160407 85.086 174.4628
954.023921 85.090 174.7701
960.937172 85.103 175.0581
967.900519 85.121 175.3230
974.914325 85.145 175.5629
981.978956 85.175 175.7775
989.094780 85.208 175.9679
996.262169 85.245 176.1354
1003.481495 85.284 176.2821
1010.753136 85.327 176.4095
1018.077470 85.372 176.5195
1025.454879 85.418 176.6134
1032.885748 85.467 176.6927
1040.370463 85.516 176.7586
1047.909417 85.567 176.8127
1055.503000 85.619 176.8563
1063.151610 85.671 176.8911
1070.855645 85.724 176.9188
1078.615506 85.776 176.9408
1086.431599 85.830 176.9583
1094.304330 85.883 176.9718
1102.234110 85.936 176.9812
1110.221353 85.990 176.9861
1118.266475 86.043 176.9855
1126.369895 86.096 176.9790
1134.532035 86.149 176.9664
1142.753322 86.200 176.9479
1151.034184 86.251 176.9246
1159.375052 86.300 176.8973
1167.776361 86.347 176.8674
1176.238550 86.394 176.8357
1184.762060 86.439 176.8029
1193.347334 86.484 176.7696
1201.994821 86.528 176.7357
1210.704971 86.571 176.7012
1219.478238 86.613 176.6666
1228.315080 86.655 176.6322
1237.215957 86.696 176.5991
1246.181334 86.737 176.5683
1255.211678 86.778 176.5406
1264.307459 86.819 176.5165
1273.469152 86.861 176.4959
1282.697235 86.903 176.4781
1291.992188 86.945 176.4618
1301.354495 86.989 176.4454
1310.784647 87.033 176.4269
1320.283132 87.077 176.4044
1329.850448 87.121 176.3764
1339.487093 87.166 176.3421
1349.193569 87.210 176.3013
1358.970381 87.253 176.2549
1368.818041 87.295 176.2040
1378.737061 87.336 176.1509
1388.727958 87.376 176.0978
1398.791253 87.415 176.0472
1408.927471 87.454 176.0015
1419.137140 87.492 175.9626
1429.420793 87.531 175.9322
1439.778965 87.571 175.9119
1450.212197 87.612 175.9031
1460.721033 87.653 175.9071
1471.306019 87.697 175.9248
1481.967709 87.742 175.9561
1492.706658 87.789 175.9997
1503.523426 87.837 176.0538
1514.418576 87.888 176.1156
1525.392678 87.941 176.1819
1536.446302 87.994 176.2490
1547.580025 88.048 176.3136
1558.794428 88.101 176.3732
1570.090095 88.153 176.4262
1581.467615 88.203 176.4722
1592.927581 88.251 176.5118
1604.470591 88.294 176.5461
1616.097246 88.333 176.5774
1627.808153 88.368 176.6079
1639.603922 88.399 176.6407
1651.485168 88.424 176.6790
1663.452510 88.446 176.7258
1675.506573 88.464 176.7832
1687.647984 88.479 176.8522
1699.877377 88.491 176.9325
1712.195390 88.502 177.0228
1724.602663 88.511 177.1213
1737.099845 88.520 177.2260
1749.687587 88.527 177.3346
1762.366544 88.535 177.4450
1775.137379 88.541 177.5549
1788.000756 88.547 177.6624
1800.957346 88.552 177.7659
1814.007826 88.556 177.8646
1827.152874 88.559 177.9587
1840.393177 88.559 178.0499
1853.729425 88.557 178.1400
1867.162312 88.552 178.2315
1880.692540 88.545 178.3262
1894.320813 88.535 178.4252
1908.047843 88.523 178.5295
1921.874344 88.508 178.6392
1935.801038 88.491 178.7542
1949.828650 88.472 178.8737
1963.957912 88.451 178.9960
1978.189561 88.428 179.1192
1992.524338 88.403 179.2413
2006.962991 88.377 179.3614
2021.506272 88.348 179.4798
2036.154940 88.317 179.5979
2050.909758 88.284 179.7175
2065.771495 88.249 179.8404
2080.740927 88.213 179.9679
2095.818833 88.176 -179.8988
2111.006001 88.139 -179.7593
2126.303220 88.102 -179.6135
2141.711290 88.066 -179.4624
2157.231013 88.033 -179.3085
2172.863198 88.001 -179.1557
2188.608660 87.973 -179.0090
2204.468221 87.947 -178.8735
2220.442706 87.924 -178.7534
2236.532950 87.903 -178.6512
2252.739789 87.884 -178.5679
2269.064070 87.865 -178.5022
2285.506644 87.846 -178.4512
2302.068367 87.827 -178.4106
2318.750104 87.807 -178.3750
2335.552723 87.787 -178.3395
2352.477101 87.768 -178.2999
2369.524119 87.750 -178.2537
2386.694668 87.733 -178.2002
2403.989641 87.719 -178.1399
2421.409941 87.708 -178.0748
2438.956476 87.701 -178.0077
2456.630160 87.698 -177.9419
2474.431915 87.699 -177.8803
2492.362668 87.704 -177.8251
2510.423356 87.713 -177.7773
2528.614918 87.726 -177.7373
2546.938304 87.743 -177.7052
2565.394469 87.763 -177.6811
2583.984375 87.787 -177.6649
2602.708991 87.814 -177.6564
2621.569293 87.843 -177.6545
2640.566265 87.875 -177.6573
2659.700897 87.910 -177.6622
2678.974186 87.947 -177.6662
2698.387137 87.986 -177.6665
2717.940763 88.028 -177.6611
2737.636082 88.073 -177.6491
2757.474121 88.121 -177.6312
2777.455915 88.173 -177.6093
2797.582506 88.229 -177.5863
2817.854942 88.288 -177.5656
2838.274281 88.350 -177.5504
2858.841586 88.414 -177.5433
2879.557931 88.480 -177.5463
2900.424394 88.547 -177.5604
2921.442065 88.614 -177.5857
2942.612039 88.680 -177.6219
2963.935418 88.745 -177.6678
2985.413316 88.808 -177.7219
3007.046852 88.868 -177.7825
3028.837153 88.925 -177.8479
3050.785356 88.979 -177.9172
3072.892604 89.028 -177.9902
3095.160050 89.073 -178.0670
3117.588856 89.113 -178.1479
3140.180190 89.148 -178.2333
3162.935230 89.177 -178.3227
3185.855163 89.199 -178.4154
3208.941182 89.214 -178.5100
3232.194493 89.223 -178.6056
3255.616307 89.225 -178.7013
3279.207844 89.220 -178.7972
3302.970336 89.208 -178.8936
3326.905021 89.189 -178.9913
3351.013146 89.164 -179.0906
3375.295969 89.132 -179.1911
3399.754755 89.093 -179.2916
3424.390779 89.048 -179.3900
