* Measurement data measured by REW V5.31.3
* Source: EXCL: Headset (USB-C to 3.5mm Headphone Jack Adapter), MICROPHONE (Master Volume), 0, volume: 0.750
* Format: 256k Log Swept Sine, 1 sweep at -12.0 dBFS with no timing reference
* Dated: Apr 7, 2025 12:13:38 PM
* REW Settings:
*  C-weighting compensation: Off
*  Target level: 75.0 dB
* Note: ; 
* Measurement: HD6XX (Back) L1
* Smoothing: 1/6 octave
* Frequency Step: 96 ppo
* Start Frequency: 20.0 Hz
*
* Freq(Hz) SPL(dB) Phase(degrees)
20.187378 79.094 -98.2702
20.333664 79.128 -98.3256
20.481010 79.174 -98.3969
20.629424 79.230 -98.4787
20.778913 79.294 -98.5656
20.929486 79.364 -98.6530
21.081150 79.439 -98.7378
21.233912 79.518 -98.8183
21.387782 79.601 -98.8950
21.542767 79.686 -98.9698
21.698874 79.775 -99.0467
21.856113 79.866 -99.1307
22.014492 79.961 -99.2275
22.174018 80.058 -99.3436
22.334700 80.158 -99.4847
22.496546 80.260 -99.6561
22.659566 80.364 -99.8620
22.823766 80.469 -100.1050
22.989157 80.574 -100.3860
23.155745 80.678 -100.7043
23.323542 80.781 -101.0578
23.492554 80.881 -101.4428
23.662790 80.976 -101.8548
23.834261 81.067 -102.2882
24.006973 81.151 -102.7370
24.180938 81.227 -103.1951
24.356163 81.296 -103.6561
24.532658 81.355 -104.1137
24.710431 81.406 -104.5620
24.889493 81.447 -104.9954
25.069853 81.478 -105.4091
25.251519 81.502 -105.7991
25.434502 81.518 -106.1624
25.618811 81.528 -106.4976
25.804456 81.534 -106.8045
25.991445 81.537 -107.0844
26.179790 81.539 -107.3400
26.369500 81.541 -107.5748
26.560584 81.546 -107.7932
26.753053 81.554 -107.9994
26.946917 81.567 -108.1972
27.142185 81.584 -108.3897
27.338869 81.606 -108.5789
27.536977 81.633 -108.7663
27.736522 81.665 -108.9526
27.937512 81.702 -109.1390
28.139959 81.743 -109.3273
28.343872 81.788 -109.5205
28.549264 81.836 -109.7230
28.756143 81.887 -109.9404
28.964522 81.940 -110.1789
29.174411 81.994 -110.4446
29.385821 82.048 -110.7425
29.598763 82.101 -111.0756
29.813248 82.152 -111.4442
30.029287 82.201 -111.8458
30.246891 82.247 -112.2751
30.466073 82.290 -112.7251
30.686842 82.332 -113.1873
30.909212 82.373 -113.6535
31.133193 82.416 -114.1159
31.358797 82.460 -114.5685
31.586035 82.508 -115.0071
31.814921 82.561 -115.4291
32.045465 82.618 -115.8336
32.277680 82.681 -116.2205
32.511577 82.749 -116.5901
32.747169 82.822 -116.9428
32.984469 82.898 -117.2792
33.223488 82.979 -117.5999
33.464239 83.062 -117.9058
33.706735 83.149 -118.1989
33.950987 83.238 -118.4817
34.197010 83.329 -118.7580
34.444816 83.423 -119.0321
34.694417 83.519 -119.3090
34.945827 83.617 -119.5937
35.199059 83.716 -119.8908
35.454126 83.816 -120.2041
35.711041 83.916 -120.5364
35.969818 84.016 -120.8887
36.230470 84.115 -121.2606
36.493011 84.213 -121.6497
36.757455 84.307 -122.0517
37.023814 84.400 -122.4606
37.292104 84.488 -122.8695
37.562338 84.574 -123.2715
37.834530 84.657 -123.6604
38.108695 84.737 -124.0321
38.384846 84.815 -124.3850
38.662999 84.891 -124.7201
38.943167 84.965 -125.0406
39.225365 85.037 -125.3507
39.509608 85.107 -125.6547
39.795911 85.173 -125.9558
40.084289 85.236 -126.2559
40.374756 85.296 -126.5557
40.667328 85.352 -126.8556
40.962020 85.406 -127.1563
41.258848 85.458 -127.4595
41.557827 85.508 -127.7679
41.858972 85.557 -128.0843
42.162299 85.605 -128.4101
42.467824 85.652 -128.7448
42.775564 85.698 -129.0855
43.085533 85.741 -129.4269
43.397749 85.784 -129.7632
43.712227 85.825 -130.0893
44.028983 85.866 -130.4022
44.348036 85.907 -130.7015
44.669400 85.947 -130.9889
44.993093 85.988 -131.2672
45.319131 86.027 -131.5386
45.647532 86.066 -131.8040
45.978313 86.104 -132.0628
46.311491 86.141 -132.3132
46.647083 86.177 -132.5538
46.985107 86.213 -132.7840
47.325581 86.249 -133.0052
47.668521 86.286 -133.2208
48.013947 86.323 -133.4355
48.361876 86.359 -133.6550
48.712326 86.394 -133.8848
49.065315 86.428 -134.1299
49.420863 86.459 -134.3942
49.778987 86.489 -134.6811
50.139706 86.516 -134.9930
50.503039 86.541 -135.3309
50.869005 86.565 -135.6940
51.237623 86.587 -136.0785
51.608912 86.608 -136.4772
51.982891 86.626 -136.8803
52.359580 86.643 -137.2762
52.739000 86.657 -137.6542
53.121168 86.672 -138.0064
53.506106 86.686 -138.3294
53.893833 86.702 -138.6242
54.284370 86.719 -138.8954
54.677737 86.738 -139.1497
55.073955 86.760 -139.3936
55.473043 86.785 -139.6332
55.875024 86.812 -139.8728
56.279917 86.842 -140.1150
56.687745 86.875 -140.3607
57.098527 86.912 -140.6088
57.512287 86.951 -140.8572
57.929045 86.993 -141.1037
58.348822 87.036 -141.3474
58.771642 87.080 -141.5890
59.197525 87.123 -141.8309
59.626495 87.163 -142.0761
60.058573 87.201 -142.3271
60.493782 87.236 -142.5858
60.932145 87.269 -142.8531
61.373685 87.302 -143.1299
61.818424 87.335 -143.4171
62.266386 87.371 -143.7147
62.717593 87.410 -144.0220
63.172071 87.452 -144.3365
63.629842 87.497 -144.6546
64.090930 87.545 -144.9728
64.555359 87.595 -145.2876
65.023154 87.647 -145.5969
65.494339 87.700 -145.8998
65.968938 87.754 -146.1974
66.446976 87.809 -146.4921
66.928478 87.865 -146.7880
67.413469 87.919 -147.0894
67.901975 87.974 -147.4000
68.394021 88.027 -147.7218
68.889632 88.079 -148.0547
69.388835 88.129 -148.3965
69.891655 88.178 -148.7441
70.398118 88.224 -149.0941
70.908252 88.268 -149.4438
71.422083 88.308 -149.7915
71.939636 88.345 -150.1365
72.460941 88.379 -150.4789
72.986023 88.409 -150.8192
73.514909 88.436 -151.1579
74.047629 88.460 -151.4960
74.584208 88.481 -151.8343
75.124676 88.499 -152.1730
75.669061 88.515 -152.5121
76.217390 88.529 -152.8508
76.769692 88.540 -153.1879
77.325997 88.550 -153.5225
77.886333 88.558 -153.8532
78.450730 88.564 -154.1795
79.019216 88.569 -154.5009
79.591822 88.572 -154.8177
80.168577 88.575 -155.1307
80.749512 88.576 -155.4409
81.334656 88.576 -155.7498
81.924040 88.576 -156.0585
82.517696 88.576 -156.3679
83.115653 88.576 -156.6783
83.717943 88.577 -156.9896
84.324598 88.577 -157.3012
84.935649 88.578 -157.6124
85.551128 88.579 -157.9221
86.171066 88.581 -158.2294
86.795497 88.583 -158.5340
87.424453 88.585 -158.8356
88.057967 88.586 -159.1349
88.696071 88.588 -159.4325
89.338800 88.590 -159.7290
89.986185 88.591 -160.0251
90.638262 88.593 -160.3208
91.295065 88.593 -160.6160
91.956626 88.594 -160.9106
92.622982 88.593 -161.2040
93.294166 88.592 -161.4960
93.970214 88.591 -161.7860
94.651161 88.589 -162.0735
95.337042 88.587 -162.3577
96.027894 88.585 -162.6380
96.723752 88.583 -162.9141
97.424652 88.581 -163.1858
98.130631 88.580 -163.4528
98.841726 88.579 -163.7152
99.557974 88.580 -163.9731
100.279412 88.582 -164.2272
101.006078 88.585 -164.4788
101.738010 88.589 -164.7297
102.475245 88.594 -164.9821
103.217823 88.601 -165.2375
103.965782 88.607 -165.4973
104.719161 88.614 -165.7619
105.477999 88.620 -166.0312
106.242336 88.625 -166.3042
107.012212 88.630 -166.5793
107.787666 88.635 -166.8542
108.568740 88.640 -167.1266
109.355474 88.645 -167.3951
110.147909 88.651 -167.6589
110.946086 88.658 -167.9180
111.750047 88.666 -168.1728
112.559834 88.676 -168.4242
113.375489 88.686 -168.6726
114.197055 88.697 -168.9185
115.024574 88.707 -169.1622
115.858089 88.718 -169.4042
116.697645 88.728 -169.6456
117.543284 88.737 -169.8875
118.395051 88.747 -170.1318
119.252990 88.756 -170.3800
120.117147 88.766 -170.6334
120.987565 88.775 -170.8924
121.864291 88.784 -171.1565
122.747370 88.792 -171.4247
123.636848 88.801 -171.6952
124.532771 88.809 -171.9665
125.435187 88.817 -172.2372
126.344142 88.824 -172.5062
127.259684 88.831 -172.7730
128.181860 88.838 -173.0374
129.110718 88.843 -173.2990
130.046308 88.848 -173.5573
130.988677 88.851 -173.8116
131.937875 88.853 -174.0612
132.893951 88.854 -174.3055
133.856956 88.853 -174.5437
134.826938 88.850 -174.7761
135.803950 88.846 -175.0030
136.788041 88.840 -175.2254
137.779264 88.833 -175.4443
138.777669 88.824 -175.6608
139.783309 88.813 -175.8757
140.796237 88.802 -176.0899
141.816504 88.789 -176.3040
142.844165 88.775 -176.5187
143.879273 88.759 -176.7345
144.921881 88.742 -176.9516
145.972045 88.724 -177.1703
147.029819 88.705 -177.3905
148.095257 88.685 -177.6119
149.168417 88.664 -177.8344
150.249353 88.643 -178.0577
151.338121 88.621 -178.2818
152.434780 88.598 -178.5063
153.539385 88.576 -178.7309
154.651995 88.554 -178.9552
155.772667 88.532 -179.1789
156.901460 88.511 -179.4013
158.038432 88.490 -179.6216
159.183644 88.470 -179.8391
160.337154 88.451 179.9473
161.499023 88.432 179.7383
162.669312 88.414 179.5345
163.848081 88.396 179.3365
165.035392 88.378 179.1443
166.231306 88.361 178.9578
167.435887 88.344 178.7761
168.649196 88.326 178.5982
169.871298 88.308 178.4229
171.102255 88.291 178.2491
172.342133 88.273 178.0757
173.590995 88.255 177.9025
174.848907 88.237 177.7290
176.115934 88.219 177.5556
177.392143 88.201 177.3826
178.677599 88.181 177.2104
179.972371 88.161 177.0393
181.276525 88.141 176.8693
182.590129 88.119 176.7004
183.913252 88.096 176.5327
185.245964 88.072 176.3665
186.588332 88.048 176.2023
187.940428 88.023 176.0408
189.302322 87.997 175.8827
190.674085 87.971 175.7283
192.055788 87.945 175.5779
193.447503 87.918 175.4314
194.849303 87.891 175.2884
196.261262 87.865 175.1486
197.683452 87.838 175.0120
199.115948 87.812 174.8785
200.558824 87.787 174.7484
202.012156 87.762 174.6211
203.476019 87.737 174.4960
204.950490 87.712 174.3721
206.435646 87.687 174.2487
207.931564 87.662 174.1251
209.438322 87.637 174.0009
210.955998 87.611 173.8759
212.484672 87.587 173.7504
214.024424 87.562 173.6250
215.575333 87.537 173.5005
217.137481 87.514 173.3781
218.710948 87.490 173.2587
220.295818 87.468 173.1433
221.892172 87.446 173.0322
223.500094 87.425 172.9253
225.119668 87.405 172.8222
226.750978 87.386 172.7220
228.394109 87.368 172.6240
230.049147 87.352 172.5276
231.716178 87.336 172.4326
233.395289 87.322 172.3390
235.086567 87.310 172.2463
236.790102 87.299 172.1539
238.505980 87.289 172.0612
240.234293 87.281 171.9671
241.975130 87.274 171.8713
243.728581 87.268 171.7736
245.494739 87.263 171.6746
247.273695 87.258 171.5750
249.065542 87.253 171.4758
250.870374 87.249 171.3780
252.688284 87.246 171.2822
254.519367 87.242 171.1889
256.363720 87.239 171.0984
258.221437 87.235 171.0108
260.092616 87.232 170.9264
261.977354 87.228 170.8449
263.875750 87.223 170.7661
265.787903 87.218 170.6891
267.713911 87.213 170.6136
269.653877 87.207 170.5388
271.607900 87.201 170.4643
273.576083 87.195 170.3902
275.558528 87.189 170.3172
277.555338 87.184 170.2465
279.566619 87.178 170.1793
281.592474 87.172 170.1166
283.633009 87.166 170.0591
285.688331 87.161 170.0070
287.758546 87.155 169.9602
289.843763 87.150 169.9178
291.944090 87.145 169.8792
294.059638 87.141 169.8432
296.190515 87.136 169.8091
298.336833 87.132 169.7761
300.498705 87.129 169.7433
302.676243 87.126 169.7102
304.869559 87.124 169.6764
307.078770 87.122 169.6419
309.303989 87.120 169.6069
311.545334 87.119 169.5714
313.802919 87.118 169.5358
316.076865 87.117 169.5005
318.367288 87.117 169.4662
320.674309 87.116 169.4335
322.998047 87.117 169.4033
325.338624 87.117 169.3758
327.696162 87.118 169.3511
330.070783 87.118 169.3286
332.462612 87.119 169.3076
334.871773 87.119 169.2867
337.298392 87.119 169.2652
339.742595 87.118 169.2425
342.204510 87.116 169.2189
344.684265 87.113 169.1950
347.181989 87.109 169.1719
349.697813 87.104 169.1505
352.231868 87.098 169.1317
354.784285 87.091 169.1157
357.355198 87.083 169.1027
359.944741 87.074 169.0924
362.553049 87.065 169.0840
365.180258 87.055 169.0772
367.826505 87.043 169.0715
370.491927 87.031 169.0668
373.176665 87.017 169.0634
375.880856 87.003 169.0613
378.604644 86.988 169.0608
381.348169 86.973 169.0618
384.111575 86.957 169.0643
386.895006 86.940 169.0684
389.698607 86.924 169.0742
392.522524 86.906 169.0815
395.366904 86.889 169.0901
398.231895 86.871 169.0997
401.117648 86.853 169.1099
404.024312 86.834 169.1202
406.952038 86.815 169.1304
409.900981 86.795 169.1402
412.871292 86.774 169.1494
415.863128 86.752 169.1582
418.876643 86.730 169.1663
421.911996 86.706 169.1736
424.969344 86.682 169.1796
428.048847 86.657 169.1840
431.150666 86.630 169.1871
434.274961 86.602 169.1894
437.421897 86.573 169.1921
440.591636 86.543 169.1965
443.784345 86.511 169.2038
447.000189 86.478 169.2150
450.239337 86.443 169.2308
453.501956 86.407 169.2512
456.788219 86.371 169.2760
460.098294 86.333 169.3047
463.432356 86.295 169.3367
466.790578 86.257 169.3716
470.173135 86.219 169.4086
473.580203 86.182 169.4473
477.011961 86.146 169.4868
480.468586 86.111 169.5264
483.950259 86.078 169.5656
487.457163 86.047 169.6035
490.989478 86.017 169.6397
494.547390 85.990 169.6738
498.131084 85.964 169.7055
501.740748 85.939 169.7350
505.376568 85.916 169.7627
509.038735 85.894 169.7889
512.727439 85.873 169.8141
516.442874 85.854 169.8388
520.185232 85.837 169.8633
523.954708 85.821 169.8882
527.751500 85.808 169.9142
531.575805 85.796 169.9422
535.427822 85.786 169.9730
539.307753 85.778 170.0069
543.215800 85.772 170.0441
547.152165 85.767 170.0843
551.117055 85.764 170.1273
555.110677 85.763 170.1730
559.133237 85.763 170.2216
563.184947 85.764 170.2731
567.266018 85.766 170.3278
571.376661 85.770 170.3859
575.517092 85.775 170.4476
579.687526 85.781 170.5127
583.888181 85.788 170.5807
588.119275 85.796 170.6511
592.381030 85.805 170.7228
596.673667 85.814 170.7951
600.997410 85.823 170.8671
605.352485 85.832 170.9381
609.739119 85.840 171.0077
614.157540 85.849 171.0757
618.607979 85.856 171.1417
623.090667 85.862 171.2057
627.605839 85.867 171.2676
632.153730 85.870 171.3275
636.734576 85.872 171.3856
641.348617 85.871 171.4425
645.996094 85.870 171.4988
650.677248 85.866 171.5556
655.392323 85.861 171.6136
660.141566 85.855 171.6734
664.925224 85.849 171.7351
669.743546 85.841 171.7986
674.596784 85.833 171.8636
679.485191 85.824 171.9298
684.409020 85.814 171.9969
689.368530 85.804 172.0650
694.363979 85.793 172.1342
699.395626 85.781 172.2048
704.463736 85.767 172.2773
709.568570 85.753 172.3519
714.710396 85.738 172.4291
719.889483 85.721 172.5086
725.106099 85.704 172.5902
730.360516 85.685 172.6730
735.653010 85.666 172.7560
740.983855 85.646 172.8382
746.353329 85.626 172.9186
751.761713 85.604 172.9966
757.209288 85.582 173.0716
762.696339 85.559 173.1429
768.223151 85.536 173.2101
773.790013 85.512 173.2726
779.397214 85.488 173.3301
785.045047 85.463 173.3824
790.733808 85.438 173.4289
796.463791 85.413 173.4691
802.235296 85.388 173.5024
808.048623 85.363 173.5278
813.904077 85.337 173.5448
819.801961 85.312 173.5530
825.742584 85.285 173.5522
831.726255 85.258 173.5430
837.753287 85.229 173.5262
843.823992 85.200 173.5034
849.938689 85.168 173.4768
856.097695 85.134 173.4497
862.301332 85.098 173.4264
868.549922 85.060 173.4125
874.843793 85.019 173.4142
881.183272 84.975 173.4382
887.568689 84.930 173.4905
894.000378 84.884 173.5759
900.478673 84.839 173.6974
907.003913 84.795 173.8557
913.576437 84.754 174.0493
920.196588 84.718 174.2744
926.864712 84.687 174.5257
933.581156 84.663 174.7966
940.346270 84.645 175.0800
947.160407 84.636 175.3685
954.023921 84.633 175.6553
960.937172 84.638 175.9345
967.900519 84.649 176.2013
974.914325 84.666 176.4526
981.978956 84.688 176.6866
989.094780 84.715 176.9028
996.262169 84.747 177.1016
1003.481495 84.782 177.2839
1010.753136 84.820 177.4508
1018.077470 84.861 177.6033
1025.454879 84.905 177.7422
1032.885748 84.951 177.8679
1040.370463 84.999 177.9807
1047.909417 85.049 178.0804
1055.503000 85.100 178.1672
1063.151610 85.153 178.2416
1070.855645 85.205 178.3046
1078.615506 85.258 178.3576
1086.431599 85.311 178.4025
1094.304330 85.363 178.4411
1102.234110 85.415 178.4752
1110.221353 85.466 178.5060
1118.266475 85.517 178.5343
1126.369895 85.568 178.5604
1134.532035 85.618 178.5838
1142.753322 85.668 178.6040
1151.034184 85.716 178.6205
1159.375052 85.764 178.6331
1167.776361 85.812 178.6425
1176.238550 85.857 178.6498
1184.762060 85.902 178.6566
1193.347334 85.946 178.6648
1201.994821 85.990 178.6758
1210.704971 86.033 178.6909
1219.478238 86.076 178.7099
1228.315080 86.119 178.7324
1237.215957 86.164 178.7571
1246.181334 86.208 178.7823
1255.211678 86.254 178.8065
1264.307459 86.300 178.8282
1273.469152 86.347 178.8463
1282.697235 86.394 178.8599
1291.992188 86.442 178.8686
1301.354495 86.490 178.8719
1310.784647 86.537 178.8694
1320.283132 86.584 178.8611
1329.850448 86.631 178.8470
1339.487093 86.677 178.8277
1349.193569 86.722 178.8042
1358.970381 86.766 178.7781
1368.818041 86.809 178.7513
1378.737061 86.852 178.7263
1388.727958 86.894 178.7048
1398.791253 86.936 178.6885
1408.927471 86.978 178.6781
1419.137140 87.021 178.6735
1429.420793 87.064 178.6736
1439.778965 87.109 178.6776
1450.212197 87.154 178.6848
1460.721033 87.201 178.6956
1471.306019 87.247 178.7109
1481.967709 87.294 178.7320
1492.706658 87.341 178.7603
1503.523426 87.388 178.7968
1514.418576 87.434 178.8425
1525.392678 87.480 178.8983
1536.446302 87.525 178.9655
1547.580025 87.568 179.0457
1558.794428 87.610 179.1402
1570.090095 87.651 179.2498
1581.467615 87.690 179.3744
1592.927581 87.727 179.5131
1604.470591 87.764 179.6642
1616.097246 87.799 179.8255
1627.808153 87.833 179.9942
1639.603922 87.866 -179.8327
1651.485168 87.898 -179.6586
1663.452510 87.929 -179.4866
1675.506573 87.958 -179.3193
1687.647984 87.985 -179.1584
1699.877377 88.010 -179.0047
1712.195390 88.033 -178.8576
1724.602663 88.053 -178.7159
1737.099845 88.070 -178.5770
1749.687587 88.084 -178.4368
1762.366544 88.095 -178.2908
1775.137379 88.104 -178.1340
1788.000756 88.111 -177.9626
1800.957346 88.117 -177.7747
1814.007826 88.122 -177.5705
1827.152874 88.128 -177.3522
1840.393177 88.135 -177.1232
1853.729425 88.143 -176.8881
1867.162312 88.153 -176.6519
1880.692540 88.163 -176.4198
1894.320813 88.175 -176.1970
1908.047843 88.187 -175.9880
1921.874344 88.198 -175.7958
1935.801038 88.209 -175.6219
1949.828650 88.217 -175.4656
1963.957912 88.222 -175.3250
1978.189561 88.225 -175.1977
1992.524338 88.224 -175.0807
2006.962991 88.219 -174.9714
2021.506272 88.212 -174.8673
2036.154940 88.202 -174.7662
2050.909758 88.189 -174.6658
2065.771495 88.174 -174.5643
2080.740927 88.158 -174.4604
2095.818833 88.142 -174.3546
2111.006001 88.125 -174.2484
2126.303220 88.110 -174.1451
2141.711290 88.095 -174.0480
2157.231013 88.082 -173.9603
2172.863198 88.071 -173.8848
2188.608660 88.061 -173.8236
2204.468221 88.052 -173.7781
2220.442706 88.044 -173.7486
2236.532950 88.036 -173.7339
2252.739789 88.027 -173.7315
2269.064070 88.019 -173.7383
2285.506644 88.011 -173.7511
2302.068367 88.003 -173.7673
2318.750104 87.995 -173.7849
2335.552723 87.989 -173.8027
2352.477101 87.984 -173.8205
2369.524119 87.981 -173.8388
2386.694668 87.980 -173.8594
2403.989641 87.982 -173.8844
2421.409941 87.987 -173.9162
2438.956476 87.996 -173.9565
2456.630160 88.006 -174.0060
2474.431915 88.020 -174.0648
2492.362668 88.037 -174.1322
2510.423356 88.056 -174.2075
2528.614918 88.078 -174.2900
2546.938304 88.103 -174.3790
2565.394469 88.130 -174.4741
2583.984375 88.160 -174.5748
2602.708991 88.193 -174.6803
2621.569293 88.228 -174.7896
2640.566265 88.266 -174.9012
2659.700897 88.307 -175.0138
2678.974186 88.350 -175.1265
2698.387137 88.396 -175.2390
2717.940763 88.445 -175.3521
2737.636082 88.497 -175.4668
2757.474121 88.552 -175.5848
2777.455915 88.610 -175.7077
2797.582506 88.670 -175.8372
2817.854942 88.732 -175.9751
2838.274281 88.795 -176.1224
2858.841586 88.859 -176.2802
2879.557931 88.924 -176.4492
2900.424394 88.989 -176.6296
2921.442065 89.052 -176.8214
2942.612039 89.113 -177.0239
2963.935418 89.172 -177.2357
2985.413316 89.227 -177.4549
3007.046852 89.278 -177.6790
3028.837153 89.325 -177.9055
3050.785356 89.367 -178.1324
3072.892604 89.404 -178.3578
3095.160050 89.435 -178.5807
3117.588856 89.461 -178.8012
3140.180190 89.481 -179.0196
3162.935230 89.495 -179.2363
3185.855163 89.502 -179.4517
3208.941182 89.502 -179.6657
3232.194493 89.494 -179.8780
3255.616307 89.479 179.9124
3279.207844 89.456 179.7065
3302.970336 89.426 179.5057
3326.905021 89.388 179.3109
3351.013146 89.342 179.1231
3375.295969 89.289 178.9431
