* Measurement data measured by REW V5.31.3
* Source: EXCL: Headset (USB-C to 3.5mm Headphone Jack Adapter), MICROPHONE (Master Volume), 0, volume: 0.750
* Format: 256k Log Swept Sine, 1 sweep at -12.0 dBFS with no timing reference
* Dated: Apr 7, 2025 5:24:56 PM
* REW Settings:
*  C-weighting compensation: Off
*  Target level: 75.0 dB
* Note: ; 
* Measurement: HD 6XX (Soulwit) L5
* Smoothing: 1/6 octave
* Frequency Step: 96 ppo
* Start Frequency: 20.0 Hz
*
* Freq(Hz) SPL(dB) Phase(degrees)
20.187378 74.736 -104.2288
20.333664 74.783 -104.3907
20.481010 74.846 -104.6113
20.629424 74.925 -104.8884
20.778913 75.016 -105.2190
20.929486 75.120 -105.5988
21.081150 75.233 -106.0218
21.233912 75.354 -106.4807
21.387782 75.480 -106.9671
21.542767 75.608 -107.4714
21.698874 75.738 -107.9836
21.856113 75.865 -108.4934
22.014492 75.988 -108.9910
22.174018 76.106 -109.4673
22.334700 76.216 -109.9141
22.496546 76.318 -110.3251
22.659566 76.410 -110.6957
22.823766 76.492 -111.0239
22.989157 76.564 -111.3103
23.155745 76.627 -111.5588
23.323542 76.681 -111.7763
23.492554 76.727 -111.9732
23.662790 76.769 -112.1624
23.834261 76.805 -112.3592
24.006973 76.840 -112.5799
24.180938 76.873 -112.8403
24.356163 76.905 -113.1541
24.532658 76.938 -113.5316
24.710431 76.971 -113.9779
24.889493 77.004 -114.4926
25.069853 77.037 -115.0690
25.251519 77.069 -115.6949
25.434502 77.100 -116.3534
25.618811 77.129 -117.0247
25.804456 77.157 -117.6877
25.991445 77.183 -118.3224
26.179790 77.209 -118.9111
26.369500 77.234 -119.4405
26.560584 77.260 -119.9024
26.753053 77.287 -120.2940
26.946917 77.316 -120.6179
27.142185 77.346 -120.8809
27.338869 77.378 -121.0937
27.536977 77.413 -121.2687
27.736522 77.449 -121.4195
27.937512 77.487 -121.5592
28.139959 77.527 -121.7006
28.343872 77.569 -121.8548
28.549264 77.612 -122.0317
28.756143 77.658 -122.2393
28.964522 77.706 -122.4838
29.174411 77.756 -122.7691
29.385821 77.808 -123.0967
29.598763 77.860 -123.4650
29.813248 77.913 -123.8696
30.029287 77.964 -124.3030
30.246891 78.015 -124.7554
30.466073 78.063 -125.2155
30.686842 78.110 -125.6718
30.909212 78.155 -126.1138
31.133193 78.200 -126.5332
31.358797 78.246 -126.9253
31.586035 78.293 -127.2889
31.814921 78.345 -127.6264
32.045465 78.401 -127.9433
32.277680 78.462 -128.2466
32.511577 78.528 -128.5436
32.747169 78.600 -128.8407
32.984469 78.676 -129.1423
33.223488 78.756 -129.4502
33.464239 78.839 -129.7645
33.706735 78.925 -130.0836
33.950987 79.013 -130.4054
34.197010 79.103 -130.7284
34.444816 79.195 -131.0524
34.694417 79.287 -131.3783
34.945827 79.381 -131.7085
35.199059 79.474 -132.0459
35.454126 79.566 -132.3934
35.711041 79.657 -132.7528
35.969818 79.745 -133.1246
36.230470 79.832 -133.5078
36.493011 79.916 -133.9000
36.757455 79.998 -134.2981
37.023814 80.078 -134.6990
37.292104 80.158 -135.1001
37.562338 80.237 -135.4999
37.834530 80.316 -135.8983
38.108695 80.394 -136.2959
38.384846 80.472 -136.6941
38.662999 80.549 -137.0936
38.943167 80.623 -137.4943
39.225365 80.693 -137.8950
39.509608 80.760 -138.2928
39.795911 80.821 -138.6842
40.084289 80.878 -139.0651
40.374756 80.931 -139.4326
40.667328 80.981 -139.7852
40.962020 81.030 -140.1232
41.258848 81.080 -140.4486
41.557827 81.130 -140.7643
41.858972 81.182 -141.0728
42.162299 81.236 -141.3758
42.467824 81.292 -141.6733
42.775564 81.348 -141.9641
43.085533 81.405 -142.2466
43.397749 81.461 -142.5195
43.712227 81.516 -142.7830
44.028983 81.569 -143.0388
44.348036 81.620 -143.2894
44.669400 81.668 -143.5384
44.993093 81.713 -143.7889
45.319131 81.755 -144.0440
45.647532 81.795 -144.3063
45.978313 81.833 -144.5786
46.311491 81.870 -144.8636
46.647083 81.907 -145.1635
46.985107 81.943 -145.4794
47.325581 81.979 -145.8106
47.668521 82.014 -146.1541
48.013947 82.047 -146.5056
48.361876 82.078 -146.8599
48.712326 82.106 -147.2128
49.065315 82.132 -147.5614
49.420863 82.156 -147.9049
49.778987 82.178 -148.2442
50.139706 82.198 -148.5807
50.503039 82.217 -148.9160
50.869005 82.236 -149.2512
51.237623 82.254 -149.5873
51.608912 82.274 -149.9251
51.982891 82.294 -150.2660
52.359580 82.315 -150.6122
52.739000 82.338 -150.9665
53.121168 82.362 -151.3324
53.506106 82.387 -151.7138
53.893833 82.413 -152.1142
54.284370 82.441 -152.5375
54.677737 82.471 -152.9874
55.073955 82.502 -153.4692
55.473043 82.534 -153.9892
55.875024 82.568 -154.5548
56.279917 82.604 -155.1729
56.687745 82.642 -155.8474
57.098527 82.683 -156.5770
57.512287 82.726 -157.3517
57.929045 82.772 -158.1515
58.348822 82.819 -158.9458
58.771642 82.866 -159.6948
59.197525 82.911 -160.3550
59.626495 82.952 -160.8876
60.058573 82.987 -161.2678
60.493782 83.017 -161.4926
60.932145 83.044 -161.5824
61.373685 83.069 -161.5761
61.818424 83.094 -161.5207
62.266386 83.121 -161.4607
62.717593 83.149 -161.4305
63.172071 83.182 -161.4508
63.629842 83.217 -161.5305
64.090930 83.257 -161.6692
64.555359 83.300 -161.8612
65.023154 83.345 -162.0982
65.494339 83.392 -162.3721
65.968938 83.439 -162.6755
66.446976 83.486 -163.0022
66.928478 83.533 -163.3469
67.413469 83.579 -163.7048
67.901975 83.625 -164.0715
68.394021 83.669 -164.4437
68.889632 83.713 -164.8186
69.388835 83.754 -165.1943
69.891655 83.795 -165.5691
70.398118 83.833 -165.9418
70.908252 83.869 -166.3114
71.422083 83.903 -166.6770
71.939636 83.935 -167.0382
72.460941 83.964 -167.3950
72.986023 83.990 -167.7479
73.514909 84.014 -168.0983
74.047629 84.036 -168.4483
74.584208 84.055 -168.7999
75.124676 84.073 -169.1552
75.669061 84.089 -169.5160
76.217390 84.102 -169.8830
76.769692 84.114 -170.2565
77.325997 84.124 -170.6362
77.886333 84.133 -171.0218
78.450730 84.140 -171.4123
79.019216 84.147 -171.8066
79.591822 84.153 -172.2033
80.168577 84.158 -172.6003
80.749512 84.163 -172.9958
81.334656 84.167 -173.3880
81.924040 84.171 -173.7757
82.517696 84.175 -174.1588
83.115653 84.179 -174.5375
83.717943 84.182 -174.9124
84.324598 84.184 -175.2842
84.935649 84.186 -175.6535
85.551128 84.187 -176.0205
86.171066 84.188 -176.3858
86.795497 84.188 -176.7499
87.424453 84.188 -177.1136
88.057967 84.187 -177.4777
88.696071 84.185 -177.8430
89.338800 84.183 -178.2099
89.986185 84.180 -178.5785
90.638262 84.177 -178.9486
91.295065 84.173 -179.3201
91.956626 84.169 -179.6926
92.622982 84.164 179.9340
93.294166 84.159 179.5599
93.970214 84.153 179.1854
94.651161 84.148 178.8108
95.337042 84.142 178.4367
96.027894 84.136 178.0638
96.723752 84.130 177.6926
97.424652 84.125 177.3234
98.130631 84.120 176.9562
98.841726 84.116 176.5906
99.557974 84.113 176.2265
100.279412 84.111 175.8636
101.006078 84.110 175.5020
101.738010 84.110 175.1417
102.475245 84.110 174.7825
103.217823 84.110 174.4244
103.965782 84.112 174.0670
104.719161 84.114 173.7099
105.477999 84.116 173.3528
106.242336 84.119 172.9963
107.012212 84.123 172.6412
107.787666 84.127 172.2885
108.568740 84.133 171.9391
109.355474 84.140 171.5933
110.147909 84.148 171.2512
110.946086 84.157 170.9125
111.750047 84.167 170.5766
112.559834 84.177 170.2430
113.375489 84.188 169.9112
114.197055 84.199 169.5808
115.024574 84.211 169.2518
115.858089 84.222 168.9241
116.697645 84.234 168.5978
117.543284 84.245 168.2723
118.395051 84.255 167.9468
119.252990 84.265 167.6203
120.117147 84.273 167.2919
120.987565 84.280 166.9612
121.864291 84.286 166.6282
122.747370 84.291 166.2932
123.636848 84.294 165.9566
124.532771 84.297 165.6188
125.435187 84.299 165.2803
126.344142 84.299 164.9415
127.259684 84.299 164.6034
128.181860 84.299 164.2670
129.110718 84.297 163.9333
130.046308 84.295 163.6036
130.988677 84.292 163.2785
131.937875 84.289 162.9581
132.893951 84.285 162.6422
133.856956 84.281 162.3301
134.826938 84.276 162.0211
135.803950 84.271 161.7139
136.788041 84.264 161.4074
137.779264 84.256 161.1008
138.777669 84.246 160.7933
139.783309 84.235 160.4848
140.796237 84.222 160.1750
141.816504 84.208 159.8640
142.844165 84.193 159.5519
143.879273 84.176 159.2392
144.921881 84.159 158.9265
145.972045 84.141 158.6144
147.029819 84.122 158.3038
148.095257 84.103 157.9951
149.168417 84.083 157.6887
150.249353 84.064 157.3848
151.338121 84.044 157.0831
152.434780 84.024 156.7833
153.539385 84.005 156.4847
154.651995 83.985 156.1870
155.772667 83.966 155.8900
156.901460 83.947 155.5936
158.038432 83.929 155.2982
159.183644 83.910 155.0037
160.337154 83.892 154.7105
161.499023 83.874 154.4185
162.669312 83.856 154.1282
163.848081 83.838 153.8397
165.035392 83.820 153.5536
166.231306 83.802 153.2704
167.435887 83.783 152.9905
168.649196 83.764 152.7145
169.871298 83.745 152.4426
171.102255 83.725 152.1750
172.342133 83.706 151.9113
173.590995 83.686 151.6507
174.848907 83.666 151.3917
176.115934 83.645 151.1316
177.392143 83.625 150.8674
178.677599 83.606 150.5953
179.972371 83.586 150.3127
181.276525 83.567 150.0181
182.590129 83.549 149.7126
183.913252 83.530 149.3989
185.245964 83.512 149.0805
186.588332 83.493 148.7609
187.940428 83.474 148.4430
189.302322 83.454 148.1291
190.674085 83.435 147.8210
192.055788 83.414 147.5197
193.447503 83.393 147.2254
194.849303 83.372 146.9378
196.261262 83.350 146.6564
197.683452 83.327 146.3806
199.115948 83.304 146.1104
200.558824 83.280 145.8456
202.012156 83.256 145.5863
203.476019 83.230 145.3322
204.950490 83.204 145.0825
206.435646 83.177 144.8363
207.931564 83.149 144.5927
209.438322 83.121 144.3513
210.955998 83.093 144.1118
212.484672 83.065 143.8747
214.024424 83.037 143.6403
215.575333 83.010 143.4091
217.137481 82.984 143.1813
218.710948 82.959 142.9568
220.295818 82.936 142.7352
221.892172 82.914 142.5157
223.500094 82.893 142.2978
225.119668 82.874 142.0806
226.750978 82.857 141.8636
228.394109 82.841 141.6463
230.049147 82.827 141.4286
231.716178 82.815 141.2101
233.395289 82.804 140.9905
235.086567 82.795 140.7690
236.790102 82.787 140.5453
238.505980 82.780 140.3191
240.234293 82.774 140.0903
241.975130 82.768 139.8594
243.728581 82.763 139.6271
245.494739 82.758 139.3940
247.273695 82.753 139.1604
249.065542 82.749 138.9269
250.870374 82.744 138.6938
252.688284 82.739 138.4617
254.519367 82.734 138.2311
256.363720 82.729 138.0026
258.221437 82.724 137.7769
260.092616 82.718 137.5544
261.977354 82.712 137.3351
263.875750 82.706 137.1187
265.787903 82.699 136.9046
267.713911 82.692 136.6920
269.653877 82.685 136.4801
271.607900 82.678 136.2681
273.576083 82.671 136.0557
275.558528 82.664 135.8430
277.555338 82.658 135.6301
279.566619 82.652 135.4179
281.592474 82.647 135.2074
283.633009 82.642 134.9993
285.688331 82.637 134.7939
287.758546 82.631 134.5912
289.843763 82.626 134.3908
291.944090 82.621 134.1918
294.059638 82.615 133.9935
296.190515 82.610 133.7949
298.336833 82.606 133.5956
300.498705 82.602 133.3953
302.676243 82.598 133.1944
304.869559 82.595 132.9937
307.078770 82.593 132.7938
309.303989 82.591 132.5955
311.545334 82.589 132.3994
313.802919 82.588 132.2059
316.076865 82.587 132.0152
318.367288 82.586 131.8274
320.674309 82.585 131.6426
322.998047 82.584 131.4604
325.338624 82.583 131.2805
327.696162 82.583 131.1025
330.070783 82.582 130.9261
332.462612 82.580 130.7515
334.871773 82.579 130.5791
337.298392 82.576 130.4095
339.742595 82.574 130.2430
342.204510 82.570 130.0797
344.684265 82.565 129.9189
347.181989 82.560 129.7599
349.697813 82.553 129.6019
352.231868 82.545 129.4438
354.784285 82.536 129.2851
357.355198 82.526 129.1249
359.944741 82.516 128.9631
362.553049 82.504 128.7996
365.180258 82.492 128.6350
367.826505 82.479 128.4701
370.491927 82.465 128.3057
373.176665 82.451 128.1424
375.880856 82.436 127.9808
378.604644 82.420 127.8211
381.348169 82.404 127.6634
384.111575 82.388 127.5079
386.895006 82.371 127.3545
389.698607 82.353 127.2030
392.522524 82.336 127.0528
395.366904 82.319 126.9031
398.231895 82.301 126.7531
401.117648 82.283 126.6023
404.024312 82.265 126.4504
406.952038 82.247 126.2977
409.900981 82.228 126.1443
412.871292 82.208 125.9906
415.863128 82.187 125.8365
418.876643 82.165 125.6818
421.911996 82.142 125.5267
424.969344 82.118 125.3716
428.048847 82.091 125.2169
431.150666 82.064 125.0636
434.274961 82.034 124.9124
437.421897 82.004 124.7640
440.591636 81.972 124.6188
443.784345 81.939 124.4768
447.000189 81.905 124.3379
450.239337 81.870 124.2018
453.501956 81.834 124.0681
456.788219 81.798 123.9359
460.098294 81.762 123.8050
463.432356 81.726 123.6749
466.790578 81.690 123.5454
470.173135 81.654 123.4165
473.580203 81.620 123.2882
477.011961 81.586 123.1607
480.468586 81.552 123.0339
483.950259 81.520 122.9078
487.457163 81.488 122.7825
490.989478 81.457 122.6581
494.547390 81.428 122.5344
498.131084 81.399 122.4116
501.740748 81.371 122.2900
505.376568 81.344 122.1698
509.038735 81.318 122.0514
512.727439 81.294 121.9352
516.442874 81.272 121.8214
520.185232 81.251 121.7097
523.954708 81.233 121.5998
527.751500 81.217 121.4909
531.575805 81.204 121.3826
535.427822 81.194 121.2744
539.307753 81.186 121.1660
543.215800 81.182 121.0573
547.152165 81.181 120.9486
551.117055 81.182 120.8398
555.110677 81.185 120.7306
559.133237 81.191 120.6207
563.184947 81.199 120.5096
567.266018 81.208 120.3964
571.376661 81.218 120.2802
575.517092 81.230 120.1603
579.687526 81.242 120.0362
583.888181 81.254 119.9076
588.119275 81.266 119.7746
592.381030 81.277 119.6378
596.673667 81.288 119.4979
600.997410 81.297 119.3564
605.352485 81.304 119.2151
609.739119 81.309 119.0760
614.157540 81.313 118.9416
618.607979 81.314 118.8139
623.090667 81.314 118.6953
627.605839 81.312 118.5874
632.153730 81.308 118.4917
636.734576 81.303 118.4088
641.348617 81.298 118.3385
645.996094 81.293 118.2796
650.677248 81.287 118.2299
655.392323 81.282 118.1865
660.141566 81.278 118.1460
664.925224 81.274 118.1050
669.743546 81.271 118.0609
674.596784 81.268 118.0113
679.485191 81.266 117.9548
684.409020 81.264 117.8908
689.368530 81.261 117.8190
694.363979 81.258 117.7397
699.395626 81.255 117.6536
704.463736 81.250 117.5616
709.568570 81.243 117.4648
714.710396 81.236 117.3645
719.889483 81.226 117.2615
725.106099 81.215 117.1564
730.360516 81.203 117.0494
735.653010 81.189 116.9404
740.983855 81.173 116.8287
746.353329 81.157 116.7138
751.761713 81.139 116.5950
757.209288 81.120 116.4719
762.696339 81.100 116.3441
768.223151 81.078 116.2112
773.790013 81.055 116.0732
779.397214 81.031 115.9302
785.045047 81.006 115.7822
790.733808 80.980 115.6291
796.463791 80.952 115.4712
802.235296 80.923 115.3086
808.048623 80.894 115.1419
813.904077 80.862 114.9722
819.801961 80.830 114.8008
825.742584 80.796 114.6294
831.726255 80.761 114.4604
837.753287 80.723 114.2968
843.823992 80.684 114.1422
849.938689 80.643 114.0009
856.097695 80.601 113.8779
862.301332 80.557 113.7787
868.549922 80.512 113.7084
874.843793 80.468 113.6717
881.183272 80.425 113.6712
887.568689 80.384 113.7076
894.000378 80.347 113.7783
900.478673 80.316 113.8784
907.003913 80.290 114.0009
913.576437 80.272 114.1372
920.196588 80.261 114.2788
926.864712 80.257 114.4175
933.581156 80.260 114.5458
940.346270 80.270 114.6578
947.160407 80.287 114.7485
954.023921 80.309 114.8145
960.937172 80.335 114.8539
967.900519 80.365 114.8664
974.914325 80.399 114.8531
981.978956 80.434 114.8162
989.094780 80.472 114.7585
996.262169 80.511 114.6833
1003.481495 80.551 114.5938
1010.753136 80.593 114.4930
1018.077470 80.636 114.3832
1025.454879 80.680 114.2664
1032.885748 80.726 114.1434
1040.370463 80.773 114.0145
1047.909417 80.821 113.8794
1055.503000 80.871 113.7374
1063.151610 80.921 113.5880
1070.855645 80.971 113.4309
1078.615506 81.021 113.2667
1086.431599 81.072 113.0964
1094.304330 81.121 112.9213
1102.234110 81.170 112.7429
1110.221353 81.218 112.5627
1118.266475 81.264 112.3820
1126.369895 81.310 112.2019
1134.532035 81.355 112.0230
1142.753322 81.400 111.8458
1151.034184 81.443 111.6706
1159.375052 81.485 111.4977
1167.776361 81.526 111.3276
1176.238550 81.567 111.1607
1184.762060 81.606 110.9978
1193.347334 81.645 110.8396
1201.994821 81.684 110.6864
1210.704971 81.724 110.5378
1219.478238 81.763 110.3926
1228.315080 81.804 110.2491
1237.215957 81.845 110.1045
1246.181334 81.888 109.9561
1255.211678 81.931 109.8012
1264.307459 81.974 109.6384
1273.469152 82.018 109.4668
1282.697235 82.061 109.2867
1291.992188 82.102 109.0988
1301.354495 82.143 108.9044
1310.784647 82.182 108.7047
1320.283132 82.220 108.5010
1329.850448 82.256 108.2943
1339.487093 82.290 108.0859
1349.193569 82.322 107.8770
1358.970381 82.352 107.6692
1368.818041 82.381 107.4641
1378.737061 82.408 107.2637
1388.727958 82.434 107.0700
1398.791253 82.459 106.8848
1408.927471 82.483 106.7093
1419.137140 82.507 106.5440
1429.420793 82.531 106.3888
1439.778965 82.556 106.2431
1450.212197 82.581 106.1066
1460.721033 82.606 105.9799
1471.306019 82.632 105.8642
1481.967709 82.657 105.7610
1492.706658 82.683 105.6717
1503.523426 82.709 105.5965
1514.418576 82.734 105.5350
1525.392678 82.759 105.4863
1536.446302 82.783 105.4493
1547.580025 82.806 105.4237
1558.794428 82.826 105.4096
1570.090095 82.844 105.4076
1581.467615 82.859 105.4187
1592.927581 82.871 105.4440
1604.470591 82.880 105.4842
1616.097246 82.886 105.5396
1627.808153 82.888 105.6099
1639.603922 82.887 105.6945
1651.485168 82.883 105.7927
1663.452510 82.875 105.9042
1675.506573 82.864 106.0288
1687.647984 82.851 106.1669
1699.877377 82.834 106.3191
1712.195390 82.815 106.4861
1724.602663 82.793 106.6687
1737.099845 82.769 106.8675
1749.687587 82.743 107.0831
1762.366544 82.716 107.3166
1775.137379 82.688 107.5690
1788.000756 82.658 107.8410
1800.957346 82.628 108.1327
1814.007826 82.598 108.4433
1827.152874 82.568 108.7715
1840.393177 82.538 109.1149
1853.729425 82.507 109.4711
1867.162312 82.477 109.8374
1880.692540 82.446 110.2112
1894.320813 82.415 110.5910
1908.047843 82.382 110.9763
1921.874344 82.348 111.3679
1935.801038 82.311 111.7674
1949.828650 82.273 112.1768
1963.957912 82.232 112.5983
1978.189561 82.189 113.0337
1992.524338 82.144 113.4849
2006.962991 82.098 113.9530
2021.506272 82.051 114.4384
2036.154940 82.004 114.9401
2050.909758 81.957 115.4567
2065.771495 81.911 115.9858
2080.740927 81.867 116.5251
2095.818833 81.824 117.0714
2111.006001 81.784 117.6212
2126.303220 81.747 118.1709
2141.711290 81.712 118.7173
2157.231013 81.679 119.2585
2172.863198 81.649 119.7935
2188.608660 81.621 120.3226
2204.468221 81.596 120.8462
2220.442706 81.572 121.3649
2236.532950 81.550 121.8795
2252.739789 81.530 122.3908
2269.064070 81.511 122.9007
2285.506644 81.495 123.4108
2302.068367 81.481 123.9232
2318.750104 81.469 124.4393
2335.552723 81.461 124.9594
2352.477101 81.456 125.4822
2369.524119 81.455 126.0048
2386.694668 81.458 126.5232
2403.989641 81.466 127.0327
2421.409941 81.478 127.5291
2438.956476 81.493 128.0101
2456.630160 81.511 128.4760
2474.431915 81.532 128.9302
2492.362668 81.553 129.3786
2510.423356 81.577 129.8277
2528.614918 81.602 130.2835
2546.938304 81.630 130.7504
2565.394469 81.662 131.2307
2583.984375 81.698 131.7244
2602.708991 81.738 132.2302
2621.569293 81.783 132.7460
2640.566265 81.833 133.2689
2659.700897 81.889 133.7963
2678.974186 81.950 134.3256
2698.387137 82.015 134.8552
2717.940763 82.085 135.3834
2737.636082 82.159 135.9092
2757.474121 82.237 136.4321
2777.455915 82.318 136.9511
2797.582506 82.403 137.4659
2817.854942 82.491 137.9757
2838.274281 82.580 138.4802
2858.841586 82.672 138.9788
2879.557931 82.766 139.4709
2900.424394 82.860 139.9556
2921.442065 82.955 140.4318
2942.612039 83.049 140.8981
2963.935418 83.142 141.3538
2985.413316 83.233 141.7984
3007.046852 83.322 142.2326
3028.837153 83.406 142.6577
3050.785356 83.485 143.0761
3072.892604 83.560 143.4911
3095.160050 83.628 143.9065
3117.588856 83.690 144.3253
3140.180190 83.746 144.7498
3162.935230 83.795 145.1812
3185.855163 83.838 145.6189
3208.941182 83.875 146.0613
3232.194493 83.905 146.5063
3255.616307 83.928 146.9525
3279.207844 83.943 147.3990
3302.970336 83.951 147.8474
3326.905021 83.950 148.3003
3351.013146 83.940 148.7620
3375.295969 83.922 149.2371
3399.754755 83.895 149.7306
3424.390779 83.862 150.2467
3449.205326 83.821 150.7885
3474.199690 83.775 151.3579
3499.375173 83.724 151.9559
3524.733088 83.669 152.5825
