* Measurement data measured by REW V5.31.3
* Source: EXCL: Headset (USB-C to 3.5mm Headphone Jack Adapter), MICROPHONE (Master Volume), 0, volume: 0.750
* Format: 256k Log Swept Sine, 1 sweep at -12.0 dBFS with no timing reference
* Dated: Apr 1, 2025 10:27:12 PM
* REW Settings:
*  C-weighting compensation: Off
*  Target level: 75.0 dB
* Note: ; 
* Measurement: HD6XX (Soulwit) L8
* Smoothing: 1/6 octave
* Frequency Step: 96 ppo
* Start Frequency: 20.0 Hz
*
* Freq(Hz) SPL(dB) Phase(degrees)
20.187378 82.628 -96.1310
20.333664 82.655 -96.3000
20.481010 82.691 -96.5228
20.629424 82.737 -96.7881
20.778913 82.791 -97.0838
20.929486 82.853 -97.3983
21.081150 82.922 -97.7211
21.233912 82.999 -98.0439
21.387782 83.082 -98.3604
21.542767 83.171 -98.6667
21.698874 83.265 -98.9613
21.856113 83.364 -99.2444
22.014492 83.466 -99.5180
22.174018 83.570 -99.7852
22.334700 83.675 -100.0496
22.496546 83.780 -100.3150
22.659566 83.883 -100.5851
22.823766 83.982 -100.8629
22.989157 84.078 -101.1504
23.155745 84.168 -101.4488
23.323542 84.252 -101.7582
23.492554 84.331 -102.0777
23.662790 84.403 -102.4057
23.834261 84.468 -102.7398
24.006973 84.529 -103.0778
24.180938 84.584 -103.4171
24.356163 84.635 -103.7556
24.532658 84.682 -104.0919
24.710431 84.727 -104.4250
24.889493 84.769 -104.7548
25.069853 84.809 -105.0813
25.251519 84.848 -105.4052
25.434502 84.884 -105.7271
25.618811 84.917 -106.0471
25.804456 84.948 -106.3650
25.991445 84.975 -106.6803
26.179790 84.999 -106.9916
26.369500 85.019 -107.2975
26.560584 85.036 -107.5968
26.753053 85.051 -107.8884
26.946917 85.063 -108.1723
27.142185 85.076 -108.4496
27.338869 85.089 -108.7226
27.536977 85.104 -108.9948
27.736522 85.123 -109.2703
27.937512 85.146 -109.5539
28.139959 85.174 -109.8496
28.343872 85.206 -110.1606
28.549264 85.244 -110.4887
28.756143 85.285 -110.8335
28.964522 85.329 -111.1929
29.174411 85.374 -111.5632
29.385821 85.420 -111.9393
29.598763 85.467 -112.3158
29.813248 85.512 -112.6874
30.029287 85.556 -113.0495
30.246891 85.600 -113.3987
30.466073 85.642 -113.7334
30.686842 85.685 -114.0533
30.909212 85.729 -114.3596
31.133193 85.775 -114.6549
31.358797 85.823 -114.9422
31.586035 85.876 -115.2253
31.814921 85.933 -115.5073
32.045465 85.995 -115.7915
32.277680 86.063 -116.0799
32.511577 86.137 -116.3738
32.747169 86.216 -116.6735
32.984469 86.299 -116.9782
33.223488 86.387 -117.2866
33.464239 86.477 -117.5967
33.706735 86.570 -117.9067
33.950987 86.665 -118.2151
34.197010 86.761 -118.5212
34.444816 86.858 -118.8250
34.694417 86.955 -119.1280
34.945827 87.054 -119.4321
35.199059 87.152 -119.7399
35.454126 87.252 -120.0539
35.711041 87.351 -120.3758
35.969818 87.450 -120.7065
36.230470 87.549 -121.0454
36.493011 87.647 -121.3909
36.757455 87.744 -121.7402
37.023814 87.839 -122.0905
37.292104 87.932 -122.4387
37.562338 88.022 -122.7827
37.834530 88.110 -123.1210
38.108695 88.194 -123.4531
38.384846 88.274 -123.7796
38.662999 88.351 -124.1015
38.943167 88.423 -124.4200
39.225365 88.491 -124.7365
39.509608 88.556 -125.0521
39.795911 88.618 -125.3678
40.084289 88.677 -125.6841
40.374756 88.735 -126.0018
40.667328 88.792 -126.3215
40.962020 88.849 -126.6434
41.258848 88.906 -126.9679
41.557827 88.964 -127.2944
41.858972 89.022 -127.6218
42.162299 89.081 -127.9483
42.467824 89.138 -128.2711
42.775564 89.195 -128.5877
43.085533 89.251 -128.8956
43.397749 89.304 -129.1936
43.712227 89.356 -129.4822
44.028983 89.407 -129.7634
44.348036 89.456 -130.0409
44.669400 89.505 -130.3190
44.993093 89.552 -130.6022
45.319131 89.599 -130.8936
45.647532 89.645 -131.1944
45.978313 89.691 -131.5034
46.311491 89.737 -131.8170
46.647083 89.782 -132.1305
46.985107 89.827 -132.4390
47.325581 89.872 -132.7390
47.668521 89.915 -133.0292
48.013947 89.958 -133.3107
48.361876 89.999 -133.5869
48.712326 90.037 -133.8620
49.065315 90.073 -134.1400
49.420863 90.105 -134.4236
49.778987 90.133 -134.7143
50.139706 90.157 -135.0121
50.503039 90.178 -135.3163
50.869005 90.196 -135.6257
51.237623 90.212 -135.9390
51.608912 90.227 -136.2547
51.982891 90.240 -136.5709
52.359580 90.252 -136.8859
52.739000 90.264 -137.1981
53.121168 90.276 -137.5067
53.506106 90.288 -137.8119
53.893833 90.302 -138.1145
54.284370 90.318 -138.4162
54.677737 90.336 -138.7183
55.073955 90.356 -139.0225
55.473043 90.378 -139.3299
55.875024 90.404 -139.6416
56.279917 90.432 -139.9584
56.687745 90.462 -140.2809
57.098527 90.496 -140.6088
57.512287 90.532 -140.9407
57.929045 90.571 -141.2740
58.348822 90.611 -141.6057
58.771642 90.652 -141.9323
59.197525 90.693 -142.2511
59.626495 90.733 -142.5601
60.058573 90.771 -142.8584
60.493782 90.808 -143.1466
60.932145 90.842 -143.4269
61.373685 90.876 -143.7023
61.818424 90.909 -143.9765
62.266386 90.943 -144.2524
62.717593 90.979 -144.5322
63.172071 91.016 -144.8172
63.629842 91.056 -145.1081
64.090930 91.097 -145.4053
64.555359 91.140 -145.7092
65.023154 91.185 -146.0197
65.494339 91.231 -146.3362
65.968938 91.278 -146.6575
66.446976 91.325 -146.9821
66.928478 91.373 -147.3083
67.413469 91.421 -147.6346
67.901975 91.469 -147.9604
68.394021 91.517 -148.2853
68.889632 91.564 -148.6095
69.388835 91.610 -148.9333
69.891655 91.654 -149.2569
70.398118 91.697 -149.5805
70.908252 91.737 -149.9039
71.422083 91.775 -150.2269
71.939636 91.810 -150.5492
72.460941 91.843 -150.8706
72.986023 91.872 -151.1911
73.514909 91.898 -151.5110
74.047629 91.921 -151.8307
74.584208 91.942 -152.1504
75.124676 91.960 -152.4704
75.669061 91.975 -152.7906
76.217390 91.988 -153.1107
76.769692 91.999 -153.4301
77.325997 92.008 -153.7485
77.886333 92.015 -154.0655
78.450730 92.021 -154.3808
79.019216 92.026 -154.6942
79.591822 92.030 -155.0052
80.168577 92.033 -155.3136
80.749512 92.035 -155.6192
81.334656 92.037 -155.9220
81.924040 92.039 -156.2220
82.517696 92.040 -156.5198
83.115653 92.041 -156.8157
83.717943 92.041 -157.1103
84.324598 92.042 -157.4042
84.935649 92.042 -157.6978
85.551128 92.042 -157.9914
86.171066 92.041 -158.2850
86.795497 92.040 -158.5783
87.424453 92.039 -158.8711
88.057967 92.038 -159.1630
88.696071 92.036 -159.4539
89.338800 92.033 -159.7438
89.986185 92.031 -160.0326
90.638262 92.027 -160.3203
91.295065 92.024 -160.6066
91.956626 92.020 -160.8910
92.622982 92.017 -161.1733
93.294166 92.013 -161.4533
93.970214 92.009 -161.7311
94.651161 92.005 -162.0072
95.337042 92.001 -162.2822
96.027894 91.997 -162.5567
96.723752 91.993 -162.8312
97.424652 91.989 -163.1057
98.130631 91.986 -163.3799
98.841726 91.983 -163.6533
99.557974 91.981 -163.9253
100.279412 91.979 -164.1953
101.006078 91.978 -164.4628
101.738010 91.978 -164.7278
102.475245 91.978 -164.9905
103.217823 91.979 -165.2514
103.965782 91.981 -165.5108
104.719161 91.983 -165.7695
105.477999 91.986 -166.0278
106.242336 91.991 -166.2860
107.012212 91.996 -166.5447
107.787666 92.003 -166.8041
108.568740 92.010 -167.0643
109.355474 92.018 -167.3247
110.147909 92.027 -167.5843
110.946086 92.036 -167.8419
111.750047 92.046 -168.0967
112.559834 92.057 -168.3482
113.375489 92.068 -168.5963
114.197055 92.080 -168.8414
115.024574 92.091 -169.0839
115.858089 92.103 -169.3244
116.697645 92.115 -169.5635
117.543284 92.127 -169.8016
118.395051 92.138 -170.0391
119.252990 92.149 -170.2760
120.117147 92.159 -170.5121
120.987565 92.168 -170.7473
121.864291 92.177 -170.9809
122.747370 92.185 -171.2126
123.636848 92.193 -171.4420
124.532771 92.199 -171.6694
125.435187 92.205 -171.8953
126.344142 92.210 -172.1206
127.259684 92.214 -172.3456
128.181860 92.218 -172.5706
129.110718 92.220 -172.7952
130.046308 92.222 -173.0190
130.988677 92.223 -173.2414
131.937875 92.224 -173.4621
132.893951 92.223 -173.6808
133.856956 92.221 -173.8974
134.826938 92.218 -174.1119
135.803950 92.214 -174.3243
136.788041 92.209 -174.5347
137.779264 92.203 -174.7430
138.777669 92.196 -174.9498
139.783309 92.188 -175.1554
140.796237 92.179 -175.3605
141.816504 92.170 -175.5655
142.844165 92.159 -175.7710
143.879273 92.147 -175.9771
144.921881 92.134 -176.1839
145.972045 92.119 -176.3913
147.029819 92.103 -176.5988
148.095257 92.086 -176.8060
149.168417 92.068 -177.0122
150.249353 92.050 -177.2168
151.338121 92.031 -177.4194
152.434780 92.011 -177.6196
153.539385 91.992 -177.8172
154.651995 91.973 -178.0121
155.772667 91.954 -178.2044
156.901460 91.935 -178.3941
158.038432 91.917 -178.5814
159.183644 91.898 -178.7663
160.337154 91.881 -178.9493
161.499023 91.863 -179.1306
162.669312 91.846 -179.3107
163.848081 91.830 -179.4901
165.035392 91.814 -179.6694
166.231306 91.798 -179.8489
167.435887 91.782 179.9711
168.649196 91.767 179.7907
169.871298 91.751 179.6102
171.102255 91.735 179.4301
172.342133 91.720 179.2508
173.590995 91.704 179.0732
174.848907 91.688 178.8977
176.115934 91.671 178.7250
177.392143 91.654 178.5553
178.677599 91.637 178.3889
179.972371 91.619 178.2256
181.276525 91.600 178.0651
182.590129 91.581 177.9067
183.913252 91.561 177.7497
185.245964 91.540 177.5934
186.588332 91.518 177.4373
187.940428 91.495 177.2808
189.302322 91.472 177.1239
190.674085 91.447 176.9664
192.055788 91.422 176.8083
193.447503 91.395 176.6499
194.849303 91.369 176.4915
196.261262 91.342 176.3333
197.683452 91.315 176.1758
199.115948 91.288 176.0197
200.558824 91.261 175.8656
202.012156 91.235 175.7143
203.476019 91.210 175.5665
204.950490 91.185 175.4229
206.435646 91.161 175.2839
207.931564 91.137 175.1499
209.438322 91.114 175.0212
210.955998 91.090 174.8975
212.484672 91.067 174.7786
214.024424 91.044 174.6640
215.575333 91.021 174.5534
217.137481 90.999 174.4464
218.710948 90.978 174.3427
220.295818 90.957 174.2417
221.892172 90.937 174.1433
223.500094 90.919 174.0474
225.119668 90.902 173.9539
226.750978 90.886 173.8627
228.394109 90.872 173.7737
230.049147 90.859 173.6865
231.716178 90.847 173.6007
233.395289 90.837 173.5155
235.086567 90.827 173.4304
236.790102 90.819 173.3448
238.505980 90.811 173.2587
240.234293 90.805 173.1721
241.975130 90.799 173.0856
243.728581 90.794 172.9996
245.494739 90.790 172.9146
247.273695 90.787 172.8307
249.065542 90.783 172.7482
250.870374 90.780 172.6669
252.688284 90.778 172.5864
254.519367 90.775 172.5061
256.363720 90.773 172.4251
258.221437 90.771 172.3427
260.092616 90.768 172.2583
261.977354 90.766 172.1719
263.875750 90.763 172.0839
265.787903 90.760 171.9950
267.713911 90.756 171.9064
269.653877 90.752 171.8194
271.607900 90.747 171.7350
273.576083 90.742 171.6545
275.558528 90.736 171.5783
277.555338 90.730 171.5070
279.566619 90.724 171.4402
281.592474 90.718 171.3775
283.633009 90.712 171.3176
285.688331 90.706 171.2596
287.758546 90.701 171.2029
289.843763 90.697 171.1471
291.944090 90.694 171.0925
294.059638 90.691 171.0395
296.190515 90.689 170.9886
298.336833 90.688 170.9404
300.498705 90.687 170.8955
302.676243 90.686 170.8542
304.869559 90.685 170.8165
307.078770 90.685 170.7822
309.303989 90.685 170.7511
311.545334 90.685 170.7225
313.802919 90.686 170.6959
316.076865 90.686 170.6705
318.367288 90.687 170.6461
320.674309 90.688 170.6220
322.998047 90.689 170.5981
325.338624 90.689 170.5742
327.696162 90.689 170.5504
330.070783 90.689 170.5267
332.462612 90.688 170.5032
334.871773 90.686 170.4799
337.298392 90.684 170.4568
339.742595 90.681 170.4343
342.204510 90.677 170.4125
344.684265 90.672 170.3921
347.181989 90.666 170.3738
349.697813 90.659 170.3583
352.231868 90.650 170.3459
354.784285 90.641 170.3371
357.355198 90.631 170.3315
359.944741 90.620 170.3288
362.553049 90.608 170.3286
365.180258 90.595 170.3305
367.826505 90.582 170.3344
370.491927 90.569 170.3399
373.176665 90.555 170.3469
375.880856 90.542 170.3553
378.604644 90.528 170.3649
381.348169 90.514 170.3755
384.111575 90.500 170.3870
386.895006 90.486 170.3995
389.698607 90.471 170.4128
392.522524 90.457 170.4269
395.366904 90.442 170.4420
398.231895 90.426 170.4579
401.117648 90.410 170.4749
404.024312 90.394 170.4932
406.952038 90.377 170.5129
409.900981 90.359 170.5344
412.871292 90.340 170.5577
415.863128 90.320 170.5826
418.876643 90.299 170.6088
421.911996 90.276 170.6361
424.969344 90.252 170.6640
428.048847 90.227 170.6920
431.150666 90.200 170.7197
434.274961 90.171 170.7466
437.421897 90.142 170.7725
440.591636 90.111 170.7975
443.784345 90.079 170.8220
447.000189 90.046 170.8466
450.239337 90.013 170.8720
453.501956 89.980 170.8988
456.788219 89.946 170.9271
460.098294 89.912 170.9570
463.432356 89.878 170.9885
466.790578 89.844 171.0217
470.173135 89.811 171.0565
473.580203 89.778 171.0928
477.011961 89.746 171.1306
480.468586 89.714 171.1696
483.950259 89.684 171.2097
487.457163 89.655 171.2507
490.989478 89.626 171.2926
494.547390 89.598 171.3355
498.131084 89.572 171.3800
501.740748 89.547 171.4265
505.376568 89.523 171.4759
509.038735 89.501 171.5289
512.727439 89.480 171.5861
516.442874 89.462 171.6476
520.185232 89.445 171.7132
523.954708 89.431 171.7822
527.751500 89.418 171.8539
531.575805 89.409 171.9276
535.427822 89.401 172.0027
539.307753 89.396 172.0789
543.215800 89.393 172.1563
547.152165 89.392 172.2347
551.117055 89.394 172.3142
555.110677 89.398 172.3943
559.133237 89.404 172.4745
563.184947 89.412 172.5541
567.266018 89.422 172.6324
571.376661 89.434 172.7086
575.517092 89.448 172.7824
579.687526 89.462 172.8534
583.888181 89.478 172.9218
588.119275 89.494 172.9879
592.381030 89.511 173.0519
596.673667 89.527 173.1145
600.997410 89.543 173.1763
605.352485 89.559 173.2377
609.739119 89.573 173.2989
614.157540 89.588 173.3602
618.607979 89.601 173.4215
623.090667 89.613 173.4829
627.605839 89.624 173.5443
632.153730 89.634 173.6053
636.734576 89.643 173.6655
641.348617 89.652 173.7245
645.996094 89.659 173.7814
650.677248 89.666 173.8355
655.392323 89.672 173.8863
660.141566 89.677 173.9332
664.925224 89.681 173.9759
669.743546 89.685 174.0144
674.596784 89.687 174.0491
679.485191 89.688 174.0804
684.409020 89.688 174.1089
689.368530 89.687 174.1351
694.363979 89.685 174.1589
699.395626 89.681 174.1805
704.463736 89.677 174.1992
709.568570 89.672 174.2148
714.710396 89.665 174.2262
719.889483 89.657 174.2329
725.106099 89.648 174.2340
730.360516 89.637 174.2288
735.653010 89.625 174.2169
740.983855 89.610 174.1979
746.353329 89.593 174.1718
751.761713 89.574 174.1386
757.209288 89.552 174.0990
762.696339 89.528 174.0536
768.223151 89.501 174.0038
773.790013 89.471 173.9505
779.397214 89.438 173.8949
785.045047 89.402 173.8381
790.733808 89.364 173.7816
796.463791 89.323 173.7271
802.235296 89.279 173.6769
808.048623 89.232 173.6341
813.904077 89.182 173.6024
819.801961 89.130 173.5860
825.742584 89.075 173.5897
831.726255 89.019 173.6184
837.753287 88.961 173.6770
843.823992 88.902 173.7698
849.938689 88.844 173.9006
856.097695 88.787 174.0725
862.301332 88.732 174.2872
868.549922 88.681 174.5444
874.843793 88.635 174.8413
881.183272 88.596 175.1719
887.568689 88.565 175.5271
894.000378 88.542 175.8959
900.478673 88.529 176.2660
907.003913 88.525 176.6259
913.576437 88.529 176.9657
920.196588 88.540 177.2778
926.864712 88.557 177.5579
933.581156 88.579 177.8041
940.346270 88.606 178.0169
947.160407 88.635 178.1982
954.023921 88.667 178.3508
960.937172 88.702 178.4776
967.900519 88.738 178.5817
974.914325 88.776 178.6656
981.978956 88.816 178.7313
989.094780 88.857 178.7802
996.262169 88.900 178.8133
1003.481495 88.944 178.8316
1010.753136 88.989 178.8362
1018.077470 89.035 178.8286
1025.454879 89.082 178.8106
1032.885748 89.130 178.7841
1040.370463 89.178 178.7510
1047.909417 89.226 178.7131
1055.503000 89.275 178.6713
1063.151610 89.324 178.6263
1070.855645 89.374 178.5784
1078.615506 89.424 178.5275
1086.431599 89.474 178.4734
1094.304330 89.523 178.4161
1102.234110 89.573 178.3555
1110.221353 89.621 178.2922
1118.266475 89.669 178.2271
1126.369895 89.717 178.1606
1134.532035 89.764 178.0933
1142.753322 89.810 178.0250
1151.034184 89.856 177.9550
1159.375052 89.900 177.8825
1167.776361 89.945 177.8068
1176.238550 89.988 177.7274
1184.762060 90.030 177.6446
1193.347334 90.071 177.5594
1201.994821 90.110 177.4731
1210.704971 90.149 177.3875
1219.478238 90.186 177.3041
1228.315080 90.223 177.2245
1237.215957 90.259 177.1491
1246.181334 90.295 177.0780
1255.211678 90.330 177.0103
1264.307459 90.366 176.9443
1273.469152 90.402 176.8785
1282.697235 90.438 176.8115
1291.992188 90.474 176.7426
1301.354495 90.510 176.6716
1310.784647 90.546 176.5987
1320.283132 90.580 176.5240
1329.850448 90.615 176.4472
1339.487093 90.649 176.3680
1349.193569 90.682 176.2862
1358.970381 90.715 176.2020
1368.818041 90.747 176.1160
1378.737061 90.778 176.0291
1388.727958 90.808 175.9418
1398.791253 90.839 175.8546
1408.927471 90.868 175.7678
1419.137140 90.897 175.6820
1429.420793 90.926 175.5983
1439.778965 90.954 175.5183
1450.212197 90.982 175.4442
1460.721033 91.009 175.3783
1471.306019 91.035 175.3236
1481.967709 91.060 175.2830
1492.706658 91.086 175.2593
1503.523426 91.110 175.2545
1514.418576 91.135 175.2694
1525.392678 91.159 175.3040
1536.446302 91.183 175.3568
1547.580025 91.207 175.4262
1558.794428 91.229 175.5106
1570.090095 91.251 175.6085
1581.467615 91.271 175.7194
1592.927581 91.289 175.8427
1604.470591 91.305 175.9780
1616.097246 91.318 176.1257
1627.808153 91.328 176.2867
1639.603922 91.336 176.4626
1651.485168 91.342 176.6547
1663.452510 91.346 176.8633
1675.506573 91.348 177.0870
1687.647984 91.351 177.3225
1699.877377 91.354 177.5646
1712.195390 91.357 177.8075
1724.602663 91.360 178.0456
1737.099845 91.363 178.2744
1749.687587 91.365 178.4913
1762.366544 91.366 178.6960
1775.137379 91.364 178.8914
1788.000756 91.358 179.0823
1800.957346 91.350 179.2755
1814.007826 91.338 179.4779
1827.152874 91.322 179.6960
1840.393177 91.305 179.9347
1853.729425 91.285 -179.8032
1867.162312 91.265 -179.5177
1880.692540 91.246 -179.2114
1894.320813 91.227 -178.8894
1908.047843 91.209 -178.5578
1921.874344 91.192 -178.2229
1935.801038 91.176 -177.8903
1949.828650 91.160 -177.5639
1963.957912 91.144 -177.2463
1978.189561 91.127 -176.9387
1992.524338 91.109 -176.6424
2006.962991 91.091 -176.3582
2021.506272 91.070 -176.0867
2036.154940 91.048 -175.8273
2050.909758 91.024 -175.5779
2065.771495 90.997 -175.3353
2080.740927 90.968 -175.0952
2095.818833 90.937 -174.8536
2111.006001 90.904 -174.6068
2126.303220 90.871 -174.3522
2141.711290 90.837 -174.0878
2157.231013 90.803 -173.8129
2172.863198 90.771 -173.5279
2188.608660 90.741 -173.2341
2204.468221 90.714 -172.9342
2220.442706 90.690 -172.6314
2236.532950 90.670 -172.3294
2252.739789 90.653 -172.0318
2269.064070 90.640 -171.7418
2285.506644 90.630 -171.4628
2302.068367 90.624 -171.1971
2318.750104 90.621 -170.9463
2335.552723 90.621 -170.7106
2352.477101 90.623 -170.4893
2369.524119 90.627 -170.2812
2386.694668 90.634 -170.0844
2403.989641 90.642 -169.8960
2421.409941 90.652 -169.7129
2438.956476 90.664 -169.5316
2456.630160 90.678 -169.3488
2474.431915 90.696 -169.1625
2492.362668 90.717 -168.9714
2510.423356 90.743 -168.7759
2528.614918 90.773 -168.5775
2546.938304 90.809 -168.3783
2565.394469 90.850 -168.1811
2583.984375 90.897 -167.9885
2602.708991 90.949 -167.8025
2621.569293 91.006 -167.6239
2640.566265 91.068 -167.4525
2659.700897 91.135 -167.2868
2678.974186 91.206 -167.1256
2698.387137 91.282 -166.9678
2717.940763 91.362 -166.8139
2737.636082 91.448 -166.6655
2757.474121 91.539 -166.5257
2777.455915 91.634 -166.3979
2797.582506 91.734 -166.2855
2817.854942 91.839 -166.1918
2838.274281 91.946 -166.1193
2858.841586 92.056 -166.0704
2879.557931 92.168 -166.0466
2900.424394 92.281 -166.0498
2921.442065 92.394 -166.0810
2942.612039 92.506 -166.1410
2963.935418 92.616 -166.2293
2985.413316 92.723 -166.3445
3007.046852 92.826 -166.4845
3028.837153 92.923 -166.6463
3050.785356 93.015 -166.8270
3072.892604 93.101 -167.0233
3095.160050 93.179 -167.2323
3117.588856 93.250 -167.4512
3140.180190 93.314 -167.6774
3162.935230 93.370 -167.9086
3185.855163 93.417 -168.1428
3208.941182 93.457 -168.3783
3232.194493 93.488 -168.6137
3255.616307 93.511 -168.8483
3279.207844 93.526 -169.0816
3302.970336 93.533 -169.3136
3326.905021 93.532 -169.5436
3351.013146 93.523 -169.7707
3375.295969 93.506 -169.9926
