* Measurement data measured by REW V5.31.3
* Source: EXCL: Headset (USB-C to 3.5mm Headphone Jack Adapter), MICROPHONE (Master Volume), 0, volume: 0.750
* Format: 256k Log Swept Sine, 1 sweep at -12.0 dBFS with no timing reference
* Dated: Apr 7, 2025 12:22:40 PM
* REW Settings:
*  C-weighting compensation: Off
*  Target level: 75.0 dB
* Note: ; 
* Measurement: HD6XX R6
* Smoothing: 1/6 octave
* Frequency Step: 96 ppo
* Start Frequency: 20.0 Hz
*
* Freq(Hz) SPL(dB) Phase(degrees)
20.187378 79.199 -94.8872
20.333664 79.245 -95.0801
20.481010 79.306 -95.3386
20.629424 79.381 -95.6550
20.778913 79.468 -96.0209
20.929486 79.563 -96.4273
21.081150 79.666 -96.8649
21.233912 79.773 -97.3240
21.387782 79.883 -97.7953
21.542767 79.994 -98.2694
21.698874 80.105 -98.7371
21.856113 80.214 -99.1896
22.014492 80.320 -99.6189
22.174018 80.423 -100.0182
22.334700 80.522 -100.3823
22.496546 80.618 -100.7078
22.659566 80.710 -100.9941
22.823766 80.799 -101.2433
22.989157 80.886 -101.4603
23.155745 80.969 -101.6529
23.323542 81.050 -101.8308
23.492554 81.128 -102.0055
23.662790 81.202 -102.1887
23.834261 81.274 -102.3915
24.006973 81.340 -102.6231
24.180938 81.402 -102.8899
24.356163 81.458 -103.1951
24.532658 81.508 -103.5380
24.710431 81.551 -103.9147
24.889493 81.588 -104.3184
25.069853 81.620 -104.7402
25.251519 81.647 -105.1705
25.434502 81.672 -105.5999
25.618811 81.696 -106.0204
25.804456 81.721 -106.4263
25.991445 81.749 -106.8146
26.179790 81.780 -107.1852
26.369500 81.816 -107.5402
26.560584 81.856 -107.8837
26.753053 81.900 -108.2204
26.946917 81.946 -108.5549
27.142185 81.993 -108.8907
27.338869 82.039 -109.2296
27.536977 82.081 -109.5719
27.736522 82.119 -109.9163
27.937512 82.152 -110.2603
28.139959 82.178 -110.6014
28.343872 82.199 -110.9371
28.549264 82.216 -111.2660
28.756143 82.229 -111.5878
28.964522 82.240 -111.9038
29.174411 82.253 -112.2167
29.385821 82.267 -112.5302
29.598763 82.286 -112.8480
29.813248 82.310 -113.1741
30.029287 82.341 -113.5110
30.246891 82.380 -113.8599
30.466073 82.425 -114.2202
30.686842 82.477 -114.5894
30.909212 82.536 -114.9636
31.133193 82.599 -115.3376
31.358797 82.668 -115.7063
31.586035 82.740 -116.0650
31.814921 82.815 -116.4104
32.045465 82.894 -116.7413
32.277680 82.975 -117.0586
32.511577 83.059 -117.3654
32.747169 83.146 -117.6667
32.984469 83.235 -117.9682
33.223488 83.326 -118.2757
33.464239 83.419 -118.5941
33.706735 83.514 -118.9266
33.950987 83.610 -119.2743
34.197010 83.707 -119.6361
34.444816 83.805 -120.0092
34.694417 83.904 -120.3898
34.945827 84.003 -120.7734
35.199059 84.103 -121.1560
35.454126 84.203 -121.5343
35.711041 84.304 -121.9063
35.969818 84.406 -122.2710
36.230470 84.507 -122.6285
36.493011 84.607 -122.9800
36.757455 84.707 -123.3273
37.023814 84.805 -123.6727
37.292104 84.900 -124.0187
37.562338 84.993 -124.3680
37.834530 85.082 -124.7229
38.108695 85.168 -125.0852
38.384846 85.250 -125.4561
38.662999 85.328 -125.8356
38.943167 85.402 -126.2227
39.225365 85.471 -126.6153
39.509608 85.537 -127.0101
39.795911 85.599 -127.4028
40.084289 85.659 -127.7887
40.374756 85.717 -128.1628
40.667328 85.773 -128.5210
40.962020 85.828 -128.8598
41.258848 85.884 -129.1778
41.557827 85.940 -129.4758
41.858972 85.996 -129.7570
42.162299 86.052 -130.0268
42.467824 86.109 -130.2924
42.775564 86.165 -130.5620
43.085533 86.220 -130.8437
43.397749 86.272 -131.1442
43.712227 86.321 -131.4682
44.028983 86.366 -131.8171
44.348036 86.406 -132.1892
44.669400 86.441 -132.5799
44.993093 86.472 -132.9825
45.319131 86.499 -133.3892
45.647532 86.524 -133.7930
45.978313 86.547 -134.1883
46.311491 86.570 -134.5719
46.647083 86.594 -134.9435
46.985107 86.618 -135.3045
47.325581 86.644 -135.6580
47.668521 86.671 -136.0075
48.013947 86.699 -136.3560
48.361876 86.727 -136.7061
48.712326 86.754 -137.0591
49.065315 86.780 -137.4150
49.420863 86.806 -137.7726
49.778987 86.830 -138.1294
50.139706 86.853 -138.4821
50.503039 86.876 -138.8270
50.869005 86.897 -139.1606
51.237623 86.918 -139.4798
51.608912 86.937 -139.7825
51.982891 86.955 -140.0679
52.359580 86.971 -140.3365
52.739000 86.985 -140.5900
53.121168 86.998 -140.8321
53.506106 87.009 -141.0673
53.893833 87.019 -141.3010
54.284370 87.030 -141.5379
54.677737 87.041 -141.7816
55.073955 87.053 -142.0340
55.473043 87.067 -142.2957
55.875024 87.084 -142.5663
56.279917 87.104 -142.8457
56.687745 87.127 -143.1335
57.098527 87.155 -143.4299
57.512287 87.186 -143.7350
57.929045 87.222 -144.0488
58.348822 87.260 -144.3707
58.771642 87.301 -144.6990
59.197525 87.342 -145.0301
59.626495 87.383 -145.3592
60.058573 87.422 -145.6803
60.493782 87.459 -145.9887
60.932145 87.495 -146.2818
61.373685 87.529 -146.5601
61.818424 87.563 -146.8267
62.266386 87.597 -147.0860
62.717593 87.633 -147.3420
63.172071 87.671 -147.5983
63.629842 87.712 -147.8575
64.090930 87.755 -148.1220
64.555359 87.800 -148.3936
65.023154 87.847 -148.6740
65.494339 87.896 -148.9643
65.968938 87.946 -149.2650
66.446976 87.996 -149.5761
66.928478 88.045 -149.8967
67.413469 88.094 -150.2254
67.901975 88.141 -150.5601
68.394021 88.187 -150.8986
68.889632 88.231 -151.2390
69.388835 88.274 -151.5798
69.891655 88.314 -151.9196
70.398118 88.353 -152.2575
70.908252 88.390 -152.5926
71.422083 88.425 -152.9245
71.939636 88.458 -153.2531
72.460941 88.489 -153.5790
72.986023 88.518 -153.9036
73.514909 88.544 -154.2287
74.047629 88.569 -154.5561
74.584208 88.591 -154.8873
75.124676 88.611 -155.2230
75.669061 88.629 -155.5632
76.217390 88.644 -155.9076
76.769692 88.658 -156.2555
77.325997 88.670 -156.6060
77.886333 88.680 -156.9576
78.450730 88.688 -157.3088
79.019216 88.693 -157.6579
79.591822 88.697 -158.0033
80.168577 88.699 -158.3438
80.749512 88.698 -158.6790
81.334656 88.697 -159.0086
81.924040 88.694 -159.3328
82.517696 88.691 -159.6517
83.115653 88.688 -159.9657
83.717943 88.685 -160.2752
84.324598 88.683 -160.5805
84.935649 88.681 -160.8822
85.551128 88.679 -161.1811
86.171066 88.677 -161.4780
86.795497 88.675 -161.7742
87.424453 88.673 -162.0704
88.057967 88.671 -162.3672
88.696071 88.668 -162.6647
89.338800 88.665 -162.9624
89.986185 88.662 -163.2594
90.638262 88.658 -163.5550
91.295065 88.653 -163.8484
91.956626 88.649 -164.1394
92.622982 88.644 -164.4284
93.294166 88.639 -164.7160
93.970214 88.634 -165.0032
94.651161 88.629 -165.2908
95.337042 88.623 -165.5797
96.027894 88.618 -165.8704
96.723752 88.612 -166.1631
97.424652 88.606 -166.4577
98.130631 88.601 -166.7540
98.841726 88.595 -167.0515
99.557974 88.590 -167.3496
100.279412 88.585 -167.6477
101.006078 88.580 -167.9455
101.738010 88.576 -168.2430
102.475245 88.572 -168.5403
103.217823 88.570 -168.8376
103.965782 88.569 -169.1351
104.719161 88.568 -169.4325
105.477999 88.569 -169.7287
106.242336 88.570 -170.0228
107.012212 88.573 -170.3133
107.787666 88.576 -170.5992
108.568740 88.580 -170.8796
109.355474 88.584 -171.1534
110.147909 88.589 -171.4202
110.946086 88.595 -171.6796
111.750047 88.602 -171.9318
112.559834 88.609 -172.1782
113.375489 88.616 -172.4205
114.197055 88.623 -172.6609
115.024574 88.630 -172.9017
115.858089 88.637 -173.1448
116.697645 88.644 -173.3916
117.543284 88.651 -173.6428
118.395051 88.657 -173.8988
119.252990 88.664 -174.1595
120.117147 88.670 -174.4242
120.987565 88.676 -174.6921
121.864291 88.682 -174.9619
122.747370 88.688 -175.2321
123.636848 88.693 -175.5009
124.532771 88.697 -175.7671
125.435187 88.701 -176.0294
126.344142 88.704 -176.2873
127.259684 88.707 -176.5408
128.181860 88.709 -176.7902
129.110718 88.710 -177.0359
130.046308 88.711 -177.2784
130.988677 88.710 -177.5176
131.937875 88.708 -177.7535
132.893951 88.705 -177.9858
133.856956 88.700 -178.2146
134.826938 88.694 -178.4400
135.803950 88.686 -178.6626
136.788041 88.676 -178.8827
137.779264 88.665 -179.1009
138.777669 88.653 -179.3178
139.783309 88.639 -179.5337
140.796237 88.624 -179.7491
141.816504 88.608 -179.9639
142.844165 88.590 179.8219
143.879273 88.572 179.6085
144.921881 88.553 179.3960
145.972045 88.533 179.1845
147.029819 88.512 178.9736
148.095257 88.490 178.7630
149.168417 88.468 178.5518
150.249353 88.445 178.3397
151.338121 88.422 178.1263
152.434780 88.398 177.9124
153.539385 88.374 177.6985
154.651995 88.351 177.4858
155.772667 88.327 177.2751
156.901460 88.304 177.0670
158.038432 88.281 176.8618
159.183644 88.259 176.6593
160.337154 88.237 176.4596
161.499023 88.216 176.2624
162.669312 88.195 176.0675
163.848081 88.174 175.8746
165.035392 88.153 175.6834
166.231306 88.132 175.4940
167.435887 88.111 175.3059
168.649196 88.091 175.1190
169.871298 88.070 174.9327
171.102255 88.049 174.7468
172.342133 88.028 174.5610
173.590995 88.007 174.3751
174.848907 87.986 174.1896
176.115934 87.963 174.0049
177.392143 87.940 173.8218
178.677599 87.917 173.6410
179.972371 87.892 173.4629
181.276525 87.866 173.2875
182.590129 87.840 173.1148
183.913252 87.814 172.9443
185.245964 87.786 172.7757
186.588332 87.758 172.6088
187.940428 87.730 172.4438
189.302322 87.701 172.2806
190.674085 87.672 172.1195
192.055788 87.642 171.9607
193.447503 87.612 171.8044
194.849303 87.581 171.6506
196.261262 87.548 171.4992
197.683452 87.516 171.3497
199.115948 87.482 171.2014
200.558824 87.448 171.0539
202.012156 87.414 170.9067
203.476019 87.380 170.7605
204.950490 87.347 170.6163
206.435646 87.314 170.4755
207.931564 87.281 170.3397
209.438322 87.248 170.2104
210.955998 87.217 170.0881
212.484672 87.186 169.9735
214.024424 87.155 169.8666
215.575333 87.126 169.7672
217.137481 87.098 169.6747
218.710948 87.070 169.5882
220.295818 87.045 169.5066
221.892172 87.020 169.4287
223.500094 86.997 169.3536
225.119668 86.976 169.2807
226.750978 86.956 169.2094
228.394109 86.938 169.1393
230.049147 86.920 169.0701
231.716178 86.905 169.0009
233.395289 86.890 168.9311
235.086567 86.877 168.8593
236.790102 86.866 168.7843
238.505980 86.856 168.7051
240.234293 86.848 168.6212
241.975130 86.842 168.5323
243.728581 86.838 168.4392
245.494739 86.835 168.3423
247.273695 86.833 168.2426
249.065542 86.833 168.1411
250.870374 86.833 168.0388
252.688284 86.834 167.9373
254.519367 86.835 167.8384
256.363720 86.837 167.7443
258.221437 86.837 167.6569
260.092616 86.837 167.5772
261.977354 86.835 167.5057
263.875750 86.832 167.4420
265.787903 86.827 167.3845
267.713911 86.820 167.3314
269.653877 86.812 167.2803
271.607900 86.802 167.2293
273.576083 86.792 167.1773
275.558528 86.781 167.1236
277.555338 86.770 167.0679
279.566619 86.759 167.0103
281.592474 86.748 166.9511
283.633009 86.738 166.8907
285.688331 86.727 166.8296
287.758546 86.717 166.7687
289.843763 86.708 166.7086
291.944090 86.699 166.6502
294.059638 86.692 166.5939
296.190515 86.685 166.5399
298.336833 86.679 166.4881
300.498705 86.675 166.4384
302.676243 86.671 166.3907
304.869559 86.669 166.3451
307.078770 86.668 166.3018
309.303989 86.667 166.2612
311.545334 86.666 166.2233
313.802919 86.666 166.1882
316.076865 86.666 166.1556
318.367288 86.665 166.1254
320.674309 86.664 166.0970
322.998047 86.663 166.0706
325.338624 86.662 166.0462
327.696162 86.660 166.0241
330.070783 86.657 166.0049
332.462612 86.654 165.9890
334.871773 86.651 165.9766
337.298392 86.646 165.9673
339.742595 86.640 165.9608
342.204510 86.633 165.9564
344.684265 86.626 165.9534
347.181989 86.616 165.9510
349.697813 86.606 165.9485
352.231868 86.594 165.9448
354.784285 86.581 165.9390
357.355198 86.567 165.9300
359.944741 86.552 165.9167
362.553049 86.537 165.8987
365.180258 86.522 165.8764
367.826505 86.506 165.8509
370.491927 86.491 165.8240
373.176665 86.475 165.7975
375.880856 86.460 165.7735
378.604644 86.444 165.7535
381.348169 86.427 165.7391
384.111575 86.411 165.7311
386.895006 86.394 165.7297
389.698607 86.376 165.7344
392.522524 86.358 165.7444
395.366904 86.339 165.7589
398.231895 86.320 165.7770
401.117648 86.300 165.7986
404.024312 86.279 165.8235
406.952038 86.258 165.8512
409.900981 86.236 165.8810
412.871292 86.213 165.9118
415.863128 86.189 165.9424
418.876643 86.163 165.9714
421.911996 86.137 165.9982
424.969344 86.108 166.0224
428.048847 86.079 166.0441
431.150666 86.048 166.0638
434.274961 86.015 166.0821
437.421897 85.981 166.1002
440.591636 85.945 166.1190
443.784345 85.908 166.1396
447.000189 85.870 166.1630
450.239337 85.832 166.1899
453.501956 85.792 166.2209
456.788219 85.752 166.2558
460.098294 85.713 166.2944
463.432356 85.673 166.3362
466.790578 85.634 166.3807
470.173135 85.596 166.4269
473.580203 85.559 166.4742
477.011961 85.523 166.5219
480.468586 85.488 166.5692
483.950259 85.455 166.6160
487.457163 85.422 166.6617
490.989478 85.391 166.7065
494.547390 85.361 166.7501
498.131084 85.332 166.7930
501.740748 85.305 166.8354
505.376568 85.279 166.8781
509.038735 85.254 166.9214
512.727439 85.231 166.9657
516.442874 85.209 167.0112
520.185232 85.189 167.0580
523.954708 85.170 167.1058
527.751500 85.153 167.1547
531.575805 85.138 167.2042
535.427822 85.124 167.2542
539.307753 85.112 167.3044
543.215800 85.102 167.3549
547.152165 85.094 167.4056
551.117055 85.088 167.4566
555.110677 85.083 167.5079
559.133237 85.080 167.5599
563.184947 85.078 167.6130
567.266018 85.077 167.6678
571.376661 85.078 167.7253
575.517092 85.079 167.7860
579.687526 85.082 167.8507
583.888181 85.085 167.9200
588.119275 85.088 167.9941
592.381030 85.091 168.0731
596.673667 85.095 168.1568
600.997410 85.099 168.2446
605.352485 85.103 168.3361
609.739119 85.107 168.4304
614.157540 85.110 168.5272
618.607979 85.114 168.6263
623.090667 85.116 168.7275
627.605839 85.119 168.8307
632.153730 85.120 168.9355
636.734576 85.121 169.0411
641.348617 85.122 169.1467
645.996094 85.122 169.2513
650.677248 85.121 169.3544
655.392323 85.119 169.4550
660.141566 85.117 169.5529
664.925224 85.114 169.6475
669.743546 85.111 169.7385
674.596784 85.107 169.8258
679.485191 85.102 169.9093
684.409020 85.097 169.9890
689.368530 85.091 170.0647
694.363979 85.083 170.1362
699.395626 85.075 170.2033
704.463736 85.065 170.2656
709.568570 85.054 170.3230
714.710396 85.041 170.3758
719.889483 85.026 170.4248
725.106099 85.009 170.4711
730.360516 84.990 170.5164
735.653010 84.968 170.5621
740.983855 84.944 170.6097
746.353329 84.918 170.6605
751.761713 84.890 170.7153
757.209288 84.861 170.7747
762.696339 84.830 170.8385
768.223151 84.798 170.9066
773.790013 84.765 170.9783
779.397214 84.731 171.0531
785.045047 84.698 171.1300
790.733808 84.665 171.2078
796.463791 84.633 171.2847
802.235296 84.602 171.3589
808.048623 84.572 171.4282
813.904077 84.542 171.4902
819.801961 84.514 171.5428
825.742584 84.485 171.5845
831.726255 84.457 171.6143
837.753287 84.429 171.6320
843.823992 84.400 171.6384
849.938689 84.369 171.6350
856.097695 84.336 171.6246
862.301332 84.300 171.6111
868.549922 84.262 171.5995
874.843793 84.220 171.5957
881.183272 84.175 171.6068
887.568689 84.127 171.6404
894.000378 84.077 171.7044
900.478673 84.025 171.8066
907.003913 83.972 171.9532
913.576437 83.920 172.1487
920.196588 83.870 172.3942
926.864712 83.826 172.6876
933.581156 83.788 173.0231
940.346270 83.757 173.3923
947.160407 83.736 173.7846
954.023921 83.724 174.1887
960.937172 83.721 174.5938
967.900519 83.728 174.9902
974.914325 83.742 175.3704
981.978956 83.765 175.7287
989.094780 83.793 176.0620
996.262169 83.827 176.3691
1003.481495 83.866 176.6503
1010.753136 83.908 176.9071
1018.077470 83.953 177.1414
1025.454879 84.002 177.3552
1032.885748 84.052 177.5508
1040.370463 84.105 177.7298
1047.909417 84.159 177.8936
1055.503000 84.215 178.0437
1063.151610 84.271 178.1814
1070.855645 84.329 178.3079
1078.615506 84.388 178.4243
1086.431599 84.447 178.5316
1094.304330 84.507 178.6303
1102.234110 84.567 178.7215
1110.221353 84.627 178.8056
1118.266475 84.686 178.8835
1126.369895 84.746 178.9555
1134.532035 84.805 179.0219
1142.753322 84.863 179.0825
1151.034184 84.922 179.1371
1159.375052 84.979 179.1854
1167.776361 85.036 179.2269
1176.238550 85.092 179.2615
1184.762060 85.147 179.2892
1193.347334 85.202 179.3102
1201.994821 85.255 179.3251
1210.704971 85.308 179.3345
1219.478238 85.360 179.3391
1228.315080 85.411 179.3403
1237.215957 85.461 179.3395
1246.181334 85.510 179.3386
1255.211678 85.558 179.3391
1264.307459 85.606 179.3423
1273.469152 85.653 179.3493
1282.697235 85.699 179.3609
1291.992188 85.745 179.3776
1301.354495 85.791 179.3998
1310.784647 85.837 179.4272
1320.283132 85.883 179.4590
1329.850448 85.929 179.4939
1339.487093 85.976 179.5308
1349.193569 86.022 179.5682
1358.970381 86.069 179.6055
1368.818041 86.116 179.6422
1378.737061 86.164 179.6784
1388.727958 86.212 179.7145
1398.791253 86.261 179.7513
1408.927471 86.311 179.7896
1419.137140 86.361 179.8300
1429.420793 86.413 179.8733
1439.778965 86.466 179.9197
1450.212197 86.520 179.9695
1460.721033 86.576 -179.9772
1471.306019 86.633 -179.9203
1481.967709 86.692 -179.8600
1492.706658 86.752 -179.7968
1503.523426 86.812 -179.7310
1514.418576 86.873 -179.6633
1525.392678 86.934 -179.5940
1536.446302 86.994 -179.5233
1547.580025 87.052 -179.4508
1558.794428 87.109 -179.3762
1570.090095 87.164 -179.2989
1581.467615 87.216 -179.2187
1592.927581 87.265 -179.1355
1604.470591 87.311 -179.0493
1616.097246 87.353 -178.9598
1627.808153 87.391 -178.8662
1639.603922 87.425 -178.7669
1651.485168 87.455 -178.6595
1663.452510 87.481 -178.5415
1675.506573 87.504 -178.4104
1687.647984 87.524 -178.2643
1699.877377 87.541 -178.1024
1712.195390 87.556 -177.9245
1724.602663 87.570 -177.7312
1737.099845 87.584 -177.5236
1749.687587 87.598 -177.3031
1762.366544 87.612 -177.0712
1775.137379 87.627 -176.8295
1788.000756 87.643 -176.5803
1800.957346 87.660 -176.3263
1814.007826 87.678 -176.0705
1827.152874 87.698 -175.8164
1840.393177 87.718 -175.5670
1853.729425 87.740 -175.3250
1867.162312 87.761 -175.0919
1880.692540 87.781 -174.8685
1894.320813 87.801 -174.6546
1908.047843 87.820 -174.4500
1921.874344 87.837 -174.2541
1935.801038 87.852 -174.0664
1949.828650 87.866 -173.8863
1963.957912 87.879 -173.7133
1978.189561 87.890 -173.5473
1992.524338 87.899 -173.3881
2006.962991 87.908 -173.2366
2021.506272 87.916 -173.0942
2036.154940 87.923 -172.9630
2050.909758 87.930 -172.8459
2065.771495 87.937 -172.7459
2080.740927 87.944 -172.6657
2095.818833 87.950 -172.6072
2111.006001 87.956 -172.5713
2126.303220 87.960 -172.5578
2141.711290 87.964 -172.5654
2157.231013 87.966 -172.5921
2172.863198 87.967 -172.6355
2188.608660 87.966 -172.6928
2204.468221 87.964 -172.7615
2220.442706 87.960 -172.8392
2236.532950 87.956 -172.9233
2252.739789 87.950 -173.0115
2269.064070 87.943 -173.1015
2285.506644 87.936 -173.1916
2302.068367 87.928 -173.2801
2318.750104 87.921 -173.3660
2335.552723 87.914 -173.4487
2352.477101 87.908 -173.5281
2369.524119 87.904 -173.6042
2386.694668 87.901 -173.6777
2403.989641 87.901 -173.7499
2421.409941 87.904 -173.8222
2438.956476 87.909 -173.8965
2456.630160 87.918 -173.9747
2474.431915 87.929 -174.0585
2492.362668 87.944 -174.1488
2510.423356 87.962 -174.2460
2528.614918 87.983 -174.3494
2546.938304 88.006 -174.4575
2565.394469 88.031 -174.5682
2583.984375 88.060 -174.6790
2602.708991 88.091 -174.7879
2621.569293 88.125 -174.8933
2640.566265 88.162 -174.9942
2659.700897 88.203 -175.0906
2678.974186 88.247 -175.1828
2698.387137 88.296 -175.2722
2717.940763 88.349 -175.3608
2737.636082 88.406 -175.4509
2757.474121 88.467 -175.5454
2777.455915 88.532 -175.6469
2797.582506 88.600 -175.7579
2817.854942 88.672 -175.8802
2838.274281 88.745 -176.0154
2858.841586 88.820 -176.1645
2879.557931 88.897 -176.3283
2900.424394 88.974 -176.5072
2921.442065 89.050 -176.7016
2942.612039 89.126 -176.9120
2963.935418 89.200 -177.1385
2985.413316 89.272 -177.3810
3007.046852 89.340 -177.6390
3028.837153 89.404 -177.9119
3050.785356 89.464 -178.1983
3072.892604 89.518 -178.4970
3095.160050 89.565 -178.8067
3117.588856 89.606 -179.1260
3140.180190 89.640 -179.4531
3162.935230 89.666 -179.7863
3185.855163 89.683 179.8763
3208.941182 89.692 179.5367
3232.194493 89.693 179.1966
3255.616307 89.685 178.8573
3279.207844 89.668 178.5201
3302.970336 89.642 178.1862
3326.905021 89.607 177.8571
3351.013146 89.564 177.5344
3375.295969 89.513 177.2197
3399.754755 89.454 176.9145
