* Measurement data measured by REW V5.31.3
* Source: EXCL: Headset (USB-C to 3.5mm Headphone Jack Adapter), MICROPHONE (Master Volume), 0, volume: 0.750
* Format: 256k Log Swept Sine, 1 sweep at -12.0 dBFS with no timing reference
* Dated: Apr 7, 2025 12:09:17 PM
* REW Settings:
*  C-weighting compensation: Off
*  Target level: 75.0 dB
* Note: ; 
* Measurement: HD6XX (Forward) L4
* Smoothing: 1/6 octave
* Frequency Step: 96 ppo
* Start Frequency: 20.0 Hz
*
* Freq(Hz) SPL(dB) Phase(degrees)
20.187378 78.361 -94.4513
20.333664 78.414 -94.5378
20.481010 78.484 -94.6588
20.629424 78.570 -94.8171
20.778913 78.668 -95.0143
20.929486 78.775 -95.2503
21.081150 78.889 -95.5226
21.233912 79.006 -95.8263
21.387782 79.125 -96.1542
21.542767 79.244 -96.4976
21.698874 79.360 -96.8469
21.856113 79.474 -97.1929
22.014492 79.583 -97.5274
22.174018 79.688 -97.8445
22.334700 79.790 -98.1409
22.496546 79.886 -98.4162
22.659566 79.979 -98.6730
22.823766 80.068 -98.9166
22.989157 80.152 -99.1536
23.155745 80.232 -99.3913
23.323542 80.306 -99.6366
23.492554 80.375 -99.8943
23.662790 80.437 -100.1675
23.834261 80.492 -100.4560
24.006973 80.541 -100.7573
24.180938 80.584 -101.0669
24.356163 80.622 -101.3791
24.532658 80.656 -101.6885
24.710431 80.688 -101.9909
24.889493 80.720 -102.2839
25.069853 80.753 -102.5682
25.251519 80.787 -102.8466
25.434502 80.824 -103.1240
25.618811 80.863 -103.4062
25.804456 80.902 -103.6983
25.991445 80.941 -104.0039
26.179790 80.977 -104.3242
26.369500 81.008 -104.6577
26.560584 81.033 -105.0005
26.753053 81.052 -105.3476
26.946917 81.063 -105.6937
27.142185 81.069 -106.0352
27.338869 81.071 -106.3710
27.536977 81.070 -106.7037
27.736522 81.069 -107.0389
27.937512 81.070 -107.3848
28.139959 81.074 -107.7502
28.343872 81.084 -108.1424
28.549264 81.097 -108.5654
28.756143 81.116 -109.0180
28.964522 81.139 -109.4933
29.174411 81.165 -109.9795
29.385821 81.195 -110.4616
29.598763 81.229 -110.9237
29.813248 81.268 -111.3517
30.029287 81.312 -111.7361
30.246891 81.363 -112.0734
30.466073 81.420 -112.3668
30.686842 81.485 -112.6248
30.909212 81.555 -112.8597
31.133193 81.631 -113.0851
31.358797 81.710 -113.3132
31.586035 81.790 -113.5529
31.814921 81.870 -113.8092
32.045465 81.949 -114.0831
32.277680 82.027 -114.3729
32.511577 82.104 -114.6755
32.747169 82.182 -114.9879
32.984469 82.262 -115.3080
33.223488 82.345 -115.6356
33.464239 82.433 -115.9715
33.706735 82.526 -116.3171
33.950987 82.622 -116.6729
34.197010 82.723 -117.0382
34.444816 82.826 -117.4098
34.694417 82.930 -117.7832
34.945827 83.034 -118.1526
35.199059 83.137 -118.5125
35.454126 83.239 -118.8585
35.711041 83.340 -119.1886
35.969818 83.438 -119.5034
36.230470 83.535 -119.8058
36.493011 83.629 -120.1003
36.757455 83.720 -120.3919
37.023814 83.809 -120.6850
37.292104 83.896 -120.9832
37.562338 83.980 -121.2883
37.834530 84.061 -121.6014
38.108695 84.141 -121.9230
38.384846 84.221 -122.2536
38.662999 84.299 -122.5939
38.943167 84.377 -122.9447
39.225365 84.453 -123.3063
39.509608 84.528 -123.6781
39.795911 84.600 -124.0580
40.084289 84.669 -124.4427
40.374756 84.733 -124.8279
40.667328 84.794 -125.2092
40.962020 84.851 -125.5830
41.258848 84.905 -125.9467
41.557827 84.958 -126.2990
41.858972 85.010 -126.6397
42.162299 85.064 -126.9692
42.467824 85.119 -127.2878
42.775564 85.176 -127.5959
43.085533 85.234 -127.8933
43.397749 85.292 -128.1796
43.712227 85.349 -128.4534
44.028983 85.402 -128.7133
44.348036 85.451 -128.9572
44.669400 85.493 -129.1834
44.993093 85.529 -129.3915
45.319131 85.559 -129.5829
45.647532 85.584 -129.7612
45.978313 85.606 -129.9329
46.311491 85.627 -130.1056
46.647083 85.650 -130.2875
46.985107 85.675 -130.4855
47.325581 85.704 -130.7048
47.668521 85.737 -130.9481
48.013947 85.773 -131.2159
48.361876 85.811 -131.5071
48.712326 85.851 -131.8193
49.065315 85.892 -132.1486
49.420863 85.933 -132.4902
49.778987 85.974 -132.8385
50.139706 86.013 -133.1874
50.503039 86.052 -133.5314
50.869005 86.089 -133.8659
51.237623 86.124 -134.1869
51.608912 86.157 -134.4915
51.982891 86.187 -134.7775
52.359580 86.213 -135.0435
52.739000 86.236 -135.2895
53.121168 86.256 -135.5175
53.506106 86.273 -135.7317
53.893833 86.288 -135.9377
54.284370 86.303 -136.1416
54.677737 86.317 -136.3488
55.073955 86.331 -136.5627
55.473043 86.345 -136.7849
55.875024 86.359 -137.0157
56.279917 86.372 -137.2550
56.687745 86.385 -137.5029
57.098527 86.396 -137.7603
57.512287 86.408 -138.0286
57.929045 86.421 -138.3091
58.348822 86.436 -138.6024
58.771642 86.455 -138.9084
59.197525 86.479 -139.2262
59.626495 86.510 -139.5545
60.058573 86.550 -139.8911
60.493782 86.596 -140.2329
60.932145 86.650 -140.5759
61.373685 86.709 -140.9154
61.818424 86.771 -141.2470
62.266386 86.835 -141.5678
62.717593 86.900 -141.8764
63.172071 86.966 -142.1738
63.629842 87.031 -142.4617
64.090930 87.096 -142.7431
64.555359 87.160 -143.0208
65.023154 87.225 -143.2979
65.494339 87.290 -143.5771
65.968938 87.355 -143.8609
66.446976 87.420 -144.1512
66.928478 87.484 -144.4496
67.413469 87.549 -144.7563
67.901975 87.612 -145.0708
68.394021 87.674 -145.3915
68.889632 87.734 -145.7166
69.388835 87.792 -146.0445
69.891655 87.847 -146.3743
70.398118 87.898 -146.7061
70.908252 87.947 -147.0409
71.422083 87.991 -147.3799
71.939636 88.032 -147.7238
72.460941 88.068 -148.0723
72.986023 88.101 -148.4240
73.514909 88.131 -148.7768
74.047629 88.157 -149.1284
74.584208 88.181 -149.4770
75.124676 88.202 -149.8212
75.669061 88.221 -150.1606
76.217390 88.238 -150.4954
76.769692 88.254 -150.8261
77.325997 88.268 -151.1534
77.886333 88.281 -151.4780
78.450730 88.293 -151.8006
79.019216 88.304 -152.1214
79.591822 88.314 -152.4408
80.168577 88.323 -152.7588
80.749512 88.332 -153.0752
81.334656 88.340 -153.3899
81.924040 88.348 -153.7029
82.517696 88.356 -154.0143
83.115653 88.362 -154.3243
83.717943 88.369 -154.6332
84.324598 88.375 -154.9412
84.935649 88.381 -155.2487
85.551128 88.386 -155.5557
86.171066 88.392 -155.8626
86.795497 88.398 -156.1692
87.424453 88.404 -156.4752
88.057967 88.410 -156.7801
88.696071 88.416 -157.0836
89.338800 88.422 -157.3856
89.986185 88.427 -157.6866
90.638262 88.432 -157.9871
91.295065 88.437 -158.2881
91.956626 88.441 -158.5904
92.622982 88.444 -158.8946
93.294166 88.447 -159.2011
93.970214 88.450 -159.5101
94.651161 88.453 -159.8214
95.337042 88.455 -160.1347
96.027894 88.458 -160.4495
96.723752 88.461 -160.7652
97.424652 88.464 -161.0807
98.130631 88.467 -161.3955
98.841726 88.471 -161.7088
99.557974 88.474 -162.0201
100.279412 88.478 -162.3290
101.006078 88.482 -162.6352
101.738010 88.487 -162.9389
102.475245 88.492 -163.2404
103.217823 88.498 -163.5404
103.965782 88.504 -163.8398
104.719161 88.510 -164.1396
105.477999 88.517 -164.4408
106.242336 88.525 -164.7441
107.012212 88.532 -165.0493
107.787666 88.540 -165.3558
108.568740 88.548 -165.6625
109.355474 88.557 -165.9683
110.147909 88.566 -166.2726
110.946086 88.576 -166.5753
111.750047 88.586 -166.8771
112.559834 88.597 -167.1787
113.375489 88.608 -167.4809
114.197055 88.620 -167.7840
115.024574 88.632 -168.0878
115.858089 88.645 -168.3913
116.697645 88.658 -168.6934
117.543284 88.670 -168.9925
118.395051 88.683 -169.2874
119.252990 88.695 -169.5769
120.117147 88.706 -169.8605
120.987565 88.717 -170.1383
121.864291 88.727 -170.4110
122.747370 88.735 -170.6795
123.636848 88.742 -170.9451
124.532771 88.749 -171.2086
125.435187 88.754 -171.4710
126.344142 88.758 -171.7324
127.259684 88.762 -171.9928
128.181860 88.764 -172.2518
129.110718 88.766 -172.5090
130.046308 88.768 -172.7638
130.988677 88.768 -173.0157
131.937875 88.767 -173.2645
132.893951 88.766 -173.5101
133.856956 88.763 -173.7527
134.826938 88.760 -173.9928
135.803950 88.755 -174.2313
136.788041 88.749 -174.4691
137.779264 88.742 -174.7068
138.777669 88.734 -174.9445
139.783309 88.725 -175.1819
140.796237 88.715 -175.4184
141.816504 88.704 -175.6534
142.844165 88.692 -175.8866
143.879273 88.679 -176.1179
144.921881 88.666 -176.3478
145.972045 88.652 -176.5767
147.029819 88.638 -176.8051
148.095257 88.623 -177.0332
149.168417 88.607 -177.2609
150.249353 88.591 -177.4880
151.338121 88.575 -177.7139
152.434780 88.558 -177.9380
153.539385 88.541 -178.1595
154.651995 88.523 -178.3780
155.772667 88.506 -178.5932
156.901460 88.488 -178.8055
158.038432 88.470 -179.0150
159.183644 88.452 -179.2227
160.337154 88.433 -179.4294
161.499023 88.415 -179.6358
162.669312 88.396 -179.8428
163.848081 88.378 179.9490
165.035392 88.360 179.7394
166.231306 88.343 179.5285
167.435887 88.326 179.3164
168.649196 88.310 179.1038
169.871298 88.293 178.8912
171.102255 88.277 178.6796
172.342133 88.260 178.4700
173.590995 88.244 178.2632
174.848907 88.227 178.0598
176.115934 88.211 177.8597
177.392143 88.194 177.6630
178.677599 88.177 177.4688
179.972371 88.159 177.2766
181.276525 88.141 177.0858
182.590129 88.123 176.8960
183.913252 88.104 176.7072
185.245964 88.085 176.5193
186.588332 88.065 176.3328
187.940428 88.044 176.1480
189.302322 88.022 175.9654
190.674085 88.000 175.7852
192.055788 87.976 175.6075
193.447503 87.952 175.4328
194.849303 87.928 175.2611
196.261262 87.903 175.0930
197.683452 87.878 174.9290
199.115948 87.853 174.7695
200.558824 87.829 174.6147
202.012156 87.805 174.4645
203.476019 87.782 174.3179
204.950490 87.758 174.1738
206.435646 87.735 174.0308
207.931564 87.713 173.8877
209.438322 87.690 173.7438
210.955998 87.668 173.5986
212.484672 87.646 173.4521
214.024424 87.624 173.3046
215.575333 87.603 173.1569
217.137481 87.582 173.0096
218.710948 87.562 172.8635
220.295818 87.543 172.7186
221.892172 87.524 172.5750
223.500094 87.507 172.4323
225.119668 87.490 172.2902
226.750978 87.474 172.1487
228.394109 87.460 172.0079
230.049147 87.447 171.8678
231.716178 87.435 171.7284
233.395289 87.424 171.5897
235.086567 87.414 171.4515
236.790102 87.406 171.3141
238.505980 87.398 171.1774
240.234293 87.392 171.0419
241.975130 87.386 170.9078
243.728581 87.380 170.7756
245.494739 87.375 170.6455
247.273695 87.370 170.5181
249.065542 87.365 170.3937
250.870374 87.360 170.2732
252.688284 87.355 170.1569
254.519367 87.351 170.0450
256.363720 87.346 169.9372
258.221437 87.341 169.8329
260.092616 87.336 169.7310
261.977354 87.331 169.6298
263.875750 87.326 169.5276
265.787903 87.321 169.4227
267.713911 87.315 169.3140
269.653877 87.310 169.2010
271.607900 87.304 169.0840
273.576083 87.297 168.9641
275.558528 87.291 168.8432
277.555338 87.284 168.7233
279.566619 87.276 168.6060
281.592474 87.269 168.4921
283.633009 87.262 168.3820
285.688331 87.255 168.2758
287.758546 87.248 168.1733
289.843763 87.243 168.0747
291.944090 87.238 167.9799
294.059638 87.233 167.8890
296.190515 87.229 167.8022
298.336833 87.226 167.7196
300.498705 87.224 167.6411
302.676243 87.221 167.5665
304.869559 87.219 167.4954
307.078770 87.218 167.4272
309.303989 87.216 167.3613
311.545334 87.215 167.2972
313.802919 87.214 167.2345
316.076865 87.212 167.1732
318.367288 87.211 167.1134
320.674309 87.209 167.0554
322.998047 87.207 166.9991
325.338624 87.205 166.9446
327.696162 87.203 166.8922
330.070783 87.200 166.8419
332.462612 87.197 166.7939
334.871773 87.193 166.7484
337.298392 87.189 166.7053
339.742595 87.184 166.6644
342.204510 87.178 166.6253
344.684265 87.170 166.5872
347.181989 87.162 166.5494
349.697813 87.153 166.5112
352.231868 87.142 166.4723
354.784285 87.131 166.4322
357.355198 87.118 166.3908
359.944741 87.105 166.3483
362.553049 87.092 166.3049
365.180258 87.077 166.2614
367.826505 87.062 166.2186
370.491927 87.046 166.1774
373.176665 87.030 166.1385
375.880856 87.014 166.1022
378.604644 86.997 166.0688
381.348169 86.981 166.0383
384.111575 86.964 166.0107
386.895006 86.947 165.9858
389.698607 86.929 165.9638
392.522524 86.912 165.9448
395.366904 86.894 165.9287
398.231895 86.875 165.9153
401.117648 86.855 165.9041
404.024312 86.835 165.8943
406.952038 86.814 165.8852
409.900981 86.792 165.8761
412.871292 86.769 165.8665
415.863128 86.746 165.8560
418.876643 86.721 165.8442
421.911996 86.696 165.8312
424.969344 86.669 165.8168
428.048847 86.641 165.8014
431.150666 86.612 165.7857
434.274961 86.581 165.7706
437.421897 86.548 165.7572
440.591636 86.514 165.7463
443.784345 86.478 165.7387
447.000189 86.442 165.7345
450.239337 86.404 165.7336
453.501956 86.366 165.7353
456.788219 86.328 165.7390
460.098294 86.290 165.7441
463.432356 86.253 165.7504
466.790578 86.216 165.7577
470.173135 86.179 165.7664
473.580203 86.144 165.7769
477.011961 86.109 165.7896
480.468586 86.076 165.8044
483.950259 86.043 165.8212
487.457163 86.012 165.8394
490.989478 85.981 165.8583
494.547390 85.952 165.8773
498.131084 85.924 165.8955
501.740748 85.896 165.9128
505.376568 85.870 165.9288
509.038735 85.846 165.9436
512.727439 85.823 165.9572
516.442874 85.801 165.9696
520.185232 85.781 165.9806
523.954708 85.763 165.9900
527.751500 85.747 165.9976
531.575805 85.733 166.0030
535.427822 85.721 166.0059
539.307753 85.710 166.0064
543.215800 85.701 166.0049
547.152165 85.694 166.0024
551.117055 85.687 166.0002
555.110677 85.682 165.9999
559.133237 85.677 166.0034
563.184947 85.674 166.0122
567.266018 85.672 166.0278
571.376661 85.671 166.0512
575.517092 85.671 166.0832
579.687526 85.673 166.1238
583.888181 85.675 166.1726
588.119275 85.678 166.2289
592.381030 85.683 166.2915
596.673667 85.688 166.3589
600.997410 85.694 166.4297
605.352485 85.700 166.5021
609.739119 85.707 166.5746
614.157540 85.714 166.6456
618.607979 85.720 166.7140
623.090667 85.726 166.7789
627.605839 85.731 166.8398
632.153730 85.735 166.8969
636.734576 85.738 166.9504
641.348617 85.740 167.0009
645.996094 85.740 167.0490
650.677248 85.739 167.0956
655.392323 85.737 167.1417
660.141566 85.734 167.1878
664.925224 85.729 167.2346
669.743546 85.723 167.2823
674.596784 85.716 167.3309
679.485191 85.709 167.3803
684.409020 85.700 167.4305
689.368530 85.691 167.4817
694.363979 85.681 167.5341
699.395626 85.670 167.5877
704.463736 85.658 167.6429
709.568570 85.646 167.6992
714.710396 85.633 167.7560
719.889483 85.619 167.8126
725.106099 85.605 167.8674
730.360516 85.589 167.9188
735.653010 85.573 167.9653
740.983855 85.557 168.0054
746.353329 85.539 168.0383
751.761713 85.520 168.0635
757.209288 85.500 168.0806
762.696339 85.478 168.0898
768.223151 85.455 168.0918
773.790013 85.431 168.0870
779.397214 85.406 168.0764
785.045047 85.379 168.0605
790.733808 85.351 168.0401
796.463791 85.322 168.0153
802.235296 85.293 167.9861
808.048623 85.263 167.9521
813.904077 85.233 167.9132
819.801961 85.202 167.8691
825.742584 85.170 167.8199
831.726255 85.137 167.7660
837.753287 85.103 167.7086
843.823992 85.067 167.6494
849.938689 85.029 167.5916
856.097695 84.988 167.5396
862.301332 84.944 167.4987
868.549922 84.897 167.4760
874.843793 84.848 167.4786
881.183272 84.797 167.5135
887.568689 84.746 167.5862
894.000378 84.695 167.7003
900.478673 84.647 167.8563
907.003913 84.603 168.0519
913.576437 84.564 168.2821
920.196588 84.532 168.5392
926.864712 84.507 168.8142
933.581156 84.491 169.0974
940.346270 84.482 169.3794
947.160407 84.481 169.6520
954.023921 84.487 169.9087
960.937172 84.500 170.1450
967.900519 84.518 170.3585
974.914325 84.541 170.5486
981.978956 84.569 170.7161
989.094780 84.600 170.8622
996.262169 84.634 170.9887
1003.481495 84.671 171.0970
1010.753136 84.711 171.1882
1018.077470 84.753 171.2632
1025.454879 84.797 171.3225
1032.885748 84.843 171.3666
1040.370463 84.891 171.3958
1047.909417 84.940 171.4104
1055.503000 84.990 171.4111
1063.151610 85.040 171.3989
1070.855645 85.090 171.3752
1078.615506 85.140 171.3418
1086.431599 85.189 171.3006
1094.304330 85.238 171.2533
1102.234110 85.286 171.2014
1110.221353 85.334 171.1459
1118.266475 85.380 171.0873
1126.369895 85.426 171.0257
1134.532035 85.471 170.9608
1142.753322 85.515 170.8920
1151.034184 85.558 170.8195
1159.375052 85.600 170.7433
1167.776361 85.640 170.6644
1176.238550 85.679 170.5840
1184.762060 85.716 170.5035
1193.347334 85.752 170.4241
1201.994821 85.787 170.3467
1210.704971 85.822 170.2720
1219.478238 85.856 170.2002
1228.315080 85.889 170.1313
1237.215957 85.923 170.0652
1246.181334 85.955 170.0020
1255.211678 85.988 169.9413
1264.307459 86.021 169.8834
1273.469152 86.053 169.8282
1282.697235 86.085 169.7758
1291.992188 86.117 169.7259
1301.354495 86.149 169.6784
1310.784647 86.182 169.6332
1320.283132 86.214 169.5901
1329.850448 86.246 169.5487
1339.487093 86.278 169.5084
1349.193569 86.310 169.4686
1358.970381 86.342 169.4283
1368.818041 86.375 169.3870
1378.737061 86.407 169.3439
1388.727958 86.440 169.2990
1398.791253 86.473 169.2519
1408.927471 86.507 169.2024
1419.137140 86.542 169.1498
1429.420793 86.576 169.0938
1439.778965 86.611 169.0347
1450.212197 86.646 168.9741
1460.721033 86.680 168.9147
1471.306019 86.713 168.8604
1481.967709 86.745 168.8152
1492.706658 86.776 168.7831
1503.523426 86.806 168.7676
1514.418576 86.836 168.7714
1525.392678 86.864 168.7961
1536.446302 86.893 168.8424
1547.580025 86.921 168.9092
1558.794428 86.950 168.9942
1570.090095 86.979 169.0934
1581.467615 87.008 169.2026
1592.927581 87.036 169.3175
1604.470591 87.064 169.4346
1616.097246 87.091 169.5507
1627.808153 87.115 169.6635
1639.603922 87.138 169.7708
1651.485168 87.157 169.8713
1663.452510 87.174 169.9647
1675.506573 87.186 170.0519
1687.647984 87.194 170.1351
1699.877377 87.198 170.2177
1712.195390 87.197 170.3039
1724.602663 87.191 170.3988
1737.099845 87.182 170.5075
1749.687587 87.170 170.6348
1762.366544 87.155 170.7845
1775.137379 87.139 170.9585
1788.000756 87.122 171.1559
1800.957346 87.106 171.3737
1814.007826 87.090 171.6069
1827.152874 87.076 171.8505
1840.393177 87.064 172.0992
1853.729425 87.052 172.3485
1867.162312 87.042 172.5939
1880.692540 87.031 172.8315
1894.320813 87.021 173.0577
1908.047843 87.009 173.2699
1921.874344 86.996 173.4678
1935.801038 86.979 173.6527
1949.828650 86.959 173.8284
1963.957912 86.935 173.9992
1978.189561 86.907 174.1700
1992.524338 86.874 174.3457
2006.962991 86.838 174.5304
2021.506272 86.799 174.7280
2036.154940 86.756 174.9421
2050.909758 86.712 175.1749
2065.771495 86.668 175.4273
2080.740927 86.623 175.6976
2095.818833 86.581 175.9820
2111.006001 86.541 176.2748
2126.303220 86.504 176.5695
2141.711290 86.470 176.8600
2157.231013 86.440 177.1407
2172.863198 86.414 177.4067
2188.608660 86.390 177.6544
2204.468221 86.369 177.8820
2220.442706 86.350 178.0894
2236.532950 86.332 178.2783
2252.739789 86.315 178.4514
2269.064070 86.299 178.6112
2285.506644 86.284 178.7600
2302.068367 86.269 178.8998
2318.750104 86.255 179.0328
2335.552723 86.241 179.1613
2352.477101 86.229 179.2874
2369.524119 86.217 179.4132
2386.694668 86.208 179.5399
2403.989641 86.200 179.6682
2421.409941 86.195 179.7986
2438.956476 86.193 179.9310
2456.630160 86.194 -179.9356
2474.431915 86.200 -179.8030
2492.362668 86.209 -179.6736
2510.423356 86.222 -179.5497
2528.614918 86.239 -179.4329
2546.938304 86.260 -179.3238
2565.394469 86.285 -179.2219
2583.984375 86.312 -179.1252
2602.708991 86.342 -179.0308
2621.569293 86.376 -178.9350
2640.566265 86.412 -178.8345
2659.700897 86.452 -178.7271
2678.974186 86.496 -178.6121
2698.387137 86.545 -178.4907
2717.940763 86.598 -178.3654
2737.636082 86.656 -178.2395
2757.474121 86.719 -178.1163
2777.455915 86.786 -177.9983
2797.582506 86.856 -177.8875
2817.854942 86.931 -177.7854
2838.274281 87.007 -177.6936
2858.841586 87.086 -177.6134
2879.557931 87.167 -177.5458
2900.424394 87.249 -177.4909
2921.442065 87.330 -177.4479
2942.612039 87.411 -177.4158
2963.935418 87.491 -177.3935
2985.413316 87.569 -177.3801
3007.046852 87.645 -177.3750
3028.837153 87.719 -177.3781
3050.785356 87.789 -177.3893
3072.892604 87.855 -177.4084
3095.160050 87.916 -177.4345
3117.588856 87.972 -177.4656
3140.180190 88.022 -177.4991
3162.935230 88.065 -177.5320
3185.855163 88.103 -177.5621
3208.941182 88.135 -177.5884
3232.194493 88.161 -177.6118
3255.616307 88.182 -177.6347
3279.207844 88.198 -177.6604
3302.970336 88.208 -177.6922
3326.905021 88.213 -177.7325
3351.013146 88.212 -177.7820
3375.295969 88.204 -177.8399
3399.754755 88.190 -177.9038
3424.390779 88.170 -177.9703
