* Measurement data measured by REW V5.31.3
* Source: EXCL: Headset (USB-C to 3.5mm Headphone Jack Adapter), MICROPHONE (Master Volume), 0, volume: 0.750
* Format: 256k Log Swept Sine, 1 sweep at -12.0 dBFS with no timing reference
* Dated: Apr 7, 2025 12:27:20 PM
* REW Settings:
*  C-weighting compensation: Off
*  Target level: 75.0 dB
* Note: ; 
* Measurement: HD6XX (Forward) R7
* Smoothing: 1/6 octave
* Frequency Step: 96 ppo
* Start Frequency: 20.0 Hz
*
* Freq(Hz) SPL(dB) Phase(degrees)
20.187378 78.714 -96.5943
20.333664 78.746 -96.7279
20.481010 78.788 -96.9062
20.629424 78.839 -97.1234
20.778913 78.900 -97.3729
20.929486 78.967 -97.6488
21.081150 79.042 -97.9454
21.233912 79.121 -98.2577
21.387782 79.206 -98.5816
21.542767 79.295 -98.9135
21.698874 79.386 -99.2500
21.856113 79.480 -99.5881
22.014492 79.574 -99.9247
22.174018 79.669 -100.2570
22.334700 79.764 -100.5823
22.496546 79.856 -100.8984
22.659566 79.947 -101.2040
22.823766 80.035 -101.4988
22.989157 80.119 -101.7843
23.155745 80.199 -102.0636
23.323542 80.275 -102.3414
23.492554 80.347 -102.6238
23.662790 80.414 -102.9177
23.834261 80.475 -103.2303
24.006973 80.531 -103.5675
24.180938 80.580 -103.9338
24.356163 80.622 -104.3308
24.532658 80.658 -104.7572
24.710431 80.687 -105.2083
24.889493 80.709 -105.6764
25.069853 80.725 -106.1518
25.251519 80.737 -106.6231
25.434502 80.746 -107.0795
25.618811 80.755 -107.5113
25.804456 80.766 -107.9117
25.991445 80.780 -108.2777
26.179790 80.801 -108.6101
26.369500 80.828 -108.9137
26.560584 80.862 -109.1958
26.753053 80.903 -109.4657
26.946917 80.950 -109.7324
27.142185 81.000 -110.0032
27.338869 81.052 -110.2829
27.536977 81.103 -110.5732
27.736522 81.151 -110.8729
27.937512 81.196 -111.1783
28.139959 81.236 -111.4847
28.343872 81.273 -111.7873
28.549264 81.307 -112.0826
28.756143 81.339 -112.3691
28.964522 81.371 -112.6472
29.174411 81.405 -112.9200
29.385821 81.441 -113.1917
29.598763 81.481 -113.4669
29.813248 81.525 -113.7500
30.029287 81.573 -114.0440
30.246891 81.625 -114.3500
30.466073 81.680 -114.6675
30.686842 81.737 -114.9945
30.909212 81.796 -115.3282
31.133193 81.858 -115.6660
31.358797 81.921 -116.0058
31.586035 81.985 -116.3463
31.814921 82.052 -116.6873
32.045465 82.121 -117.0295
32.277680 82.192 -117.3742
32.511577 82.265 -117.7227
32.747169 82.341 -118.0762
32.984469 82.420 -118.4354
33.223488 82.502 -118.8007
33.464239 82.587 -119.1718
33.706735 82.675 -119.5483
33.950987 82.766 -119.9294
34.197010 82.860 -120.3143
34.444816 82.957 -120.7021
34.694417 83.055 -121.0918
34.945827 83.155 -121.4821
35.199059 83.256 -121.8721
35.454126 83.356 -122.2605
35.711041 83.456 -122.6463
35.969818 83.555 -123.0285
36.230470 83.652 -123.4064
36.493011 83.746 -123.7794
36.757455 83.838 -124.1474
37.023814 83.927 -124.5103
37.292104 84.012 -124.8686
37.562338 84.094 -125.2228
37.834530 84.173 -125.5735
38.108695 84.247 -125.9212
38.384846 84.317 -126.2660
38.662999 84.384 -126.6077
38.943167 84.447 -126.9456
39.225365 84.507 -127.2789
39.509608 84.564 -127.6068
39.795911 84.620 -127.9286
40.084289 84.674 -128.2444
40.374756 84.728 -128.5542
40.667328 84.781 -128.8585
40.962020 84.833 -129.1574
41.258848 84.885 -129.4505
41.557827 84.936 -129.7369
41.858972 84.985 -130.0154
42.162299 85.033 -130.2847
42.467824 85.079 -130.5441
42.775564 85.124 -130.7932
43.085533 85.168 -131.0326
43.397749 85.211 -131.2632
43.712227 85.253 -131.4862
44.028983 85.294 -131.7030
44.348036 85.333 -131.9156
44.669400 85.371 -132.1263
44.993093 85.409 -132.3386
45.319131 85.445 -132.5566
45.647532 85.479 -132.7839
45.978313 85.511 -133.0237
46.311491 85.542 -133.2769
46.647083 85.571 -133.5431
46.985107 85.599 -133.8201
47.325581 85.626 -134.1054
47.668521 85.654 -134.3970
48.013947 85.684 -134.6935
48.361876 85.715 -134.9947
48.712326 85.748 -135.3003
49.065315 85.782 -135.6100
49.420863 85.817 -135.9232
49.778987 85.851 -136.2392
50.139706 85.884 -136.5579
50.503039 85.916 -136.8796
50.869005 85.947 -137.2055
51.237623 85.976 -137.5367
51.608912 86.004 -137.8741
51.982891 86.031 -138.2178
52.359580 86.058 -138.5666
52.739000 86.086 -138.9183
53.121168 86.114 -139.2694
53.506106 86.143 -139.6158
53.893833 86.172 -139.9530
54.284370 86.202 -140.2773
54.677737 86.231 -140.5864
55.073955 86.260 -140.8804
55.473043 86.289 -141.1615
55.875024 86.319 -141.4337
56.279917 86.351 -141.7021
56.687745 86.386 -141.9712
57.098527 86.425 -142.2445
57.512287 86.467 -142.5247
57.929045 86.514 -142.8135
58.348822 86.563 -143.1128
58.771642 86.612 -143.4246
59.197525 86.660 -143.7503
59.626495 86.704 -144.0899
60.058573 86.743 -144.4415
60.493782 86.775 -144.8013
60.932145 86.801 -145.1651
61.373685 86.824 -145.5286
61.818424 86.846 -145.8888
62.266386 86.869 -146.2430
62.717593 86.895 -146.5888
63.172071 86.925 -146.9245
63.629842 86.960 -147.2493
64.090930 87.001 -147.5646
64.555359 87.046 -147.8731
65.023154 87.095 -148.1783
65.494339 87.147 -148.4830
65.968938 87.201 -148.7892
66.446976 87.255 -149.0982
66.928478 87.310 -149.4106
67.413469 87.363 -149.7269
67.901975 87.416 -150.0478
68.394021 87.468 -150.3730
68.889632 87.518 -150.7022
69.388835 87.565 -151.0345
69.891655 87.611 -151.3688
70.398118 87.654 -151.7038
70.908252 87.695 -152.0385
71.422083 87.732 -152.3724
71.939636 87.767 -152.7047
72.460941 87.799 -153.0355
72.986023 87.827 -153.3647
73.514909 87.853 -153.6933
74.047629 87.876 -154.0220
74.584208 87.896 -154.3523
75.124676 87.912 -154.6850
75.669061 87.926 -155.0204
76.217390 87.938 -155.3582
76.769692 87.947 -155.6973
77.325997 87.954 -156.0362
77.886333 87.960 -156.3737
78.450730 87.965 -156.7087
79.019216 87.969 -157.0406
79.591822 87.972 -157.3696
80.168577 87.974 -157.6957
80.749512 87.975 -158.0194
81.334656 87.976 -158.3410
81.924040 87.976 -158.6606
82.517696 87.975 -158.9789
83.115653 87.975 -159.2961
83.717943 87.974 -159.6129
84.324598 87.972 -159.9299
84.935649 87.971 -160.2475
85.551128 87.970 -160.5662
86.171066 87.970 -160.8863
86.795497 87.969 -161.2079
87.424453 87.970 -161.5308
88.057967 87.970 -161.8550
88.696071 87.971 -162.1802
89.338800 87.972 -162.5061
89.986185 87.971 -162.8317
90.638262 87.971 -163.1561
91.295065 87.969 -163.4777
91.956626 87.966 -163.7951
92.622982 87.962 -164.1073
93.294166 87.957 -164.4142
93.970214 87.951 -164.7163
94.651161 87.945 -165.0145
95.337042 87.938 -165.3102
96.027894 87.930 -165.6043
96.723752 87.923 -165.8979
97.424652 87.916 -166.1914
98.130631 87.909 -166.4854
98.841726 87.903 -166.7801
99.557974 87.898 -167.0758
100.279412 87.893 -167.3721
101.006078 87.888 -167.6688
101.738010 87.884 -167.9650
102.475245 87.880 -168.2600
103.217823 87.876 -168.5530
103.965782 87.874 -168.8434
104.719161 87.872 -169.1310
105.477999 87.871 -169.4157
106.242336 87.871 -169.6980
107.012212 87.873 -169.9783
107.787666 87.875 -170.2572
108.568740 87.878 -170.5350
109.355474 87.882 -170.8120
110.147909 87.887 -171.0878
110.946086 87.891 -171.3624
111.750047 87.897 -171.6359
112.559834 87.902 -171.9084
113.375489 87.908 -172.1802
114.197055 87.914 -172.4513
115.024574 87.921 -172.7218
115.858089 87.928 -172.9915
116.697645 87.935 -173.2605
117.543284 87.942 -173.5285
118.395051 87.949 -173.7949
119.252990 87.955 -174.0591
120.117147 87.962 -174.3204
120.987565 87.967 -174.5786
121.864291 87.972 -174.8335
122.747370 87.977 -175.0852
123.636848 87.980 -175.3342
124.532771 87.983 -175.5805
125.435187 87.986 -175.8242
126.344142 87.988 -176.0651
127.259684 87.989 -176.3033
128.181860 87.990 -176.5389
129.110718 87.991 -176.7718
130.046308 87.990 -177.0021
130.988677 87.989 -177.2297
131.937875 87.987 -177.4551
132.893951 87.984 -177.6792
133.856956 87.979 -177.9026
134.826938 87.974 -178.1257
135.803950 87.967 -178.3482
136.788041 87.958 -178.5693
137.779264 87.948 -178.7881
138.777669 87.937 -179.0041
139.783309 87.925 -179.2173
140.796237 87.911 -179.4284
141.816504 87.896 -179.6383
142.844165 87.879 -179.8482
143.879273 87.862 179.9410
144.921881 87.843 179.7287
145.972045 87.824 179.5144
147.029819 87.803 179.2983
148.095257 87.782 179.0806
149.168417 87.761 178.8618
150.249353 87.738 178.6425
151.338121 87.716 178.4232
152.434780 87.693 178.2043
153.539385 87.669 177.9867
154.651995 87.646 177.7707
155.772667 87.622 177.5569
156.901460 87.598 177.3458
158.038432 87.575 177.1375
159.183644 87.552 176.9323
160.337154 87.529 176.7299
161.499023 87.506 176.5305
162.669312 87.484 176.3338
163.848081 87.463 176.1398
165.035392 87.442 175.9487
166.231306 87.422 175.7604
167.435887 87.402 175.5754
168.649196 87.383 175.3935
169.871298 87.364 175.2148
171.102255 87.345 175.0392
172.342133 87.327 174.8663
173.590995 87.308 174.6956
174.848907 87.290 174.5265
176.115934 87.271 174.3584
177.392143 87.252 174.1905
178.677599 87.232 174.0220
179.972371 87.212 173.8520
181.276525 87.192 173.6804
182.590129 87.171 173.5075
183.913252 87.149 173.3340
185.245964 87.128 173.1610
186.588332 87.106 172.9895
187.940428 87.084 172.8205
189.302322 87.062 172.6549
190.674085 87.039 172.4935
192.055788 87.016 172.3366
193.447503 86.993 172.1841
194.849303 86.969 172.0351
196.261262 86.944 171.8880
197.683452 86.918 171.7407
199.115948 86.891 171.5909
200.558824 86.863 171.4371
202.012156 86.833 171.2783
203.476019 86.802 171.1146
204.950490 86.769 170.9472
206.435646 86.736 170.7778
207.931564 86.702 170.6085
209.438322 86.669 170.4409
210.955998 86.636 170.2767
212.484672 86.605 170.1169
214.024424 86.574 169.9621
215.575333 86.544 169.8122
217.137481 86.516 169.6672
218.710948 86.488 169.5273
220.295818 86.462 169.3927
221.892172 86.438 169.2636
223.500094 86.414 169.1406
225.119668 86.392 169.0240
226.750978 86.372 168.9137
228.394109 86.352 168.8091
230.049147 86.334 168.7095
231.716178 86.318 168.6131
233.395289 86.302 168.5183
235.086567 86.289 168.4232
236.790102 86.277 168.3261
238.505980 86.267 168.2261
240.234293 86.259 168.1227
241.975130 86.252 168.0157
243.728581 86.247 167.9054
245.494739 86.243 167.7921
247.273695 86.239 167.6765
249.065542 86.236 167.5593
250.870374 86.232 167.4413
252.688284 86.228 167.3234
254.519367 86.224 167.2065
256.363720 86.220 167.0918
258.221437 86.215 166.9809
260.092616 86.209 166.8752
261.977354 86.202 166.7762
263.875750 86.194 166.6848
265.787903 86.184 166.6011
267.713911 86.172 166.5242
269.653877 86.159 166.4528
271.607900 86.146 166.3856
273.576083 86.132 166.3217
275.558528 86.118 166.2601
277.555338 86.105 166.1998
279.566619 86.092 166.1396
281.592474 86.080 166.0786
283.633009 86.068 166.0160
285.688331 86.057 165.9517
287.758546 86.047 165.8861
289.843763 86.037 165.8200
291.944090 86.027 165.7547
294.059638 86.017 165.6912
296.190515 86.008 165.6302
298.336833 85.999 165.5719
300.498705 85.991 165.5161
302.676243 85.983 165.4622
304.869559 85.977 165.4100
307.078770 85.971 165.3590
309.303989 85.966 165.3089
311.545334 85.962 165.2599
313.802919 85.957 165.2122
316.076865 85.952 165.1661
318.367288 85.947 165.1216
320.674309 85.942 165.0789
322.998047 85.936 165.0380
325.338624 85.931 164.9989
327.696162 85.925 164.9613
330.070783 85.918 164.9248
332.462612 85.911 164.8887
334.871773 85.903 164.8527
337.298392 85.895 164.8165
339.742595 85.886 164.7803
342.204510 85.875 164.7448
344.684265 85.864 164.7105
347.181989 85.851 164.6778
349.697813 85.837 164.6469
352.231868 85.822 164.6181
354.784285 85.806 164.5915
357.355198 85.790 164.5678
359.944741 85.772 164.5478
362.553049 85.753 164.5323
365.180258 85.734 164.5220
367.826505 85.714 164.5166
370.491927 85.694 164.5161
373.176665 85.672 164.5197
375.880856 85.650 164.5270
378.604644 85.628 164.5373
381.348169 85.605 164.5499
384.111575 85.582 164.5641
386.895006 85.559 164.5798
389.698607 85.537 164.5970
392.522524 85.515 164.6163
395.366904 85.492 164.6384
398.231895 85.470 164.6636
401.117648 85.447 164.6919
404.024312 85.423 164.7225
406.952038 85.399 164.7544
409.900981 85.374 164.7866
412.871292 85.348 164.8183
415.863128 85.322 164.8491
418.876643 85.294 164.8789
421.911996 85.265 164.9082
424.969344 85.235 164.9373
428.048847 85.204 164.9666
431.150666 85.171 164.9964
434.274961 85.137 165.0267
437.421897 85.101 165.0578
440.591636 85.064 165.0897
443.784345 85.026 165.1227
447.000189 84.987 165.1577
450.239337 84.947 165.1953
453.501956 84.907 165.2362
456.788219 84.866 165.2808
460.098294 84.826 165.3292
463.432356 84.785 165.3807
466.790578 84.745 165.4346
470.173135 84.705 165.4900
473.580203 84.666 165.5459
477.011961 84.628 165.6019
480.468586 84.590 165.6575
483.950259 84.553 165.7131
487.457163 84.518 165.7686
490.989478 84.483 165.8246
494.547390 84.449 165.8813
498.131084 84.416 165.9390
501.740748 84.385 165.9977
505.376568 84.356 166.0577
509.038735 84.328 166.1190
512.727439 84.301 166.1814
516.442874 84.277 166.2450
520.185232 84.254 166.3096
523.954708 84.234 166.3751
527.751500 84.215 166.4415
531.575805 84.199 166.5084
535.427822 84.185 166.5755
539.307753 84.173 166.6429
543.215800 84.164 166.7108
547.152165 84.157 166.7800
551.117055 84.152 166.8515
555.110677 84.150 166.9262
559.133237 84.150 167.0046
563.184947 84.151 167.0868
567.266018 84.155 167.1721
571.376661 84.159 167.2595
575.517092 84.166 167.3478
579.687526 84.173 167.4357
583.888181 84.181 167.5221
588.119275 84.190 167.6065
592.381030 84.198 167.6885
596.673667 84.207 167.7679
600.997410 84.216 167.8451
605.352485 84.225 167.9202
609.739119 84.232 167.9938
614.157540 84.239 168.0664
618.607979 84.244 168.1391
623.090667 84.248 168.2131
627.605839 84.251 168.2894
632.153730 84.252 168.3683
636.734576 84.252 168.4499
641.348617 84.251 168.5331
645.996094 84.250 168.6169
650.677248 84.248 168.7000
655.392323 84.245 168.7812
660.141566 84.242 168.8599
664.925224 84.238 168.9357
669.743546 84.232 169.0085
674.596784 84.226 169.0787
679.485191 84.219 169.1464
684.409020 84.211 169.2119
689.368530 84.202 169.2752
694.363979 84.192 169.3361
699.395626 84.181 169.3943
704.463736 84.169 169.4492
709.568570 84.157 169.5005
714.710396 84.144 169.5479
719.889483 84.129 169.5915
725.106099 84.113 169.6317
730.360516 84.096 169.6685
735.653010 84.078 169.7022
740.983855 84.058 169.7327
746.353329 84.036 169.7601
751.761713 84.012 169.7844
757.209288 83.987 169.8054
762.696339 83.960 169.8231
768.223151 83.931 169.8374
773.790013 83.901 169.8481
779.397214 83.869 169.8550
785.045047 83.836 169.8578
790.733808 83.801 169.8564
796.463791 83.764 169.8506
802.235296 83.726 169.8405
808.048623 83.687 169.8262
813.904077 83.646 169.8083
819.801961 83.604 169.7877
825.742584 83.559 169.7658
831.726255 83.512 169.7448
837.753287 83.463 169.7274
843.823992 83.410 169.7176
849.938689 83.355 169.7201
856.097695 83.297 169.7406
862.301332 83.236 169.7861
868.549922 83.173 169.8639
874.843793 83.108 169.9817
881.183272 83.042 170.1467
887.568689 82.978 170.3645
894.000378 82.916 170.6385
900.478673 82.858 170.9688
907.003913 82.808 171.3515
913.576437 82.766 171.7788
920.196588 82.734 172.2393
926.864712 82.713 172.7195
933.581156 82.703 173.2047
940.346270 82.704 173.6809
947.160407 82.715 174.1360
954.023921 82.735 174.5603
960.937172 82.763 174.9474
967.900519 82.798 175.2936
974.914325 82.837 175.5979
981.978956 82.881 175.8613
989.094780 82.928 176.0864
996.262169 82.978 176.2766
1003.481495 83.029 176.4354
1010.753136 83.082 176.5668
1018.077470 83.135 176.6746
1025.454879 83.190 176.7624
1032.885748 83.245 176.8335
1040.370463 83.300 176.8909
1047.909417 83.356 176.9374
1055.503000 83.412 176.9755
1063.151610 83.469 177.0073
1070.855645 83.526 177.0344
1078.615506 83.583 177.0576
1086.431599 83.641 177.0771
1094.304330 83.699 177.0927
1102.234110 83.757 177.1034
1110.221353 83.815 177.1085
1118.266475 83.873 177.1071
1126.369895 83.931 177.0984
1134.532035 83.988 177.0813
1142.753322 84.044 177.0553
1151.034184 84.100 177.0198
1159.375052 84.155 176.9745
1167.776361 84.208 176.9197
1176.238550 84.261 176.8558
1184.762060 84.312 176.7836
1193.347334 84.361 176.7041
1201.994821 84.409 176.6182
1210.704971 84.456 176.5264
1219.478238 84.501 176.4294
1228.315080 84.544 176.3277
1237.215957 84.585 176.2226
1246.181334 84.625 176.1153
1255.211678 84.664 176.0073
1264.307459 84.700 175.8999
1273.469152 84.736 175.7946
1282.697235 84.769 175.6927
1291.992188 84.801 175.5959
1301.354495 84.833 175.5055
1310.784647 84.863 175.4220
1320.283132 84.892 175.3453
1329.850448 84.921 175.2744
1339.487093 84.950 175.2082
1349.193569 84.978 175.1455
1358.970381 85.006 175.0861
1368.818041 85.033 175.0298
1378.737061 85.060 174.9767
1388.727958 85.087 174.9273
1398.791253 85.114 174.8815
1408.927471 85.142 174.8393
1419.137140 85.169 174.8009
1429.420793 85.197 174.7666
1439.778965 85.225 174.7372
1450.212197 85.252 174.7145
1460.721033 85.280 174.7007
1471.306019 85.308 174.6978
1481.967709 85.336 174.7078
1492.706658 85.365 174.7315
1503.523426 85.394 174.7687
1514.418576 85.423 174.8183
1525.392678 85.453 174.8786
1536.446302 85.482 174.9482
1547.580025 85.510 175.0267
1558.794428 85.538 175.1143
1570.090095 85.563 175.2119
1581.467615 85.586 175.3203
1592.927581 85.607 175.4402
1604.470591 85.625 175.5715
1616.097246 85.641 175.7133
1627.808153 85.653 175.8646
1639.603922 85.663 176.0240
1651.485168 85.669 176.1914
1663.452510 85.672 176.3669
1675.506573 85.672 176.5518
1687.647984 85.669 176.7471
1699.877377 85.663 176.9544
1712.195390 85.654 177.1750
1724.602663 85.643 177.4103
1737.099845 85.631 177.6616
1749.687587 85.617 177.9298
1762.366544 85.602 178.2156
1775.137379 85.586 178.5189
1788.000756 85.570 178.8389
1800.957346 85.555 179.1733
1814.007826 85.541 179.5186
1827.152874 85.528 179.8707
1840.393177 85.516 -179.7748
1853.729425 85.506 -179.4219
1867.162312 85.495 -179.0734
1880.692540 85.484 -178.7304
1894.320813 85.472 -178.3928
1908.047843 85.459 -178.0589
1921.874344 85.444 -177.7259
1935.801038 85.426 -177.3905
1949.828650 85.407 -177.0494
1963.957912 85.385 -176.6996
1978.189561 85.361 -176.3386
1992.524338 85.335 -175.9648
2006.962991 85.309 -175.5779
2021.506272 85.282 -175.1785
2036.154940 85.256 -174.7692
2050.909758 85.232 -174.3537
2065.771495 85.209 -173.9370
2080.740927 85.188 -173.5244
2095.818833 85.170 -173.1210
2111.006001 85.155 -172.7307
2126.303220 85.141 -172.3564
2141.711290 85.129 -171.9997
2157.231013 85.119 -171.6609
2172.863198 85.110 -171.3393
2188.608660 85.103 -171.0337
2204.468221 85.096 -170.7425
2220.442706 85.091 -170.4640
2236.532950 85.087 -170.1967
2252.739789 85.083 -169.9392
2269.064070 85.081 -169.6899
2285.506644 85.080 -169.4478
2302.068367 85.081 -169.2121
2318.750104 85.083 -168.9824
2335.552723 85.088 -168.7588
2352.477101 85.094 -168.5413
2369.524119 85.103 -168.3302
2386.694668 85.114 -168.1258
2403.989641 85.128 -167.9279
2421.409941 85.145 -167.7362
2438.956476 85.165 -167.5501
2456.630160 85.187 -167.3685
2474.431915 85.213 -167.1902
2492.362668 85.241 -167.0133
2510.423356 85.273 -166.8358
2528.614918 85.308 -166.6549
2546.938304 85.346 -166.4684
2565.394469 85.389 -166.2744
2583.984375 85.437 -166.0724
2602.708991 85.490 -165.8632
2621.569293 85.549 -165.6490
2640.566265 85.614 -165.4325
2659.700897 85.686 -165.2168
2678.974186 85.763 -165.0047
2698.387137 85.847 -164.7985
2717.940763 85.936 -164.6003
2737.636082 86.031 -164.4120
2757.474121 86.132 -164.2360
2777.455915 86.238 -164.0750
2797.582506 86.349 -163.9323
2817.854942 86.464 -163.8114
2838.274281 86.583 -163.7153
2858.841586 86.704 -163.6464
2879.557931 86.827 -163.6057
2900.424394 86.950 -163.5930
2921.442065 87.074 -163.6075
2942.612039 87.195 -163.6473
2963.935418 87.315 -163.7105
2985.413316 87.432 -163.7947
3007.046852 87.546 -163.8972
3028.837153 87.656 -164.0156
3050.785356 87.761 -164.1479
3072.892604 87.862 -164.2928
3095.160050 87.958 -164.4499
3117.588856 88.048 -164.6192
3140.180190 88.133 -164.8009
3162.935230 88.212 -164.9952
3185.855163 88.284 -165.2019
3208.941182 88.350 -165.4205
3232.194493 88.408 -165.6502
3255.616307 88.459 -165.8905
3279.207844 88.503 -166.1408
3302.970336 88.539 -166.4006
3326.905021 88.568 -166.6696
3351.013146 88.589 -166.9472
3375.295969 88.604 -167.2325
3399.754755 88.611 -167.5245
