* Measurement data measured by REW V5.31.3
* Source: EXCL: Headset (USB-C to 3.5mm Headphone Jack Adapter), MICROPHONE (Master Volume), 0, volume: 0.750
* Format: 256k Log Swept Sine, 1 sweep at -12.0 dBFS with no timing reference
* Dated: Apr 7, 2025 12:26:32 PM
* REW Settings:
*  C-weighting compensation: Off
*  Target level: 75.0 dB
* Note: ; 
* Measurement: HD6XX (Forward) R5
* Smoothing: 1/6 octave
* Frequency Step: 96 ppo
* Start Frequency: 20.0 Hz
*
* Freq(Hz) SPL(dB) Phase(degrees)
20.187378 77.984 -94.8198
20.333664 78.027 -94.9985
20.481010 78.083 -95.2412
20.629424 78.152 -95.5449
20.778913 78.229 -95.9046
20.929486 78.314 -96.3135
21.081150 78.403 -96.7627
21.233912 78.497 -97.2423
21.387782 78.593 -97.7414
21.542767 78.692 -98.2496
21.698874 78.794 -98.7577
21.856113 78.898 -99.2586
22.014492 79.005 -99.7478
22.174018 79.115 -100.2235
22.334700 79.227 -100.6865
22.496546 79.339 -101.1397
22.659566 79.451 -101.5868
22.823766 79.561 -102.0317
22.989157 79.667 -102.4773
23.155745 79.767 -102.9245
23.323542 79.858 -103.3724
23.492554 79.941 -103.8177
23.662790 80.013 -104.2556
23.834261 80.076 -104.6802
24.006973 80.128 -105.0858
24.180938 80.173 -105.4678
24.356163 80.210 -105.8235
24.532658 80.243 -106.1530
24.710431 80.272 -106.4587
24.889493 80.300 -106.7456
25.069853 80.328 -107.0198
25.251519 80.356 -107.2880
25.434502 80.385 -107.5559
25.618811 80.414 -107.8270
25.804456 80.442 -108.1025
25.991445 80.470 -108.3810
26.179790 80.495 -108.6588
26.369500 80.520 -108.9310
26.560584 80.542 -109.1930
26.753053 80.564 -109.4414
26.946917 80.586 -109.6753
27.142185 80.609 -109.8965
27.338869 80.634 -110.1102
27.536977 80.661 -110.3236
27.736522 80.692 -110.5453
27.937512 80.725 -110.7836
28.139959 80.760 -111.0453
28.343872 80.796 -111.3348
28.549264 80.832 -111.6528
28.756143 80.868 -111.9975
28.964522 80.902 -112.3640
29.174411 80.934 -112.7461
29.385821 80.965 -113.1370
29.598763 80.995 -113.5303
29.813248 81.025 -113.9212
30.029287 81.057 -114.3067
30.246891 81.092 -114.6858
30.466073 81.130 -115.0589
30.686842 81.172 -115.4277
30.909212 81.220 -115.7943
31.133193 81.272 -116.1604
31.358797 81.330 -116.5270
31.586035 81.392 -116.8944
31.814921 81.459 -117.2615
32.045465 81.530 -117.6267
32.277680 81.605 -117.9881
32.511577 81.684 -118.3438
32.747169 81.766 -118.6929
32.984469 81.851 -119.0351
33.223488 81.938 -119.3715
33.464239 82.029 -119.7044
33.706735 82.122 -120.0369
33.950987 82.217 -120.3724
34.197010 82.314 -120.7140
34.444816 82.411 -121.0639
34.694417 82.509 -121.4231
34.945827 82.606 -121.7907
35.199059 82.701 -122.1647
35.454126 82.796 -122.5417
35.711041 82.888 -122.9179
35.969818 82.978 -123.2892
36.230470 83.066 -123.6523
36.493011 83.152 -124.0047
36.757455 83.237 -124.3451
37.023814 83.319 -124.6736
37.292104 83.400 -124.9912
37.562338 83.479 -125.3003
37.834530 83.557 -125.6040
38.108695 83.633 -125.9061
38.384846 83.708 -126.2108
38.662999 83.780 -126.5223
38.943167 83.851 -126.8444
39.225365 83.920 -127.1800
39.509608 83.986 -127.5308
39.795911 84.051 -127.8972
40.084289 84.113 -128.2779
40.374756 84.173 -128.6700
40.667328 84.232 -129.0692
40.962020 84.289 -129.4701
41.258848 84.344 -129.8668
41.557827 84.398 -130.2536
41.858972 84.451 -130.6252
42.162299 84.501 -130.9774
42.467824 84.549 -131.3073
42.775564 84.595 -131.6134
43.085533 84.637 -131.8954
43.397749 84.676 -132.1544
43.712227 84.711 -132.3924
44.028983 84.743 -132.6129
44.348036 84.772 -132.8208
44.669400 84.800 -133.0217
44.993093 84.826 -133.2220
45.319131 84.851 -133.4269
45.647532 84.875 -133.6400
45.978313 84.897 -133.8621
46.311491 84.919 -134.0916
46.647083 84.940 -134.3251
46.985107 84.961 -134.5592
47.325581 84.981 -134.7915
47.668521 85.003 -135.0218
48.013947 85.026 -135.2515
48.361876 85.051 -135.4831
48.712326 85.078 -135.7188
49.065315 85.107 -135.9601
49.420863 85.138 -136.2072
49.778987 85.170 -136.4595
50.139706 85.203 -136.7158
50.503039 85.237 -136.9747
50.869005 85.270 -137.2342
51.237623 85.302 -137.4921
51.608912 85.333 -137.7455
51.982891 85.362 -137.9924
52.359580 85.391 -138.2316
52.739000 85.418 -138.4634
53.121168 85.447 -138.6900
53.506106 85.476 -138.9146
53.893833 85.506 -139.1408
54.284370 85.538 -139.3719
54.677737 85.571 -139.6101
55.073955 85.606 -139.8570
55.473043 85.644 -140.1130
55.875024 85.683 -140.3776
56.279917 85.726 -140.6495
56.687745 85.771 -140.9271
57.098527 85.819 -141.2085
57.512287 85.868 -141.4924
57.929045 85.919 -141.7788
58.348822 85.969 -142.0697
58.771642 86.018 -142.3688
59.197525 86.064 -142.6808
59.626495 86.105 -143.0094
60.058573 86.142 -143.3563
60.493782 86.174 -143.7203
60.932145 86.202 -144.0976
61.373685 86.229 -144.4829
61.818424 86.256 -144.8708
62.266386 86.285 -145.2568
62.717593 86.317 -145.6374
63.172071 86.353 -146.0112
63.629842 86.392 -146.3782
64.090930 86.435 -146.7394
64.555359 86.482 -147.0967
65.023154 86.531 -147.4522
65.494339 86.582 -147.8077
65.968938 86.635 -148.1646
66.446976 86.688 -148.5235
66.928478 86.741 -148.8844
67.413469 86.793 -149.2463
67.901975 86.843 -149.6072
68.394021 86.891 -149.9653
68.889632 86.937 -150.3185
69.388835 86.982 -150.6649
69.891655 87.026 -151.0031
70.398118 87.068 -151.3321
70.908252 87.109 -151.6514
71.422083 87.148 -151.9616
71.939636 87.185 -152.2642
72.460941 87.219 -152.5615
72.986023 87.252 -152.8560
73.514909 87.281 -153.1506
74.047629 87.308 -153.4474
74.584208 87.333 -153.7482
75.124676 87.355 -154.0540
75.669061 87.374 -154.3652
76.217390 87.391 -154.6817
76.769692 87.405 -155.0026
77.325997 87.417 -155.3271
77.886333 87.428 -155.6541
78.450730 87.436 -155.9824
79.019216 87.443 -156.3111
79.591822 87.449 -156.6396
80.168577 87.454 -156.9675
80.749512 87.457 -157.2952
81.334656 87.460 -157.6227
81.924040 87.462 -157.9507
82.517696 87.464 -158.2795
83.115653 87.465 -158.6092
83.717943 87.467 -158.9395
84.324598 87.468 -159.2699
84.935649 87.469 -159.5999
85.551128 87.470 -159.9292
86.171066 87.471 -160.2577
86.795497 87.472 -160.5856
87.424453 87.472 -160.9132
88.057967 87.472 -161.2406
88.696071 87.471 -161.5676
89.338800 87.470 -161.8940
89.986185 87.469 -162.2194
90.638262 87.467 -162.5439
91.295065 87.465 -162.8673
91.956626 87.463 -163.1899
92.622982 87.461 -163.5119
93.294166 87.459 -163.8335
93.970214 87.456 -164.1547
94.651161 87.453 -164.4753
95.337042 87.449 -164.7954
96.027894 87.446 -165.1149
96.723752 87.443 -165.4343
97.424652 87.439 -165.7538
98.130631 87.436 -166.0735
98.841726 87.434 -166.3934
99.557974 87.432 -166.7128
100.279412 87.430 -167.0305
101.006078 87.429 -167.3452
101.738010 87.429 -167.6553
102.475245 87.428 -167.9593
103.217823 87.428 -168.2557
103.965782 87.427 -168.5436
104.719161 87.426 -168.8227
105.477999 87.425 -169.0934
106.242336 87.422 -169.3567
107.012212 87.420 -169.6143
107.787666 87.418 -169.8681
108.568740 87.416 -170.1198
109.355474 87.415 -170.3704
110.147909 87.416 -170.6207
110.946086 87.417 -170.8706
111.750047 87.420 -171.1203
112.559834 87.425 -171.3695
113.375489 87.430 -171.6178
114.197055 87.436 -171.8651
115.024574 87.443 -172.1105
115.858089 87.450 -172.3536
116.697645 87.458 -172.5936
117.543284 87.465 -172.8300
118.395051 87.472 -173.0629
119.252990 87.480 -173.2927
120.117147 87.487 -173.5200
120.987565 87.494 -173.7458
121.864291 87.501 -173.9714
122.747370 87.507 -174.1974
123.636848 87.513 -174.4246
124.532771 87.519 -174.6531
125.435187 87.523 -174.8828
126.344142 87.528 -175.1131
127.259684 87.531 -175.3436
128.181860 87.534 -175.5733
129.110718 87.535 -175.8020
130.046308 87.535 -176.0294
130.988677 87.535 -176.2561
131.937875 87.533 -176.4823
132.893951 87.530 -176.7086
133.856956 87.526 -176.9358
134.826938 87.521 -177.1644
135.803950 87.516 -177.3950
136.788041 87.509 -177.6281
137.779264 87.502 -177.8638
138.777669 87.494 -178.1016
139.783309 87.485 -178.3410
140.796237 87.475 -178.5811
141.816504 87.464 -178.8215
142.844165 87.452 -179.0614
143.879273 87.438 -179.3006
144.921881 87.424 -179.5388
145.972045 87.408 -179.7759
147.029819 87.392 179.9884
148.095257 87.374 179.7543
149.168417 87.356 179.5220
150.249353 87.337 179.2919
151.338121 87.318 179.0643
152.434780 87.298 178.8395
153.539385 87.278 178.6174
154.651995 87.258 178.3980
155.772667 87.238 178.1813
156.901460 87.217 177.9672
158.038432 87.196 177.7561
159.183644 87.175 177.5480
160.337154 87.154 177.3433
161.499023 87.134 177.1418
162.669312 87.113 176.9434
163.848081 87.093 176.7477
165.035392 87.073 176.5542
166.231306 87.054 176.3626
167.435887 87.035 176.1725
168.649196 87.016 175.9834
169.871298 86.998 175.7952
171.102255 86.981 175.6080
172.342133 86.964 175.4220
173.590995 86.947 175.2377
174.848907 86.930 175.0555
176.115934 86.913 174.8755
177.392143 86.896 174.6974
178.677599 86.878 174.5204
179.972371 86.859 174.3438
181.276525 86.839 174.1664
182.590129 86.818 173.9871
183.913252 86.797 173.8055
185.245964 86.775 173.6212
186.588332 86.753 173.4347
187.940428 86.730 173.2469
189.302322 86.706 173.0594
190.674085 86.683 172.8736
192.055788 86.658 172.6908
193.447503 86.633 172.5117
194.849303 86.607 172.3367
196.261262 86.580 172.1656
197.683452 86.553 171.9977
199.115948 86.525 171.8329
200.558824 86.497 171.6707
202.012156 86.468 171.5104
203.476019 86.440 171.3517
204.950490 86.412 171.1940
206.435646 86.384 171.0374
207.931564 86.357 170.8818
209.438322 86.329 170.7276
210.955998 86.302 170.5753
212.484672 86.275 170.4251
214.024424 86.248 170.2775
215.575333 86.222 170.1331
217.137481 86.196 169.9926
218.710948 86.171 169.8566
220.295818 86.148 169.7258
221.892172 86.126 169.6006
223.500094 86.105 169.4813
225.119668 86.086 169.3678
226.750978 86.068 169.2599
228.394109 86.052 169.1570
230.049147 86.037 169.0581
231.716178 86.023 168.9620
233.395289 86.011 168.8677
235.086567 85.999 168.7740
236.790102 85.989 168.6799
238.505980 85.980 168.5845
240.234293 85.973 168.4872
241.975130 85.966 168.3878
243.728581 85.959 168.2864
245.494739 85.953 168.1835
247.273695 85.948 168.0796
249.065542 85.942 167.9754
250.870374 85.936 167.8715
252.688284 85.931 167.7682
254.519367 85.925 167.6658
256.363720 85.920 167.5641
258.221437 85.914 167.4626
260.092616 85.907 167.3608
261.977354 85.900 167.2583
263.875750 85.892 167.1553
265.787903 85.883 167.0527
267.713911 85.874 166.9519
269.653877 85.863 166.8545
271.607900 85.852 166.7622
273.576083 85.841 166.6761
275.558528 85.829 166.5966
277.555338 85.817 166.5234
279.566619 85.806 166.4552
281.592474 85.795 166.3909
283.633009 85.784 166.3292
285.688331 85.774 166.2693
287.758546 85.765 166.2106
289.843763 85.756 166.1526
291.944090 85.748 166.0952
294.059638 85.741 166.0380
296.190515 85.734 165.9807
298.336833 85.729 165.9230
300.498705 85.724 165.8648
302.676243 85.719 165.8058
304.869559 85.715 165.7462
307.078770 85.712 165.6863
309.303989 85.708 165.6269
311.545334 85.705 165.5686
313.802919 85.702 165.5121
316.076865 85.699 165.4578
318.367288 85.697 165.4061
320.674309 85.693 165.3572
322.998047 85.690 165.3112
325.338624 85.687 165.2682
327.696162 85.683 165.2281
330.070783 85.679 165.1908
332.462612 85.674 165.1558
334.871773 85.668 165.1227
337.298392 85.662 165.0909
339.742595 85.653 165.0599
342.204510 85.644 165.0293
344.684265 85.633 164.9991
347.181989 85.621 164.9695
349.697813 85.608 164.9408
352.231868 85.593 164.9135
354.784285 85.578 164.8883
357.355198 85.562 164.8654
359.944741 85.546 164.8447
362.553049 85.529 164.8260
365.180258 85.511 164.8090
367.826505 85.493 164.7929
370.491927 85.474 164.7776
373.176665 85.455 164.7634
375.880856 85.434 164.7508
378.604644 85.413 164.7410
381.348169 85.391 164.7350
384.111575 85.369 164.7335
386.895006 85.346 164.7365
389.698607 85.324 164.7435
392.522524 85.301 164.7538
395.366904 85.278 164.7663
398.231895 85.256 164.7803
401.117648 85.233 164.7954
404.024312 85.211 164.8113
406.952038 85.188 164.8283
409.900981 85.165 164.8468
412.871292 85.142 164.8671
415.863128 85.118 164.8895
418.876643 85.094 164.9139
421.911996 85.068 164.9399
424.969344 85.042 164.9673
428.048847 85.014 164.9957
431.150666 84.984 165.0247
434.274961 84.954 165.0540
437.421897 84.921 165.0829
440.591636 84.888 165.1111
443.784345 84.852 165.1383
447.000189 84.816 165.1645
450.239337 84.779 165.1900
453.501956 84.741 165.2155
456.788219 84.703 165.2413
460.098294 84.664 165.2682
463.432356 84.625 165.2965
466.790578 84.586 165.3263
470.173135 84.547 165.3572
473.580203 84.509 165.3892
477.011961 84.472 165.4216
480.468586 84.435 165.4543
483.950259 84.399 165.4873
487.457163 84.364 165.5205
490.989478 84.330 165.5542
494.547390 84.297 165.5887
498.131084 84.266 165.6245
501.740748 84.236 165.6622
505.376568 84.207 165.7018
509.038735 84.180 165.7433
512.727439 84.154 165.7865
516.442874 84.131 165.8309
520.185232 84.109 165.8760
523.954708 84.089 165.9219
527.751500 84.072 165.9689
531.575805 84.056 166.0176
535.427822 84.042 166.0686
539.307753 84.031 166.1223
543.215800 84.022 166.1790
547.152165 84.015 166.2382
551.117055 84.010 166.2998
555.110677 84.008 166.3636
559.133237 84.008 166.4297
563.184947 84.010 166.4980
567.266018 84.014 166.5686
571.376661 84.019 166.6415
575.517092 84.027 166.7163
579.687526 84.035 166.7925
583.888181 84.045 166.8696
588.119275 84.055 166.9467
592.381030 84.065 167.0233
596.673667 84.075 167.0987
600.997410 84.085 167.1726
605.352485 84.093 167.2445
609.739119 84.101 167.3144
614.157540 84.108 167.3821
618.607979 84.114 167.4479
623.090667 84.118 167.5119
627.605839 84.122 167.5743
632.153730 84.124 167.6353
636.734576 84.125 167.6947
641.348617 84.126 167.7527
645.996094 84.126 167.8093
650.677248 84.124 167.8643
655.392323 84.123 167.9177
660.141566 84.120 167.9698
664.925224 84.116 168.0208
669.743546 84.112 168.0708
674.596784 84.106 168.1200
679.485191 84.100 168.1687
684.409020 84.092 168.2170
689.368530 84.083 168.2650
694.363979 84.074 168.3126
699.395626 84.063 168.3591
704.463736 84.051 168.4040
709.568570 84.038 168.4466
714.710396 84.024 168.4865
719.889483 84.009 168.5235
725.106099 83.992 168.5577
730.360516 83.974 168.5889
735.653010 83.955 168.6169
740.983855 83.933 168.6413
746.353329 83.911 168.6615
751.761713 83.887 168.6769
757.209288 83.861 168.6872
762.696339 83.834 168.6918
768.223151 83.806 168.6906
773.790013 83.775 168.6835
779.397214 83.744 168.6707
785.045047 83.711 168.6527
790.733808 83.676 168.6299
796.463791 83.639 168.6024
802.235296 83.601 168.5707
808.048623 83.561 168.5349
813.904077 83.520 168.4954
819.801961 83.476 168.4532
825.742584 83.431 168.4097
831.726255 83.382 168.3676
837.753287 83.332 168.3299
843.823992 83.278 168.3012
849.938689 83.222 168.2869
856.097695 83.162 168.2932
862.301332 83.099 168.3276
868.549922 83.034 168.3978
874.843793 82.968 168.5116
881.183272 82.900 168.6758
887.568689 82.834 168.8959
894.000378 82.770 169.1744
900.478673 82.711 169.5104
907.003913 82.658 169.8987
913.576437 82.614 170.3305
920.196588 82.580 170.7935
926.864712 82.556 171.2732
933.581156 82.544 171.7552
940.346270 82.542 172.2258
947.160407 82.551 172.6740
954.023921 82.568 173.0915
960.937172 82.593 173.4731
967.900519 82.625 173.8163
974.914325 82.663 174.1207
981.978956 82.705 174.3875
989.094780 82.751 174.6189
996.262169 82.799 174.8179
1003.481495 82.850 174.9877
1010.753136 82.903 175.1318
1018.077470 82.958 175.2535
1025.454879 83.014 175.3561
1032.885748 83.070 175.4425
1040.370463 83.128 175.5153
1047.909417 83.186 175.5765
1055.503000 83.245 175.6281
1063.151610 83.304 175.6714
1070.855645 83.363 175.7072
1078.615506 83.423 175.7358
1086.431599 83.483 175.7571
1094.304330 83.543 175.7703
1102.234110 83.603 175.7750
1110.221353 83.662 175.7704
1118.266475 83.722 175.7563
1126.369895 83.780 175.7326
1134.532035 83.839 175.6992
1142.753322 83.896 175.6565
1151.034184 83.953 175.6046
1159.375052 84.008 175.5440
1167.776361 84.063 175.4750
1176.238550 84.116 175.3980
1184.762060 84.167 175.3138
1193.347334 84.217 175.2233
1201.994821 84.265 175.1276
1210.704971 84.312 175.0279
1219.478238 84.357 174.9249
1228.315080 84.400 174.8193
1237.215957 84.442 174.7123
1246.181334 84.483 174.6050
1255.211678 84.521 174.4983
1264.307459 84.558 174.3931
1273.469152 84.594 174.2903
1282.697235 84.629 174.1906
1291.992188 84.662 174.0949
1301.354495 84.694 174.0045
1310.784647 84.725 173.9203
1320.283132 84.755 173.8427
1329.850448 84.784 173.7715
1339.487093 84.814 173.7063
1349.193569 84.842 173.6469
1358.970381 84.871 173.5929
1368.818041 84.900 173.5446
1378.737061 84.929 173.5016
1388.727958 84.958 173.4639
1398.791253 84.988 173.4312
1408.927471 85.019 173.4029
1419.137140 85.051 173.3785
1429.420793 85.084 173.3572
1439.778965 85.118 173.3384
1450.212197 85.152 173.3223
1460.721033 85.188 173.3092
1471.306019 85.224 173.3001
1481.967709 85.261 173.2961
1492.706658 85.297 173.2981
1503.523426 85.334 173.3068
1514.418576 85.371 173.3227
1525.392678 85.406 173.3461
1536.446302 85.441 173.3773
1547.580025 85.474 173.4172
1558.794428 85.505 173.4666
1570.090095 85.534 173.5262
1581.467615 85.561 173.5960
1592.927581 85.585 173.6758
1604.470591 85.606 173.7651
1616.097246 85.625 173.8632
1627.808153 85.639 173.9698
1639.603922 85.650 174.0856
1651.485168 85.658 174.2113
1663.452510 85.662 174.3482
1675.506573 85.662 174.4980
1687.647984 85.660 174.6619
1699.877377 85.655 174.8408
1712.195390 85.648 175.0349
1724.602663 85.639 175.2440
1737.099845 85.629 175.4676
1749.687587 85.619 175.7051
1762.366544 85.609 175.9559
1775.137379 85.598 176.2188
1788.000756 85.589 176.4923
1800.957346 85.580 176.7737
1814.007826 85.572 177.0591
1827.152874 85.566 177.3444
1840.393177 85.560 177.6258
1853.729425 85.554 177.9001
1867.162312 85.547 178.1658
1880.692540 85.539 178.4231
1894.320813 85.528 178.6740
1908.047843 85.515 178.9217
1921.874344 85.498 179.1700
1935.801038 85.479 179.4231
1949.828650 85.456 179.6847
1963.957912 85.431 179.9581
1978.189561 85.403 -179.7540
1992.524338 85.373 -179.4499
2006.962991 85.343 -179.1292
2021.506272 85.312 -178.7929
2036.154940 85.282 -178.4442
2050.909758 85.253 -178.0879
2065.771495 85.227 -177.7303
2080.740927 85.204 -177.3784
2095.818833 85.183 -177.0388
2111.006001 85.165 -176.7167
2126.303220 85.148 -176.4159
2141.711290 85.133 -176.1380
2157.231013 85.119 -175.8827
2172.863198 85.106 -175.6478
2188.608660 85.092 -175.4302
2204.468221 85.078 -175.2258
2220.442706 85.064 -175.0306
2236.532950 85.050 -174.8408
2252.739789 85.036 -174.6531
2269.064070 85.023 -174.4653
2285.506644 85.011 -174.2760
2302.068367 85.000 -174.0850
2318.750104 84.992 -173.8929
2335.552723 84.986 -173.7011
2352.477101 84.983 -173.5113
2369.524119 84.983 -173.3253
2386.694668 84.986 -173.1447
2403.989641 84.992 -172.9710
2421.409941 85.001 -172.8052
2438.956476 85.014 -172.6479
2456.630160 85.030 -172.4990
2474.431915 85.048 -172.3575
2492.362668 85.070 -172.2223
2510.423356 85.094 -172.0914
2528.614918 85.121 -171.9625
2546.938304 85.151 -171.8329
2565.394469 85.184 -171.7001
2583.984375 85.221 -171.5620
2602.708991 85.263 -171.4174
2621.569293 85.308 -171.2662
2640.566265 85.359 -171.1093
2659.700897 85.416 -170.9479
2678.974186 85.477 -170.7840
2698.387137 85.545 -170.6196
2717.940763 85.618 -170.4574
2737.636082 85.698 -170.3003
2757.474121 85.783 -170.1521
2777.455915 85.873 -170.0164
2797.582506 85.967 -169.8970
2817.854942 86.066 -169.7969
2838.274281 86.168 -169.7184
2858.841586 86.272 -169.6623
2879.557931 86.377 -169.6282
2900.424394 86.483 -169.6148
2921.442065 86.588 -169.6204
2942.612039 86.693 -169.6430
2963.935418 86.796 -169.6814
2985.413316 86.897 -169.7345
3007.046852 86.996 -169.8016
3028.837153 87.092 -169.8826
3050.785356 87.185 -169.9775
3072.892604 87.275 -170.0869
3095.160050 87.360 -170.2116
3117.588856 87.440 -170.3523
3140.180190 87.514 -170.5100
3162.935230 87.583 -170.6848
3185.855163 87.645 -170.8764
3208.941182 87.699 -171.0841
3232.194493 87.746 -171.3067
3255.616307 87.786 -171.5433
3279.207844 87.817 -171.7930
3302.970336 87.840 -172.0547
3326.905021 87.855 -172.3271
3351.013146 87.861 -172.6080
3375.295969 87.859 -172.8949
3399.754755 87.849 -173.1853
