* Measurement data measured by REW V5.31.3
* Source: EXCL: Headset (USB-C to 3.5mm Headphone Jack Adapter), MICROPHONE (Master Volume), 0, volume: 0.750
* Format: 256k Log Swept Sine, 1 sweep at -12.0 dBFS with no timing reference
* Dated: Apr 1, 2025 10:16:10 PM
* REW Settings:
*  C-weighting compensation: Off
*  Target level: 75.0 dB
* Note: ; 
* Measurement: HD6XX R5
* Smoothing: 1/6 octave
* Frequency Step: 96 ppo
* Start Frequency: 20.0 Hz
*
* Freq(Hz) SPL(dB) Phase(degrees)
20.033247 84.542 -93.0468
20.178416 84.612 -93.2414
20.324637 84.685 -93.4428
20.471918 84.763 -93.6499
20.620266 84.845 -93.8615
20.769689 84.931 -94.0769
20.920195 85.021 -94.2957
21.071791 85.117 -94.5187
21.224486 85.218 -94.7477
21.378287 85.324 -94.9855
21.533203 85.435 -95.2354
21.689242 85.550 -95.5015
21.846411 85.667 -95.7874
22.004719 85.786 -96.0964
22.164174 85.904 -96.4304
22.324785 86.021 -96.7896
22.486559 86.135 -97.1725
22.649506 86.243 -97.5758
22.813634 86.345 -97.9944
22.978951 86.440 -98.4221
23.145466 86.527 -98.8521
23.313188 86.607 -99.2780
23.482124 86.679 -99.6942
23.652286 86.744 -100.0967
23.823680 86.804 -100.4836
23.996316 86.860 -100.8554
24.170203 86.912 -101.2147
24.345351 86.961 -101.5657
24.521767 87.009 -101.9138
24.699462 87.055 -102.2642
24.878444 87.099 -102.6214
25.058724 87.142 -102.9881
25.240310 87.182 -103.3652
25.423211 87.220 -103.7511
25.607438 87.255 -104.1422
25.793000 87.287 -104.5338
25.979907 87.316 -104.9201
26.168168 87.344 -105.2958
26.357794 87.370 -105.6567
26.548793 87.396 -106.0003
26.741176 87.423 -106.3259
26.934954 87.451 -106.6352
27.130136 87.482 -106.9315
27.326732 87.515 -107.2190
27.524753 87.551 -107.5024
27.724208 87.589 -107.7861
27.925110 87.630 -108.0731
28.127466 87.671 -108.3654
28.331290 87.714 -108.6632
28.536590 87.756 -108.9656
28.743378 87.799 -109.2709
28.951664 87.841 -109.5772
29.161460 87.884 -109.8825
29.372776 87.927 -110.1858
29.585623 87.970 -110.4868
29.800013 88.015 -110.7861
30.015956 88.061 -111.0851
30.233464 88.109 -111.3857
30.452548 88.160 -111.6898
30.673220 88.212 -111.9990
30.895490 88.268 -112.3143
31.119372 88.325 -112.6360
31.344876 88.386 -112.9633
31.572014 88.449 -113.2948
31.800797 88.514 -113.6287
32.031239 88.583 -113.9627
32.263351 88.655 -114.2949
32.497144 88.731 -114.6236
32.732632 88.811 -114.9479
32.969826 88.895 -115.2674
33.208739 88.983 -115.5829
33.449383 89.075 -115.8951
33.691771 89.171 -116.2055
33.935916 89.271 -116.5155
34.181829 89.373 -116.8263
34.429525 89.478 -117.1389
34.679015 89.585 -117.4539
34.930314 89.693 -117.7716
35.183433 89.802 -118.0921
35.438387 89.911 -118.4157
35.695188 90.020 -118.7427
35.953850 90.128 -119.0734
36.214387 90.235 -119.4082
36.476811 90.340 -119.7475
36.741137 90.444 -120.0915
37.007378 90.544 -120.4400
37.275549 90.641 -120.7927
37.545663 90.735 -121.1485
37.817734 90.825 -121.5063
38.091777 90.912 -121.8646
38.367806 90.995 -122.2220
38.645835 91.074 -122.5772
38.925879 91.150 -122.9293
39.207952 91.223 -123.2781
39.492069 91.293 -123.6243
39.778244 91.361 -123.9696
40.066494 91.428 -124.3165
40.356832 91.493 -124.6678
40.649275 91.557 -125.0264
40.943836 91.618 -125.3942
41.240532 91.678 -125.7721
41.539378 91.735 -126.1596
41.840389 91.790 -126.5549
42.143582 91.842 -126.9553
42.448972 91.892 -127.3580
42.756574 91.939 -127.7602
43.066406 91.985 -128.1597
43.378483 92.028 -128.5547
43.692822 92.071 -128.9443
44.009438 92.112 -129.3279
44.328348 92.152 -129.7051
44.649570 92.191 -130.0762
44.973119 92.228 -130.4412
45.299013 92.265 -130.8004
45.627268 92.301 -131.1538
45.957902 92.335 -131.5013
46.290932 92.368 -131.8423
46.626375 92.399 -132.1766
46.964249 92.429 -132.5043
47.304571 92.459 -132.8263
47.647360 92.487 -133.1443
47.992632 92.514 -133.4604
48.340407 92.541 -133.7769
48.690701 92.566 -134.0954
49.043534 92.590 -134.4165
49.398924 92.611 -134.7394
49.756889 92.632 -135.0629
50.117447 92.650 -135.3854
50.480619 92.667 -135.7053
50.846423 92.683 -136.0221
51.214877 92.698 -136.3358
51.586001 92.713 -136.6473
51.959814 92.727 -136.9582
52.336336 92.741 -137.2700
52.715587 92.754 -137.5840
53.097586 92.767 -137.9005
53.482353 92.779 -138.2187
53.869908 92.789 -138.5368
54.260272 92.798 -138.8523
54.653464 92.807 -139.1627
55.049506 92.814 -139.4664
55.448417 92.821 -139.7626
55.850219 92.829 -140.0514
56.254933 92.837 -140.3334
56.662579 92.846 -140.6097
57.073180 92.857 -140.8810
57.486755 92.869 -141.1480
57.903328 92.884 -141.4111
58.322919 92.901 -141.6705
58.745551 92.921 -141.9259
59.171246 92.944 -142.1770
59.600025 92.970 -142.4236
60.031911 93.001 -142.6664
60.466927 93.036 -142.9066
60.905096 93.075 -143.1458
61.346439 93.118 -143.3853
61.790981 93.164 -143.6260
62.238744 93.214 -143.8682
62.689751 93.267 -144.1120
63.144027 93.322 -144.3575
63.601595 93.378 -144.6052
64.062478 93.437 -144.8553
64.526701 93.496 -145.1086
64.994288 93.556 -145.3652
65.465264 93.615 -145.6257
65.939652 93.675 -145.8905
66.417478 93.735 -146.1603
66.898766 93.793 -146.4361
67.383542 93.851 -146.7186
67.871831 93.908 -147.0084
68.363659 93.963 -147.3057
68.859050 94.017 -147.6101
69.358031 94.069 -147.9208
69.860628 94.119 -148.2366
70.366867 94.167 -148.5560
70.876774 94.212 -148.8778
71.390376 94.255 -149.2007
71.907700 94.296 -149.5239
72.428773 94.334 -149.8468
72.953622 94.370 -150.1694
73.482274 94.403 -150.4915
74.014757 94.433 -150.8136
74.551098 94.461 -151.1357
75.091326 94.486 -151.4582
75.635469 94.508 -151.7814
76.183555 94.528 -152.1055
76.735612 94.545 -152.4305
77.291670 94.560 -152.7561
77.851757 94.573 -153.0822
78.415903 94.583 -153.4084
78.984137 94.592 -153.7343
79.556489 94.600 -154.0598
80.132988 94.606 -154.3844
80.713665 94.611 -154.7077
81.298549 94.616 -155.0295
81.887672 94.620 -155.3495
82.481064 94.623 -155.6678
83.078756 94.626 -155.9845
83.680778 94.628 -156.2998
84.287164 94.630 -156.6142
84.897943 94.631 -156.9280
85.513149 94.632 -157.2417
86.132812 94.633 -157.5554
86.756966 94.633 -157.8692
87.385643 94.632 -158.1827
88.018875 94.631 -158.4955
88.656696 94.629 -158.8070
89.299139 94.626 -159.1164
89.946238 94.623 -159.4229
90.598025 94.620 -159.7260
91.254536 94.617 -160.0256
91.915804 94.613 -160.3218
92.581864 94.610 -160.6149
93.252750 94.606 -160.9053
93.928498 94.603 -161.1934
94.609143 94.600 -161.4798
95.294719 94.598 -161.7649
95.985264 94.595 -162.0491
96.680813 94.593 -162.3328
97.381402 94.592 -162.6162
98.087068 94.590 -162.8996
98.797847 94.589 -163.1831
99.513777 94.588 -163.4667
100.234895 94.588 -163.7501
100.961238 94.588 -164.0331
101.692845 94.588 -164.3157
102.429753 94.588 -164.5979
103.172002 94.589 -164.8796
103.919628 94.591 -165.1611
104.672673 94.593 -165.4422
105.431174 94.595 -165.7230
106.195172 94.599 -166.0031
106.964706 94.603 -166.2822
107.739816 94.608 -166.5600
108.520543 94.614 -166.8362
109.306928 94.621 -167.1108
110.099011 94.628 -167.3837
110.896834 94.637 -167.6548
111.700438 94.645 -167.9241
112.509866 94.654 -168.1914
113.325158 94.663 -168.4568
114.146359 94.672 -168.7205
114.973511 94.680 -168.9825
115.806656 94.688 -169.2432
116.645839 94.697 -169.5029
117.491103 94.705 -169.7621
118.342492 94.714 -170.0211
119.200050 94.723 -170.2800
120.063823 94.732 -170.5389
120.933855 94.741 -170.7975
121.810191 94.750 -171.0552
122.692878 94.759 -171.3111
123.581962 94.767 -171.5644
124.477487 94.774 -171.8145
125.379503 94.781 -172.0616
126.288054 94.786 -172.3061
127.203189 94.789 -172.5490
128.124956 94.792 -172.7910
129.053402 94.793 -173.0329
129.988577 94.793 -173.2750
130.930527 94.791 -173.5172
131.879304 94.788 -173.7590
132.834956 94.784 -173.9997
133.797533 94.778 -174.2382
134.767085 94.770 -174.4738
135.743663 94.762 -174.7060
136.727317 94.752 -174.9347
137.718100 94.741 -175.1602
138.716062 94.729 -175.3830
139.721255 94.716 -175.6037
140.733733 94.702 -175.8226
141.753548 94.687 -176.0398
142.780753 94.670 -176.2553
143.815401 94.653 -176.4691
144.857546 94.636 -176.6811
145.907244 94.617 -176.8914
146.964548 94.598 -177.0999
148.029514 94.578 -177.3065
149.102197 94.558 -177.5111
150.182652 94.537 -177.7137
151.270938 94.516 -177.9144
152.367109 94.495 -178.1131
153.471224 94.473 -178.3103
154.583340 94.451 -178.5061
155.703515 94.428 -178.7010
156.831807 94.406 -178.8953
157.968274 94.383 -179.0893
159.112978 94.361 -179.2832
160.265976 94.338 -179.4767
161.427329 94.316 -179.6696
162.597098 94.295 -179.8616
163.775344 94.274 179.9481
164.962128 94.253 179.7599
166.157511 94.233 179.5741
167.361557 94.213 179.3908
168.574328 94.194 179.2097
169.795887 94.175 179.0306
171.026298 94.155 178.8530
172.265625 94.136 178.6766
173.513933 94.116 178.5013
174.771286 94.096 178.3274
176.037751 94.076 178.1552
177.313393 94.054 177.9852
178.598279 94.032 177.8183
179.892476 94.010 177.6550
181.196051 93.986 177.4957
182.509072 93.962 177.3407
183.831608 93.937 177.1898
185.163728 93.912 177.0430
186.505500 93.887 176.8995
187.856996 93.861 176.7589
189.218285 93.835 176.6202
190.589439 93.808 176.4826
191.970529 93.782 176.3453
193.361626 93.754 176.2076
194.762804 93.727 176.0688
196.174136 93.698 175.9289
197.595694 93.669 175.7878
199.027554 93.640 175.6464
200.469790 93.610 175.5052
201.922477 93.579 175.3655
203.385690 93.549 175.2281
204.859507 93.518 175.0937
206.344003 93.488 174.9630
207.839257 93.457 174.8362
209.345346 93.427 174.7138
210.862348 93.397 174.5959
212.390344 93.368 174.4829
213.929412 93.339 174.3753
215.479633 93.311 174.2737
217.041087 93.284 174.1788
218.613856 93.257 174.0911
220.198022 93.232 174.0110
221.793668 93.208 173.9385
223.400876 93.186 173.8735
225.019731 93.165 173.8153
226.650317 93.145 173.7628
228.292718 93.128 173.7146
229.947022 93.112 173.6691
231.613312 93.097 173.6245
233.291678 93.084 173.5795
234.982206 93.073 173.5330
236.684984 93.063 173.4841
238.400101 93.054 173.4324
240.127646 93.047 173.3776
241.867710 93.041 173.3197
243.620383 93.036 173.2589
245.385757 93.031 173.1957
247.163923 93.028 173.1307
248.954975 93.025 173.0645
250.759005 93.022 172.9978
252.576108 93.019 172.9312
254.406379 93.017 172.8653
256.249912 93.015 172.8006
258.106805 93.012 172.7377
259.977153 93.010 172.6767
261.861055 93.007 172.6180
263.758608 93.004 172.5612
265.669911 93.000 172.5060
267.595065 92.995 172.4518
269.534169 92.989 172.3981
271.487325 92.983 172.3445
273.454634 92.977 172.2911
275.436199 92.970 172.2382
277.432123 92.963 172.1860
279.442511 92.956 172.1349
281.467467 92.950 172.0853
283.507096 92.945 172.0374
285.561505 92.939 171.9913
287.630801 92.935 171.9473
289.715093 92.931 171.9056
291.814488 92.927 171.8662
293.929096 92.923 171.8290
296.059027 92.921 171.7938
298.204393 92.918 171.7603
300.365305 92.916 171.7283
302.541876 92.914 171.6977
304.734219 92.913 171.6686
306.942449 92.911 171.6416
309.166680 92.910 171.6171
311.407029 92.910 171.5957
313.663613 92.909 171.5776
315.936549 92.909 171.5628
318.225955 92.909 171.5511
320.531952 92.909 171.5420
322.854659 92.909 171.5349
325.194197 92.909 171.5291
327.550688 92.909 171.5243
329.924255 92.910 171.5200
332.315022 92.909 171.5158
334.723114 92.909 171.5117
337.148655 92.908 171.5075
339.591774 92.906 171.5034
342.052596 92.904 171.4995
344.531250 92.900 171.4958
347.027865 92.896 171.4924
349.542572 92.890 171.4894
352.075502 92.883 171.4872
354.626786 92.874 171.4860
357.196558 92.864 171.4860
359.784951 92.854 171.4874
362.392101 92.841 171.4905
365.018144 92.828 171.4954
367.663216 92.814 171.5020
370.327455 92.800 171.5105
373.011000 92.784 171.5208
375.713992 92.769 171.5329
378.436570 92.753 171.5466
381.178878 92.737 171.5618
383.941057 92.721 171.5784
386.723252 92.705 171.5963
389.525608 92.688 171.6155
392.348271 92.672 171.6357
395.191389 92.655 171.6567
398.055108 92.637 171.6782
400.939580 92.620 171.6999
403.844953 92.602 171.7214
406.771380 92.583 171.7426
409.719013 92.563 171.7639
412.688006 92.543 171.7854
415.678514 92.521 171.8076
418.690692 92.498 171.8311
421.724697 92.474 171.8562
424.780688 92.449 171.8835
427.858824 92.422 171.9131
430.959265 92.393 171.9453
434.082174 92.363 171.9800
437.227712 92.332 172.0172
440.396044 92.299 172.0567
443.587336 92.265 172.0988
446.801752 92.230 172.1436
450.039462 92.194 172.1917
453.300634 92.158 172.2430
456.585437 92.121 172.2978
459.894043 92.084 172.3559
463.226625 92.047 172.4171
466.583356 92.011 172.4812
469.964411 91.975 172.5476
473.369967 91.940 172.6157
476.800201 91.906 172.6849
480.255292 91.873 172.7545
483.735420 91.841 172.8241
487.240766 91.811 172.8933
490.771513 91.782 172.9619
494.327846 91.755 173.0294
497.909949 91.729 173.0960
501.518010 91.705 173.1615
505.152216 91.682 173.2258
508.812758 91.661 173.2891
512.499825 91.642 173.3511
516.213610 91.625 173.4117
519.954306 91.609 173.4707
523.722109 91.595 173.5277
527.517216 91.583 173.5826
531.339823 91.572 173.6354
535.190130 91.564 173.6865
539.068339 91.557 173.7363
542.974650 91.551 173.7856
546.909268 91.547 173.8351
550.872398 91.545 173.8854
554.864247 91.544 173.9370
558.885022 91.544 173.9902
562.934933 91.546 174.0454
567.014192 91.548 174.1028
571.123010 91.551 174.1628
575.261603 91.555 174.2258
579.430186 91.559 174.2926
583.628976 91.564 174.3640
587.858192 91.568 174.4408
592.118055 91.573 174.5240
596.408786 91.579 174.6143
600.730610 91.585 174.7121
605.083752 91.591 174.8171
609.468438 91.597 174.9283
613.884897 91.604 175.0443
618.333360 91.611 175.1631
622.814059 91.618 175.2827
627.327226 91.625 175.4011
631.873098 91.631 175.5170
636.451911 91.637 175.6294
641.063904 91.642 175.7377
645.709317 91.645 175.8419
650.388393 91.648 175.9422
655.101375 91.649 176.0389
659.848510 91.649 176.1329
664.630044 91.647 176.2249
669.446228 91.645 176.3157
674.297311 91.641 176.4056
679.183547 91.635 176.4948
684.105191 91.629 176.5831
689.062499 91.622 176.6701
694.055730 91.614 176.7555
699.085144 91.604 176.8391
704.151003 91.594 176.9207
709.253572 91.583 177.0004
714.393116 91.570 177.0786
719.569903 91.556 177.1552
724.784203 91.541 177.2308
730.036288 91.524 177.3058
735.326432 91.507 177.3806
740.654910 91.488 177.4555
746.022001 91.467 177.5311
751.427984 91.446 177.6077
756.873141 91.423 177.6857
762.357756 91.400 177.7653
767.882114 91.375 177.8464
773.446504 91.350 177.9285
779.051217 91.325 178.0108
784.696543 91.299 178.0920
790.382778 91.273 178.1711
796.110217 91.248 178.2466
801.879160 91.222 178.3173
807.689907 91.197 178.3815
813.542761 91.173 178.4377
819.438027 91.149 178.4843
825.376013 91.125 178.5196
831.357028 91.100 178.5429
837.381383 91.075 178.5543
843.449394 91.049 178.5549
849.561376 91.022 178.5469
855.717648 90.991 178.5341
861.918531 90.959 178.5212
868.164348 90.923 178.5145
874.455424 90.884 178.5208
880.792089 90.842 178.5478
887.174671 90.798 178.6035
893.603505 90.752 178.6949
900.078924 90.706 178.8278
906.601267 90.661 179.0054
913.170874 90.619 179.2277
919.788086 90.582 179.4909
926.453250 90.551 179.7880
933.166712 90.528 -179.8905
939.928823 90.512 -179.5555
946.739934 90.506 -179.2175
953.600402 90.507 -178.8858
960.510584 90.516 -178.5679
967.470839 90.532 -178.2685
974.481532 90.553 -177.9908
981.543027 90.580 -177.7359
988.655692 90.611 -177.5038
995.819899 90.646 -177.2935
1003.036020 90.684 -177.1039
1010.304433 90.725 -176.9333
1017.625515 90.768 -176.7801
1024.999649 90.813 -176.6425
1032.427219 90.860 -176.5187
1039.908612 90.908 -176.4070
1047.444219 90.957 -176.3062
1055.034432 91.008 -176.2148
1062.679646 91.059 -176.1320
1070.380261 91.111 -176.0569
1078.136677 91.163 -175.9887
1085.949300 91.215 -175.9269
1093.818536 91.268 -175.8710
1101.744796 91.320 -175.8203
1109.728493 91.372 -175.7744
1117.770043 91.423 -175.7324
1125.869866 91.473 -175.6935
1134.028383 91.522 -175.6569
1142.246020 91.570 -175.6216
1150.523206 91.617 -175.5869
1158.860371 91.663 -175.5517
1167.257951 91.708 -175.5151
1175.716383 91.752 -175.4762
1184.236109 91.796 -175.4337
1192.817572 91.838 -175.3868
1201.461220 91.881 -175.3347
1210.167503 91.924 -175.2769
1218.936876 91.967 -175.2139
1227.769795 92.011 -175.1466
1236.666721 92.057 -175.0762
1245.628118 92.103 -175.0043
1254.654453 92.150 -174.9319
1263.746196 92.198 -174.8600
1272.903822 92.247 -174.7896
1282.127808 92.297 -174.7219
1291.418634 92.348 -174.6579
1300.776786 92.399 -174.5986
1310.202751 92.450 -174.5443
1319.697020 92.502 -174.4953
1329.260089 92.553 -174.4511
1338.892455 92.604 -174.4113
1348.594622 92.655 -174.3752
1358.367094 92.705 -174.3417
1368.210382 92.755 -174.3094
1378.124999 92.806 -174.2773
1388.111461 92.856 -174.2444
1398.170288 92.907 -174.2105
1408.302007 92.958 -174.1754
1418.507144 93.011 -174.1389
1428.786231 93.064 -174.1013
1439.139805 93.119 -174.0624
1449.568405 93.175 -174.0221
1460.072576 93.233 -173.9804
1470.652863 93.292 -173.9369
1481.309820 93.352 -173.8919
1492.044002 93.412 -173.8456
1502.855968 93.474 -173.7983
1513.746282 93.536 -173.7504
1524.715511 93.597 -173.7020
1535.764228 93.658 -173.6531
1546.893009 93.717 -173.6031
1558.102433 93.774 -173.5510
1569.393086 93.829 -173.4957
1580.765555 93.881 -173.4354
1592.220434 93.929 -173.3688
1603.758320 93.975 -173.2952
1615.379813 94.018 -173.2143
1627.085521 94.058 -173.1271
1638.876054 94.096 -173.0347
1650.752025 94.130 -172.9386
1662.714055 94.162 -172.8399
1674.762766 94.190 -172.7393
1686.898788 94.216 -172.6368
1699.122752 94.240 -172.5316
1711.435296 94.260 -172.4225
1723.837061 94.279 -172.3078
1736.328695 94.295 -172.1863
1748.910849 94.310 -172.0571
1761.584178 94.323 -171.9199
1774.349343 94.336 -171.7751
1787.207010 94.349 -171.6243
1800.157848 94.362 -171.4701
1813.202534 94.375 -171.3161
1826.341747 94.389 -171.1656
1839.576172 94.402 -171.0220
1852.906500 94.414 -170.8876
1866.333424 94.424 -170.7635
1879.857645 94.433 -170.6494
1893.479869 94.438 -170.5437
1907.200804 94.440 -170.4436
1921.021168 94.439 -170.3457
1934.941679 94.433 -170.2461
1948.963064 94.424 -170.1408
1963.086054 94.411 -170.0265
1977.311384 94.395 -169.9008
1991.639798 94.378 -169.7631
2006.072041 94.358 -169.6144
2020.608866 94.339 -169.4571
2035.251031 94.319 -169.2953
2049.999299 94.299 -169.1334
2064.854438 94.280 -168.9760
2079.817225 94.262 -168.8269
2094.888438 94.244 -168.6890
2110.068863 94.226 -168.5638
2125.359292 94.209 -168.4515
2140.760521 94.191 -168.3515
2156.273355 94.173 -168.2619
2171.898600 94.154 -168.1806
2187.637073 94.136 -168.1049
2203.489593 94.117 -168.0322
2219.456987 94.099 -167.9602
2235.540087 94.081 -167.8873
2251.739732 94.064 -167.8128
2268.056766 94.049 -167.7366
2284.492041 94.036 -167.6594
2301.046412 94.025 -167.5824
2317.720742 94.016 -167.5070
2334.515902 94.011 -167.4349
2351.432767 94.008 -167.3676
2368.472218 94.009 -167.3069
2385.635144 94.013 -167.2539
2402.922440 94.020 -167.2096
2420.335006 94.030 -167.1740
2437.873752 94.043 -167.1469
2455.539590 94.060 -167.1277
2473.333442 94.079 -167.1158
2491.256235 94.103 -167.1108
2509.308905 94.130 -167.1127
2527.492392 94.161 -167.1220
2545.807644 94.197 -167.1399
2564.255615 94.236 -167.1674
2582.837268 94.279 -167.2060
2601.553572 94.326 -167.2563
2620.405502 94.377 -167.3187
2639.394040 94.431 -167.3927
2658.520177 94.487 -167.4773
2677.784910 94.547 -167.5708
2697.189244 94.609 -167.6718
2716.734189 94.673 -167.7792
2736.420765 94.741 -167.8928
2756.249998 94.811 -168.0134
2776.222921 94.884 -168.1424
2796.340577 94.959 -168.2816
2816.604013 95.036 -168.4329
2837.014287 95.114 -168.5977
2857.572462 95.194 -168.7768
2878.279610 95.273 -168.9705
2899.136811 95.353 -169.1784
2920.145151 95.431 -169.4004
2941.305727 95.508 -169.6362
2962.619641 95.583 -169.8859
2984.088004 95.654 -170.1496
3005.711935 95.723 -170.4273
3027.492563 95.786 -170.7186
3049.431022 95.845 -171.0220
3071.528457 95.897 -171.3358
3093.786018 95.943 -171.6573
3116.204867 95.982 -171.9842
3138.786172 96.013 -172.3141
3161.531110 96.037 -172.6450
3184.440868 96.053 -172.9755
3207.516639 96.060 -173.3045
3230.759627 96.060 -173.6310
3254.171043 96.052 -173.9543
3277.752108 96.035 -174.2737
3301.504051 96.010 -174.5887
