* Measurement data measured by REW V5.31.3
* Source: EXCL: Headset (USB-C to 3.5mm Headphone Jack Adapter), MICROPHONE (Master Volume), 0, volume: 0.750
* Format: 256k Log Swept Sine, 1 sweep at -12.0 dBFS with no timing reference
* Dated: Apr 7, 2025 12:15:00 PM
* REW Settings:
*  C-weighting compensation: Off
*  Target level: 75.0 dB
* Note: ; 
* Measurement: HD6XX (Back) L6
* Smoothing: 1/6 octave
* Frequency Step: 96 ppo
* Start Frequency: 20.0 Hz
*
* Freq(Hz) SPL(dB) Phase(degrees)
20.187378 79.027 -94.4152
20.333664 79.050 -94.5926
20.481010 79.082 -94.8351
20.629424 79.120 -95.1406
20.778913 79.164 -95.5049
20.929486 79.212 -95.9210
21.081150 79.264 -96.3790
21.233912 79.319 -96.8664
21.387782 79.378 -97.3679
21.542767 79.440 -97.8672
21.698874 79.508 -98.3476
21.856113 79.581 -98.7933
22.014492 79.661 -99.1910
22.174018 79.750 -99.5309
22.334700 79.846 -99.8079
22.496546 79.952 -100.0223
22.659566 80.067 -100.1798
22.823766 80.189 -100.2911
22.989157 80.318 -100.3712
23.155745 80.451 -100.4374
23.323542 80.586 -100.5081
23.492554 80.719 -100.6009
23.662790 80.848 -100.7308
23.834261 80.969 -100.9092
24.006973 81.079 -101.1434
24.180938 81.177 -101.4361
24.356163 81.260 -101.7859
24.532658 81.328 -102.1877
24.710431 81.380 -102.6341
24.889493 81.417 -103.1158
25.069853 81.441 -103.6231
25.251519 81.452 -104.1467
25.434502 81.454 -104.6781
25.618811 81.449 -105.2106
25.804456 81.439 -105.7391
25.991445 81.428 -106.2602
26.179790 81.416 -106.7717
26.369500 81.407 -107.2721
26.560584 81.402 -107.7606
26.753053 81.400 -108.2360
26.946917 81.405 -108.6973
27.142185 81.414 -109.1433
27.338869 81.430 -109.5732
27.536977 81.450 -109.9867
27.736522 81.476 -110.3844
27.937512 81.507 -110.7681
28.139959 81.541 -111.1402
28.343872 81.578 -111.5035
28.549264 81.617 -111.8607
28.756143 81.655 -112.2136
28.964522 81.693 -112.5629
29.174411 81.730 -112.9081
29.385821 81.764 -113.2478
29.598763 81.796 -113.5802
29.813248 81.827 -113.9037
30.029287 81.857 -114.2181
30.246891 81.888 -114.5245
30.466073 81.921 -114.8252
30.686842 81.958 -115.1236
30.909212 81.999 -115.4229
31.133193 82.046 -115.7255
31.358797 82.098 -116.0318
31.586035 82.157 -116.3403
31.814921 82.221 -116.6478
32.045465 82.292 -116.9502
32.277680 82.368 -117.2440
32.511577 82.451 -117.5271
32.747169 82.541 -117.8005
32.984469 82.638 -118.0677
33.223488 82.740 -118.3347
33.464239 82.847 -118.6087
33.706735 82.958 -118.8965
33.950987 83.072 -119.2030
34.197010 83.186 -119.5305
34.444816 83.301 -119.8779
34.694417 83.415 -120.2417
34.945827 83.528 -120.6164
35.199059 83.640 -120.9958
35.454126 83.750 -121.3746
35.711041 83.860 -121.7485
35.969818 83.970 -122.1155
36.230470 84.079 -122.4751
36.493011 84.186 -122.8286
36.757455 84.292 -123.1780
37.023814 84.394 -123.5258
37.292104 84.493 -123.8739
37.562338 84.587 -124.2236
37.834530 84.675 -124.5750
38.108695 84.757 -124.9267
38.384846 84.833 -125.2764
38.662999 84.904 -125.6214
38.943167 84.970 -125.9584
39.225365 85.033 -126.2855
39.509608 85.093 -126.6017
39.795911 85.152 -126.9080
40.084289 85.211 -127.2070
40.374756 85.269 -127.5022
40.667328 85.328 -127.7972
40.962020 85.386 -128.0951
41.258848 85.444 -128.3974
41.557827 85.499 -128.7045
41.858972 85.553 -129.0160
42.162299 85.604 -129.3313
42.467824 85.654 -129.6501
42.775564 85.700 -129.9731
43.085533 85.745 -130.3010
43.397749 85.787 -130.6344
43.712227 85.827 -130.9729
44.028983 85.865 -131.3155
44.348036 85.902 -131.6602
44.669400 85.937 -132.0048
44.993093 85.972 -132.3479
45.319131 86.008 -132.6888
45.647532 86.044 -133.0278
45.978313 86.080 -133.3653
46.311491 86.118 -133.7014
46.647083 86.155 -134.0355
46.985107 86.192 -134.3664
47.325581 86.227 -134.6925
47.668521 86.261 -135.0126
48.013947 86.293 -135.3268
48.361876 86.323 -135.6360
48.712326 86.350 -135.9425
49.065315 86.375 -136.2496
49.420863 86.397 -136.5602
49.778987 86.418 -136.8774
50.139706 86.439 -137.2027
50.503039 86.459 -137.5364
50.869005 86.480 -137.8768
51.237623 86.501 -138.2201
51.608912 86.523 -138.5610
51.982891 86.545 -138.8929
52.359580 86.566 -139.2096
52.739000 86.586 -139.5062
53.121168 86.604 -139.7808
53.506106 86.621 -140.0344
53.893833 86.635 -140.2712
54.284370 86.648 -140.4974
54.677737 86.659 -140.7201
55.073955 86.670 -140.9458
55.473043 86.681 -141.1796
55.875024 86.692 -141.4252
56.279917 86.704 -141.6846
56.687745 86.717 -141.9585
57.098527 86.731 -142.2469
57.512287 86.747 -142.5491
57.929045 86.764 -142.8630
58.348822 86.783 -143.1848
58.771642 86.804 -143.5084
59.197525 86.827 -143.8253
59.626495 86.852 -144.1267
60.058573 86.881 -144.4053
60.493782 86.914 -144.6579
60.932145 86.952 -144.8862
61.373685 86.994 -145.0963
61.818424 87.041 -145.2970
62.266386 87.092 -145.4973
62.717593 87.146 -145.7050
63.172071 87.202 -145.9259
63.629842 87.259 -146.1634
64.090930 87.318 -146.4186
64.555359 87.376 -146.6902
65.023154 87.435 -146.9757
65.494339 87.493 -147.2711
65.968938 87.550 -147.5719
66.446976 87.606 -147.8737
66.928478 87.660 -148.1728
67.413469 87.712 -148.4666
67.901975 87.763 -148.7543
68.394021 87.812 -149.0365
68.889632 87.860 -149.3156
69.388835 87.907 -149.5943
69.891655 87.953 -149.8754
70.398118 87.997 -150.1613
70.908252 88.040 -150.4537
71.422083 88.082 -150.7535
71.939636 88.122 -151.0608
72.460941 88.160 -151.3748
72.986023 88.196 -151.6945
73.514909 88.228 -152.0184
74.047629 88.258 -152.3452
74.584208 88.285 -152.6736
75.124676 88.309 -153.0029
75.669061 88.330 -153.3327
76.217390 88.348 -153.6630
76.769692 88.364 -153.9941
77.325997 88.377 -154.3262
77.886333 88.387 -154.6595
78.450730 88.395 -154.9936
79.019216 88.401 -155.3281
79.591822 88.404 -155.6618
80.168577 88.406 -155.9932
80.749512 88.405 -156.3208
81.334656 88.403 -156.6430
81.924040 88.400 -156.9581
82.517696 88.397 -157.2651
83.115653 88.393 -157.5633
83.717943 88.388 -157.8532
84.324598 88.384 -158.1363
84.935649 88.380 -158.4148
85.551128 88.376 -158.6914
86.171066 88.373 -158.9682
86.795497 88.371 -159.2472
87.424453 88.369 -159.5289
88.057967 88.368 -159.8134
88.696071 88.368 -160.0999
89.338800 88.368 -160.3876
89.986185 88.369 -160.6759
90.638262 88.369 -160.9643
91.295065 88.368 -161.2526
91.956626 88.368 -161.5406
92.622982 88.366 -161.8280
93.294166 88.365 -162.1147
93.970214 88.362 -162.4004
94.651161 88.360 -162.6849
95.337042 88.357 -162.9683
96.027894 88.354 -163.2505
96.723752 88.352 -163.5315
97.424652 88.349 -163.8110
98.130631 88.348 -164.0888
98.841726 88.347 -164.3644
99.557974 88.347 -164.6375
100.279412 88.347 -164.9079
101.006078 88.349 -165.1756
101.738010 88.351 -165.4409
102.475245 88.354 -165.7045
103.217823 88.357 -165.9674
103.965782 88.360 -166.2305
104.719161 88.364 -166.4948
105.477999 88.367 -166.7608
106.242336 88.371 -167.0281
107.012212 88.374 -167.2960
107.787666 88.379 -167.5634
108.568740 88.383 -167.8291
109.355474 88.389 -168.0927
110.147909 88.395 -168.3542
110.946086 88.403 -168.6142
111.750047 88.412 -168.8738
112.559834 88.422 -169.1341
113.375489 88.433 -169.3961
114.197055 88.446 -169.6599
115.024574 88.459 -169.9252
115.858089 88.472 -170.1914
116.697645 88.486 -170.4572
117.543284 88.499 -170.7214
118.395051 88.511 -170.9828
119.252990 88.522 -171.2404
120.117147 88.532 -171.4935
120.987565 88.541 -171.7420
121.864291 88.548 -171.9863
122.747370 88.555 -172.2275
123.636848 88.562 -172.4665
124.532771 88.567 -172.7046
125.435187 88.573 -172.9422
126.344142 88.578 -173.1799
127.259684 88.583 -173.4176
128.181860 88.587 -173.6553
129.110718 88.591 -173.8926
130.046308 88.595 -174.1292
130.988677 88.598 -174.3646
131.937875 88.600 -174.5978
132.893951 88.600 -174.8281
133.856956 88.600 -175.0553
134.826938 88.598 -175.2793
135.803950 88.594 -175.5009
136.788041 88.588 -175.7204
137.779264 88.581 -175.9384
138.777669 88.572 -176.1552
139.783309 88.561 -176.3711
140.796237 88.549 -176.5864
141.816504 88.535 -176.8011
142.844165 88.520 -177.0158
143.879273 88.504 -177.2309
144.921881 88.486 -177.4467
145.972045 88.468 -177.6638
147.029819 88.450 -177.8820
148.095257 88.431 -178.1010
149.168417 88.411 -178.3201
150.249353 88.392 -178.5386
151.338121 88.372 -178.7555
152.434780 88.352 -178.9701
153.539385 88.333 -179.1816
154.651995 88.313 -179.3895
155.772667 88.293 -179.5934
156.901460 88.273 -179.7932
158.038432 88.252 -179.9892
159.183644 88.232 179.8179
160.337154 88.211 179.6274
161.499023 88.190 179.4385
162.669312 88.168 179.2502
163.848081 88.147 179.0622
165.035392 88.126 178.8743
166.231306 88.106 178.6869
167.435887 88.086 178.5005
168.649196 88.066 178.3163
169.871298 88.047 178.1348
171.102255 88.029 177.9566
172.342133 88.011 177.7816
173.590995 87.993 177.6093
174.848907 87.974 177.4388
176.115934 87.956 177.2690
177.392143 87.937 177.0993
178.677599 87.918 176.9289
179.972371 87.898 176.7576
181.276525 87.877 176.5857
182.590129 87.856 176.4135
183.913252 87.835 176.2416
185.245964 87.813 176.0704
186.588332 87.791 175.8999
187.940428 87.768 175.7303
189.302322 87.746 175.5615
190.674085 87.723 175.3935
192.055788 87.699 175.2263
193.447503 87.675 175.0601
194.849303 87.651 174.8951
196.261262 87.626 174.7316
197.683452 87.601 174.5701
199.115948 87.575 174.4114
200.558824 87.549 174.2569
202.012156 87.522 174.1081
203.476019 87.495 173.9661
204.950490 87.468 173.8315
206.435646 87.440 173.7040
207.931564 87.412 173.5830
209.438322 87.384 173.4675
210.955998 87.356 173.3569
212.484672 87.328 173.2503
214.024424 87.301 173.1472
215.575333 87.275 173.0469
217.137481 87.249 172.9490
218.710948 87.225 172.8531
220.295818 87.202 172.7592
221.892172 87.181 172.6674
223.500094 87.161 172.5775
225.119668 87.144 172.4893
226.750978 87.127 172.4017
228.394109 87.112 172.3137
230.049147 87.098 172.2240
231.716178 87.086 172.1318
233.395289 87.074 172.0367
235.086567 87.063 171.9391
236.790102 87.053 171.8397
238.505980 87.043 171.7391
240.234293 87.034 171.6384
241.975130 87.025 171.5385
243.728581 87.017 171.4397
245.494739 87.010 171.3428
247.273695 87.003 171.2484
249.065542 86.996 171.1570
250.870374 86.989 171.0691
252.688284 86.983 170.9846
254.519367 86.976 170.9029
256.363720 86.970 170.8228
258.221437 86.963 170.7430
260.092616 86.957 170.6627
261.977354 86.951 170.5812
263.875750 86.945 170.4991
265.787903 86.939 170.4173
267.713911 86.934 170.3369
269.653877 86.928 170.2585
271.607900 86.922 170.1824
273.576083 86.916 170.1087
275.558528 86.908 170.0375
277.555338 86.900 169.9689
279.566619 86.892 169.9030
281.592474 86.883 169.8401
283.633009 86.874 169.7805
285.688331 86.865 169.7250
287.758546 86.858 169.6741
289.843763 86.852 169.6283
291.944090 86.847 169.5871
294.059638 86.844 169.5495
296.190515 86.842 169.5140
298.336833 86.841 169.4792
300.498705 86.841 169.4444
302.676243 86.842 169.4096
304.869559 86.843 169.3751
307.078770 86.844 169.3415
309.303989 86.845 169.3095
311.545334 86.847 169.2797
313.802919 86.848 169.2524
316.076865 86.849 169.2277
318.367288 86.850 169.2054
320.674309 86.852 169.1852
322.998047 86.853 169.1669
325.338624 86.854 169.1502
327.696162 86.855 169.1349
330.070783 86.855 169.1208
332.462612 86.855 169.1076
334.871773 86.854 169.0950
337.298392 86.852 169.0824
339.742595 86.849 169.0692
342.204510 86.846 169.0546
344.684265 86.841 169.0383
347.181989 86.836 169.0199
349.697813 86.829 168.9998
352.231868 86.821 168.9783
354.784285 86.812 168.9561
357.355198 86.802 168.9336
359.944741 86.791 168.9112
362.553049 86.779 168.8894
365.180258 86.766 168.8688
367.826505 86.751 168.8504
370.491927 86.736 168.8349
373.176665 86.720 168.8229
375.880856 86.703 168.8147
378.604644 86.686 168.8102
381.348169 86.669 168.8094
384.111575 86.652 168.8118
386.895006 86.635 168.8171
389.698607 86.618 168.8248
392.522524 86.600 168.8347
395.366904 86.583 168.8466
398.231895 86.565 168.8604
401.117648 86.546 168.8760
404.024312 86.527 168.8933
406.952038 86.508 168.9118
409.900981 86.488 168.9309
412.871292 86.468 168.9497
415.863128 86.447 168.9678
418.876643 86.425 168.9849
421.911996 86.401 169.0015
424.969344 86.377 169.0182
428.048847 86.350 169.0361
431.150666 86.323 169.0560
434.274961 86.293 169.0787
437.421897 86.262 169.1047
440.591636 86.230 169.1345
443.784345 86.197 169.1680
447.000189 86.163 169.2054
450.239337 86.128 169.2468
453.501956 86.094 169.2917
456.788219 86.058 169.3398
460.098294 86.023 169.3904
463.432356 85.988 169.4424
466.790578 85.954 169.4945
470.173135 85.920 169.5455
473.580203 85.886 169.5943
477.011961 85.853 169.6401
480.468586 85.821 169.6826
483.950259 85.790 169.7220
487.457163 85.760 169.7590
490.989478 85.731 169.7944
494.547390 85.704 169.8293
498.131084 85.678 169.8650
501.740748 85.653 169.9023
505.376568 85.629 169.9415
509.038735 85.607 169.9828
512.727439 85.586 170.0257
516.442874 85.567 170.0694
520.185232 85.549 170.1129
523.954708 85.533 170.1555
527.751500 85.518 170.1964
531.575805 85.506 170.2354
535.427822 85.495 170.2723
539.307753 85.486 170.3076
543.215800 85.479 170.3415
547.152165 85.474 170.3747
551.117055 85.470 170.4081
555.110677 85.468 170.4427
559.133237 85.467 170.4796
563.184947 85.467 170.5199
567.266018 85.469 170.5647
571.376661 85.471 170.6146
575.517092 85.475 170.6700
579.687526 85.479 170.7310
583.888181 85.485 170.7973
588.119275 85.491 170.8685
592.381030 85.498 170.9439
596.673667 85.505 171.0225
600.997410 85.513 171.1035
605.352485 85.520 171.1859
609.739119 85.527 171.2689
614.157540 85.534 171.3517
618.607979 85.541 171.4335
623.090667 85.547 171.5137
627.605839 85.552 171.5918
632.153730 85.556 171.6676
636.734576 85.559 171.7410
641.348617 85.561 171.8124
645.996094 85.561 171.8824
650.677248 85.560 171.9520
655.392323 85.558 172.0221
660.141566 85.555 172.0934
664.925224 85.551 172.1662
669.743546 85.546 172.2404
674.596784 85.540 172.3156
679.485191 85.533 172.3910
684.409020 85.525 172.4660
689.368530 85.517 172.5402
694.363979 85.507 172.6135
699.395626 85.497 172.6863
704.463736 85.485 172.7596
709.568570 85.473 172.8342
714.710396 85.459 172.9111
719.889483 85.445 172.9909
725.106099 85.431 173.0736
730.360516 85.415 173.1585
735.653010 85.400 173.2444
740.983855 85.383 173.3296
746.353329 85.367 173.4121
751.761713 85.350 173.4901
757.209288 85.332 173.5617
762.696339 85.313 173.6256
768.223151 85.293 173.6806
773.790013 85.273 173.7260
779.397214 85.251 173.7616
785.045047 85.228 173.7875
790.733808 85.204 173.8042
796.463791 85.178 173.8121
802.235296 85.152 173.8122
808.048623 85.123 173.8049
813.904077 85.093 173.7913
819.801961 85.062 173.7725
825.742584 85.029 173.7503
831.726255 84.994 173.7270
837.753287 84.957 173.7054
843.823992 84.918 173.6894
849.938689 84.876 173.6829
856.097695 84.833 173.6907
862.301332 84.787 173.7178
868.549922 84.740 173.7694
874.843793 84.692 173.8505
881.183272 84.644 173.9651
887.568689 84.598 174.1155
894.000378 84.554 174.3023
900.478673 84.513 174.5235
907.003913 84.477 174.7751
913.576437 84.447 175.0515
920.196588 84.424 175.3451
926.864712 84.407 175.6482
933.581156 84.398 175.9528
940.346270 84.396 176.2516
947.160407 84.401 176.5381
954.023921 84.412 176.8077
960.937172 84.428 177.0569
967.900519 84.450 177.2838
974.914325 84.475 177.4882
981.978956 84.505 177.6706
989.094780 84.537 177.8328
996.262169 84.572 177.9770
1003.481495 84.610 178.1056
1010.753136 84.649 178.2207
1018.077470 84.691 178.3243
1025.454879 84.735 178.4178
1032.885748 84.780 178.5018
1040.370463 84.827 178.5769
1047.909417 84.876 178.6432
1055.503000 84.925 178.7009
1063.151610 84.975 178.7504
1070.855645 85.026 178.7924
1078.615506 85.076 178.8283
1086.431599 85.127 178.8596
1094.304330 85.177 178.8877
1102.234110 85.227 178.9136
1110.221353 85.277 178.9381
1118.266475 85.327 178.9610
1126.369895 85.376 178.9819
1134.532035 85.426 179.0002
1142.753322 85.475 179.0153
1151.034184 85.523 179.0266
1159.375052 85.571 179.0345
1167.776361 85.618 179.0393
1176.238550 85.664 179.0422
1184.762060 85.709 179.0444
1193.347334 85.753 179.0468
1201.994821 85.797 179.0503
1210.704971 85.841 179.0548
1219.478238 85.885 179.0599
1228.315080 85.928 179.0646
1237.215957 85.972 179.0678
1246.181334 86.016 179.0686
1255.211678 86.060 179.0667
1264.307459 86.104 179.0622
1273.469152 86.148 179.0555
1282.697235 86.191 179.0474
1291.992188 86.234 179.0388
1301.354495 86.277 179.0302
1310.784647 86.319 179.0219
1320.283132 86.361 179.0137
1329.850448 86.403 179.0052
1339.487093 86.445 178.9963
1349.193569 86.486 178.9868
1358.970381 86.527 178.9769
1368.818041 86.567 178.9671
1378.737061 86.608 178.9577
1388.727958 86.648 178.9488
1398.791253 86.689 178.9404
1408.927471 86.730 178.9327
1419.137140 86.771 178.9257
1429.420793 86.813 178.9200
1439.778965 86.854 178.9170
1450.212197 86.896 178.9185
1460.721033 86.939 178.9269
1471.306019 86.982 178.9448
1481.967709 87.025 178.9740
1492.706658 87.068 179.0156
1503.523426 87.113 179.0700
1514.418576 87.157 179.1370
1525.392678 87.202 179.2161
1536.446302 87.247 179.3068
1547.580025 87.292 179.4087
1558.794428 87.336 179.5211
1570.090095 87.379 179.6428
1581.467615 87.421 179.7722
1592.927581 87.461 179.9069
1604.470591 87.501 -179.9556
1616.097246 87.538 -179.8181
1627.808153 87.572 -179.6827
1639.603922 87.603 -179.5503
1651.485168 87.631 -179.4204
1663.452510 87.655 -179.2902
1675.506573 87.674 -179.1557
1687.647984 87.689 -179.0121
1699.877377 87.701 -178.8549
1712.195390 87.710 -178.6810
1724.602663 87.717 -178.4890
1737.099845 87.724 -178.2793
1749.687587 87.730 -178.0541
1762.366544 87.737 -177.8162
1775.137379 87.744 -177.5690
1788.000756 87.753 -177.3161
1800.957346 87.763 -177.0614
1814.007826 87.774 -176.8087
1827.152874 87.785 -176.5613
1840.393177 87.797 -176.3215
1853.729425 87.808 -176.0903
1867.162312 87.819 -175.8674
1880.692540 87.828 -175.6519
1894.320813 87.835 -175.4424
1908.047843 87.841 -175.2373
1921.874344 87.844 -175.0352
1935.801038 87.846 -174.8347
1949.828650 87.845 -174.6346
1963.957912 87.842 -174.4339
1978.189561 87.838 -174.2325
1992.524338 87.832 -174.0315
2006.962991 87.825 -173.8330
2021.506272 87.818 -173.6396
2036.154940 87.810 -173.4544
2050.909758 87.802 -173.2792
2065.771495 87.793 -173.1154
2080.740927 87.783 -172.9633
2095.818833 87.773 -172.8227
2111.006001 87.762 -172.6927
2126.303220 87.750 -172.5723
2141.711290 87.738 -172.4595
2157.231013 87.725 -172.3522
2172.863198 87.713 -172.2485
2188.608660 87.701 -172.1470
2204.468221 87.690 -172.0478
2220.442706 87.680 -171.9521
2236.532950 87.672 -171.8618
2252.739789 87.666 -171.7797
2269.064070 87.662 -171.7083
2285.506644 87.661 -171.6501
2302.068367 87.660 -171.6062
2318.750104 87.662 -171.5768
2335.552723 87.664 -171.5607
2352.477101 87.667 -171.5559
2369.524119 87.670 -171.5593
2386.694668 87.675 -171.5680
2403.989641 87.680 -171.5795
2421.409941 87.687 -171.5916
2438.956476 87.696 -171.6032
2456.630160 87.708 -171.6138
2474.431915 87.722 -171.6239
2492.362668 87.740 -171.6349
2510.423356 87.762 -171.6487
2528.614918 87.788 -171.6673
2546.938304 87.817 -171.6918
2565.394469 87.850 -171.7231
2583.984375 87.886 -171.7607
2602.708991 87.926 -171.8036
2621.569293 87.968 -171.8504
2640.566265 88.014 -171.8997
2659.700897 88.064 -171.9507
2678.974186 88.116 -172.0033
2698.387137 88.173 -172.0582
2717.940763 88.233 -172.1162
2737.636082 88.296 -172.1787
2757.474121 88.363 -172.2476
2777.455915 88.433 -172.3248
2797.582506 88.506 -172.4128
2817.854942 88.581 -172.5139
2838.274281 88.658 -172.6302
2858.841586 88.735 -172.7623
2879.557931 88.813 -172.9102
2900.424394 88.890 -173.0730
2921.442065 88.966 -173.2497
2942.612039 89.040 -173.4388
2963.935418 89.111 -173.6387
2985.413316 89.178 -173.8477
3007.046852 89.242 -174.0636
3028.837153 89.301 -174.2847
3050.785356 89.355 -174.5089
3072.892604 89.404 -174.7345
3095.160050 89.447 -174.9597
3117.588856 89.484 -175.1836
3140.180190 89.515 -175.4054
3162.935230 89.540 -175.6250
3185.855163 89.558 -175.8429
3208.941182 89.570 -176.0597
3232.194493 89.574 -176.2762
3255.616307 89.572 -176.4925
3279.207844 89.562 -176.7087
3302.970336 89.544 -176.9241
3326.905021 89.519 -177.1377
3351.013146 89.486 -177.3486
3375.295969 89.446 -177.5554
