* Measurement data measured by REW V5.31.3
* Source: EXCL: Headset (USB-C to 3.5mm Headphone Jack Adapter), MICROPHONE (Master Volume), 0, volume: 0.750
* Format: 256k Log Swept Sine, 1 sweep at -12.0 dBFS with no timing reference
* Dated: Apr 7, 2025 5:25:21 PM
* REW Settings:
*  C-weighting compensation: Off
*  Target level: 75.0 dB
* Note: ; 
* Measurement: HD 6XX (Soulwit) L6
* Smoothing: 1/6 octave
* Frequency Step: 96 ppo
* Start Frequency: 20.0 Hz
*
* Freq(Hz) SPL(dB) Phase(degrees)
20.187378 74.904 -101.6915
20.333664 74.936 -101.8531
20.481010 74.980 -102.0661
20.629424 75.033 -102.3201
20.778913 75.095 -102.6045
20.929486 75.165 -102.9097
21.081150 75.242 -103.2278
21.233912 75.323 -103.5533
21.387782 75.409 -103.8827
21.542767 75.499 -104.2141
21.698874 75.590 -104.5474
21.856113 75.681 -104.8825
22.014492 75.772 -105.2199
22.174018 75.860 -105.5591
22.334700 75.945 -105.8989
22.496546 76.025 -106.2371
22.659566 76.101 -106.5705
22.823766 76.170 -106.8953
22.989157 76.234 -107.2074
23.155745 76.293 -107.5031
23.323542 76.346 -107.7797
23.492554 76.397 -108.0359
23.662790 76.444 -108.2721
23.834261 76.490 -108.4908
24.006973 76.536 -108.6961
24.180938 76.582 -108.8938
24.356163 76.628 -109.0902
24.532658 76.676 -109.2920
24.710431 76.724 -109.5050
24.889493 76.771 -109.7337
25.069853 76.818 -109.9810
25.251519 76.864 -110.2476
25.434502 76.906 -110.5327
25.618811 76.946 -110.8337
25.804456 76.982 -111.1472
25.991445 77.015 -111.4696
26.179790 77.045 -111.7975
26.369500 77.072 -112.1285
26.560584 77.098 -112.4614
26.753053 77.124 -112.7965
26.946917 77.151 -113.1356
27.142185 77.180 -113.4814
27.338869 77.212 -113.8373
27.536977 77.247 -114.2068
27.736522 77.286 -114.5927
27.937512 77.329 -114.9968
28.139959 77.376 -115.4196
28.343872 77.424 -115.8599
28.549264 77.475 -116.3154
28.756143 77.526 -116.7822
28.964522 77.578 -117.2559
29.174411 77.628 -117.7317
29.385821 77.676 -118.2047
29.598763 77.722 -118.6707
29.813248 77.765 -119.1264
30.029287 77.806 -119.5697
30.246891 77.844 -119.9997
30.466073 77.882 -120.4172
30.686842 77.919 -120.8242
30.909212 77.956 -121.2234
31.133193 77.996 -121.6182
31.358797 78.040 -122.0121
31.586035 78.087 -122.4071
31.814921 78.140 -122.8044
32.045465 78.199 -123.2027
32.277680 78.265 -123.5989
32.511577 78.336 -123.9884
32.747169 78.414 -124.3654
32.984469 78.498 -124.7244
33.223488 78.587 -125.0608
33.464239 78.681 -125.3723
33.706735 78.779 -125.6588
33.950987 78.878 -125.9227
34.197010 78.977 -126.1681
34.444816 79.075 -126.4001
34.694417 79.169 -126.6235
34.945827 79.259 -126.8424
35.199059 79.344 -127.0595
35.454126 79.424 -127.2769
35.711041 79.500 -127.4961
35.969818 79.572 -127.7187
36.230470 79.643 -127.9467
36.493011 79.713 -128.1828
36.757455 79.785 -128.4292
37.023814 79.857 -128.6873
37.292104 79.931 -128.9565
37.562338 80.006 -129.2345
37.834530 80.081 -129.5168
38.108695 80.154 -129.7987
38.384846 80.226 -130.0757
38.662999 80.295 -130.3456
38.943167 80.362 -130.6093
39.225365 80.425 -130.8704
39.509608 80.485 -131.1353
39.795911 80.542 -131.4113
40.084289 80.596 -131.7054
40.374756 80.649 -132.0226
40.667328 80.700 -132.3650
40.962020 80.750 -132.7312
41.258848 80.801 -133.1165
41.557827 80.852 -133.5132
41.858972 80.904 -133.9122
42.162299 80.956 -134.3040
42.467824 81.009 -134.6803
42.775564 81.062 -135.0359
43.085533 81.114 -135.3697
43.397749 81.164 -135.6848
43.712227 81.212 -135.9878
44.028983 81.255 -136.2874
44.348036 81.294 -136.5922
44.669400 81.328 -136.9088
44.993093 81.356 -137.2406
45.319131 81.380 -137.5875
45.647532 81.401 -137.9458
45.978313 81.420 -138.3100
46.311491 81.440 -138.6732
46.647083 81.463 -139.0285
46.985107 81.488 -139.3705
47.325581 81.518 -139.6957
47.668521 81.553 -140.0032
48.013947 81.590 -140.2951
48.361876 81.631 -140.5753
48.712326 81.673 -140.8491
49.065315 81.715 -141.1214
49.420863 81.756 -141.3957
49.778987 81.795 -141.6743
50.139706 81.833 -141.9578
50.503039 81.868 -142.2456
50.869005 81.901 -142.5367
51.237623 81.932 -142.8294
51.608912 81.963 -143.1219
51.982891 81.992 -143.4119
52.359580 82.022 -143.6967
52.739000 82.051 -143.9735
53.121168 82.081 -144.2397
53.506106 82.111 -144.4923
53.893833 82.142 -144.7292
54.284370 82.173 -144.9485
54.677737 82.205 -145.1493
55.073955 82.239 -145.3309
55.473043 82.277 -145.4926
55.875024 82.319 -145.6334
56.279917 82.369 -145.7511
56.687745 82.427 -145.8433
57.098527 82.494 -145.9081
57.512287 82.570 -145.9480
57.929045 82.652 -145.9726
58.348822 82.736 -146.0013
58.771642 82.817 -146.0620
59.197525 82.891 -146.1864
59.626495 82.950 -146.4021
60.058573 82.993 -146.7249
60.493782 83.018 -147.1552
60.932145 83.027 -147.6784
61.373685 83.023 -148.2698
61.818424 83.014 -148.9005
62.266386 83.003 -149.5425
62.717593 82.995 -150.1725
63.172071 82.993 -150.7734
63.629842 82.997 -151.3357
64.090930 83.007 -151.8567
64.555359 83.024 -152.3396
65.023154 83.046 -152.7909
65.494339 83.073 -153.2173
65.968938 83.105 -153.6248
66.446976 83.141 -154.0179
66.928478 83.180 -154.4004
67.413469 83.223 -154.7757
67.901975 83.267 -155.1469
68.394021 83.312 -155.5162
68.889632 83.358 -155.8844
69.388835 83.402 -156.2515
69.891655 83.446 -156.6163
70.398118 83.488 -156.9773
70.908252 83.528 -157.3335
71.422083 83.566 -157.6839
71.939636 83.601 -158.0280
72.460941 83.634 -158.3656
72.986023 83.664 -158.6969
73.514909 83.691 -159.0221
74.047629 83.716 -159.3419
74.584208 83.737 -159.6574
75.124676 83.756 -159.9700
75.669061 83.772 -160.2812
76.217390 83.786 -160.5925
76.769692 83.797 -160.9056
77.325997 83.807 -161.2218
77.886333 83.815 -161.5424
78.450730 83.822 -161.8679
79.019216 83.828 -162.1984
79.591822 83.833 -162.5335
80.168577 83.837 -162.8724
80.749512 83.840 -163.2143
81.334656 83.842 -163.5585
81.924040 83.844 -163.9039
82.517696 83.844 -164.2498
83.115653 83.844 -164.5951
83.717943 83.843 -164.9391
84.324598 83.842 -165.2810
84.935649 83.841 -165.6202
85.551128 83.839 -165.9566
86.171066 83.838 -166.2905
86.795497 83.836 -166.6227
87.424453 83.835 -166.9541
88.057967 83.835 -167.2853
88.696071 83.834 -167.6169
89.338800 83.833 -167.9484
89.986185 83.832 -168.2790
90.638262 83.830 -168.6071
91.295065 83.828 -168.9313
91.956626 83.825 -169.2501
92.622982 83.822 -169.5628
93.294166 83.819 -169.8694
93.970214 83.815 -170.1705
94.651161 83.811 -170.4674
95.337042 83.807 -170.7621
96.027894 83.802 -171.0565
96.723752 83.798 -171.3522
97.424652 83.793 -171.6505
98.130631 83.788 -171.9515
98.841726 83.783 -172.2547
99.557974 83.778 -172.5589
100.279412 83.773 -172.8624
101.006078 83.768 -173.1635
101.738010 83.763 -173.4610
102.475245 83.759 -173.7542
103.217823 83.756 -174.0436
103.965782 83.753 -174.3304
104.719161 83.752 -174.6160
105.477999 83.751 -174.9023
106.242336 83.751 -175.1907
107.012212 83.752 -175.4828
107.787666 83.755 -175.7794
108.568740 83.759 -176.0809
109.355474 83.764 -176.3867
110.147909 83.771 -176.6956
110.946086 83.780 -177.0058
111.750047 83.790 -177.3157
112.559834 83.801 -177.6237
113.375489 83.813 -177.9285
114.197055 83.826 -178.2290
115.024574 83.839 -178.5246
115.858089 83.853 -178.8150
116.697645 83.866 -179.1004
117.543284 83.879 -179.3808
118.395051 83.891 -179.6560
119.252990 83.902 -179.9259
120.117147 83.911 179.8096
120.987565 83.919 179.5501
121.864291 83.926 179.2944
122.747370 83.931 179.0410
123.636848 83.934 178.7888
124.532771 83.937 178.5370
125.435187 83.938 178.2853
126.344142 83.939 178.0338
127.259684 83.940 177.7829
128.181860 83.940 177.5327
129.110718 83.941 177.2830
130.046308 83.941 177.0332
130.988677 83.942 176.7829
131.937875 83.942 176.5316
132.893951 83.941 176.2791
133.856956 83.940 176.0253
134.826938 83.939 175.7706
135.803950 83.936 175.5148
136.788041 83.933 175.2578
137.779264 83.928 174.9991
138.777669 83.923 174.7386
139.783309 83.915 174.4764
140.796237 83.907 174.2129
141.816504 83.896 173.9488
142.844165 83.884 173.6850
143.879273 83.870 173.4227
144.921881 83.854 173.1627
145.972045 83.837 172.9058
147.029819 83.819 172.6523
148.095257 83.799 172.4028
149.168417 83.779 172.1576
150.249353 83.757 171.9169
151.338121 83.736 171.6806
152.434780 83.714 171.4480
153.539385 83.691 171.2185
154.651995 83.669 170.9913
155.772667 83.647 170.7657
156.901460 83.626 170.5412
158.038432 83.604 170.3170
159.183644 83.583 170.0924
160.337154 83.563 169.8671
161.499023 83.543 169.6408
162.669312 83.524 169.4140
163.848081 83.505 169.1873
165.035392 83.486 168.9617
166.231306 83.468 168.7386
167.435887 83.450 168.5190
168.649196 83.432 168.3035
169.871298 83.414 168.0922
171.102255 83.396 167.8850
172.342133 83.378 167.6817
173.590995 83.359 167.4819
174.848907 83.340 167.2852
176.115934 83.321 167.0904
177.392143 83.302 166.8960
178.677599 83.283 166.6998
179.972371 83.264 166.4997
181.276525 83.245 166.2949
182.590129 83.227 166.0862
183.913252 83.209 165.8754
185.245964 83.191 165.6649
186.588332 83.172 165.4565
187.940428 83.152 165.2515
189.302322 83.131 165.0500
190.674085 83.109 164.8517
192.055788 83.086 164.6554
193.447503 83.062 164.4602
194.849303 83.037 164.2650
196.261262 83.010 164.0692
197.683452 82.984 163.8720
199.115948 82.956 163.6731
200.558824 82.929 163.4721
202.012156 82.902 163.2691
203.476019 82.876 163.0642
204.950490 82.850 162.8583
206.435646 82.826 162.6525
207.931564 82.802 162.4481
209.438322 82.779 162.2465
210.955998 82.756 162.0488
212.484672 82.734 161.8560
214.024424 82.713 161.6688
215.575333 82.692 161.4879
217.137481 82.671 161.3135
218.710948 82.651 161.1459
220.295818 82.631 160.9844
221.892172 82.612 160.8284
223.500094 82.594 160.6767
225.119668 82.577 160.5283
226.750978 82.561 160.3820
228.394109 82.546 160.2367
230.049147 82.532 160.0912
231.716178 82.520 159.9446
233.395289 82.509 159.7966
235.086567 82.500 159.6472
236.790102 82.491 159.4968
238.505980 82.484 159.3458
240.234293 82.477 159.1944
241.975130 82.472 159.0425
243.728581 82.467 158.8897
245.494739 82.463 158.7359
247.273695 82.460 158.5807
249.065542 82.456 158.4243
250.870374 82.453 158.2669
252.688284 82.450 158.1091
254.519367 82.446 157.9518
256.363720 82.443 157.7960
258.221437 82.439 157.6425
260.092616 82.435 157.4920
261.977354 82.430 157.3451
263.875750 82.425 157.2017
265.787903 82.420 157.0618
267.713911 82.414 156.9246
269.653877 82.408 156.7889
271.607900 82.401 156.6534
273.576083 82.395 156.5173
275.558528 82.388 156.3802
277.555338 82.381 156.2425
279.566619 82.375 156.1051
281.592474 82.368 155.9692
283.633009 82.362 155.8361
285.688331 82.356 155.7072
287.758546 82.350 155.5833
289.843763 82.345 155.4647
291.944090 82.340 155.3511
294.059638 82.336 155.2413
296.190515 82.332 155.1341
298.336833 82.329 155.0281
300.498705 82.326 154.9224
302.676243 82.324 154.8166
304.869559 82.323 154.7104
307.078770 82.321 154.6041
309.303989 82.321 154.4980
311.545334 82.320 154.3925
313.802919 82.320 154.2878
316.076865 82.320 154.1842
318.367288 82.320 154.0821
320.674309 82.320 153.9816
322.998047 82.320 153.8828
325.338624 82.320 153.7856
327.696162 82.319 153.6901
330.070783 82.319 153.5963
332.462612 82.318 153.5043
334.871773 82.316 153.4141
337.298392 82.314 153.3258
339.742595 82.310 153.2397
342.204510 82.306 153.1557
344.684265 82.301 153.0736
347.181989 82.294 152.9929
349.697813 82.287 152.9128
352.231868 82.278 152.8329
354.784285 82.269 152.7525
357.355198 82.259 152.6712
359.944741 82.247 152.5886
362.553049 82.235 152.5048
365.180258 82.222 152.4200
367.826505 82.208 152.3348
370.491927 82.193 152.2498
373.176665 82.178 152.1654
375.880856 82.162 152.0822
378.604644 82.146 152.0002
381.348169 82.130 151.9195
384.111575 82.114 151.8395
386.895006 82.098 151.7595
389.698607 82.082 151.6790
392.522524 82.067 151.5975
395.366904 82.051 151.5153
398.231895 82.034 151.4327
401.117648 82.018 151.3506
404.024312 82.000 151.2699
406.952038 81.982 151.1915
409.900981 81.962 151.1159
412.871292 81.941 151.0435
415.863128 81.920 150.9742
418.876643 81.896 150.9084
421.911996 81.872 150.8458
424.969344 81.846 150.7866
428.048847 81.819 150.7305
431.150666 81.790 150.6772
434.274961 81.760 150.6262
437.421897 81.729 150.5768
440.591636 81.696 150.5285
443.784345 81.663 150.4807
447.000189 81.628 150.4330
450.239337 81.593 150.3854
453.501956 81.556 150.3380
456.788219 81.520 150.2912
460.098294 81.483 150.2452
463.432356 81.446 150.2004
466.790578 81.410 150.1573
470.173135 81.374 150.1160
473.580203 81.338 150.0762
477.011961 81.304 150.0378
480.468586 81.271 150.0001
483.950259 81.238 149.9625
487.457163 81.207 149.9243
490.989478 81.178 149.8849
494.547390 81.149 149.8437
498.131084 81.122 149.8004
501.740748 81.095 149.7546
505.376568 81.071 149.7063
509.038735 81.047 149.6553
512.727439 81.026 149.6018
516.442874 81.005 149.5459
520.185232 80.987 149.4878
523.954708 80.971 149.4282
527.751500 80.956 149.3676
531.575805 80.944 149.3068
535.427822 80.933 149.2462
539.307753 80.925 149.1863
543.215800 80.919 149.1273
547.152165 80.914 149.0695
551.117055 80.911 149.0132
555.110677 80.909 148.9592
559.133237 80.909 148.9083
563.184947 80.910 148.8618
567.266018 80.912 148.8204
571.376661 80.915 148.7852
575.517092 80.918 148.7570
579.687526 80.923 148.7361
583.888181 80.929 148.7229
588.119275 80.936 148.7169
592.381030 80.943 148.7173
596.673667 80.952 148.7228
600.997410 80.961 148.7319
605.352485 80.971 148.7426
609.739119 80.981 148.7530
614.157540 80.992 148.7611
618.607979 81.003 148.7657
623.090667 81.013 148.7657
627.605839 81.023 148.7611
632.153730 81.032 148.7521
636.734576 81.040 148.7395
641.348617 81.047 148.7239
645.996094 81.054 148.7057
650.677248 81.058 148.6852
655.392323 81.062 148.6624
660.141566 81.065 148.6368
664.925224 81.066 148.6082
669.743546 81.067 148.5763
674.596784 81.066 148.5406
679.485191 81.064 148.5011
684.409020 81.061 148.4576
689.368530 81.056 148.4103
694.363979 81.050 148.3599
699.395626 81.042 148.3069
704.463736 81.033 148.2527
709.568570 81.023 148.1984
714.710396 81.011 148.1455
719.889483 80.998 148.0948
725.106099 80.984 148.0470
730.360516 80.969 148.0016
735.653010 80.953 147.9576
740.983855 80.936 147.9133
746.353329 80.919 147.8671
751.761713 80.901 147.8175
757.209288 80.883 147.7631
762.696339 80.864 147.7026
768.223151 80.845 147.6352
773.790013 80.825 147.5600
779.397214 80.804 147.4761
785.045047 80.782 147.3829
790.733808 80.760 147.2800
796.463791 80.736 147.1670
802.235296 80.711 147.0440
808.048623 80.685 146.9116
813.904077 80.657 146.7708
819.801961 80.627 146.6230
825.742584 80.595 146.4705
831.726255 80.560 146.3163
837.753287 80.523 146.1642
843.823992 80.482 146.0194
849.938689 80.439 145.8875
856.097695 80.393 145.7748
862.301332 80.345 145.6881
868.549922 80.295 145.6340
874.843793 80.245 145.6180
881.183272 80.196 145.6440
887.568689 80.149 145.7133
894.000378 80.106 145.8237
900.478673 80.069 145.9698
907.003913 80.038 146.1437
913.576437 80.015 146.3358
920.196588 80.000 146.5359
926.864712 79.994 146.7346
933.581156 79.995 146.9232
940.346270 80.004 147.0945
947.160407 80.019 147.2430
954.023921 80.041 147.3645
960.937172 80.068 147.4568
967.900519 80.099 147.5192
974.914325 80.134 147.5525
981.978956 80.171 147.5587
989.094780 80.210 147.5404
996.262169 80.251 147.5009
1003.481495 80.294 147.4433
1010.753136 80.337 147.3710
1018.077470 80.382 147.2868
1025.454879 80.429 147.1931
1032.885748 80.476 147.0912
1040.370463 80.525 146.9818
1047.909417 80.576 146.8646
1055.503000 80.629 146.7386
1063.151610 80.682 146.6026
1070.855645 80.736 146.4555
1078.615506 80.791 146.2967
1086.431599 80.845 146.1262
1094.304330 80.899 145.9445
1102.234110 80.952 145.7530
1110.221353 81.003 145.5533
1118.266475 81.053 145.3472
1126.369895 81.101 145.1367
1134.532035 81.148 144.9233
1142.753322 81.193 144.7085
1151.034184 81.236 144.4928
1159.375052 81.277 144.2768
1167.776361 81.317 144.0609
1176.238550 81.355 143.8459
1184.762060 81.391 143.6333
1193.347334 81.426 143.4247
1201.994821 81.459 143.2222
1210.704971 81.492 143.0276
1219.478238 81.524 142.8421
1228.315080 81.556 142.6660
1237.215957 81.588 142.4979
1246.181334 81.622 142.3358
1255.211678 81.656 142.1763
1264.307459 81.692 142.0165
1273.469152 81.729 141.8534
1282.697235 81.766 141.6851
1291.992188 81.804 141.5105
1301.354495 81.842 141.3292
1310.784647 81.880 141.1412
1320.283132 81.917 140.9471
1329.850448 81.953 140.7468
1339.487093 81.989 140.5405
1349.193569 82.024 140.3282
1358.970381 82.057 140.1100
1368.818041 82.089 139.8866
1378.737061 82.120 139.6596
1388.727958 82.149 139.4312
1398.791253 82.177 139.2040
1408.927471 82.205 138.9804
1419.137140 82.231 138.7621
1429.420793 82.257 138.5499
1439.778965 82.284 138.3437
1450.212197 82.310 138.1431
1460.721033 82.337 137.9484
1471.306019 82.363 137.7609
1481.967709 82.389 137.5825
1492.706658 82.415 137.4152
1503.523426 82.440 137.2601
1514.418576 82.465 137.1175
1525.392678 82.489 136.9868
1536.446302 82.513 136.8674
1547.580025 82.534 136.7592
1558.794428 82.554 136.6626
1570.090095 82.571 136.5794
1581.467615 82.585 136.5114
1592.927581 82.596 136.4603
1604.470591 82.604 136.4271
1616.097246 82.610 136.4117
1627.808153 82.613 136.4128
1639.603922 82.613 136.4282
1651.485168 82.611 136.4550
1663.452510 82.607 136.4905
1675.506573 82.601 136.5325
1687.647984 82.592 136.5795
1699.877377 82.581 136.6311
1712.195390 82.567 136.6878
1724.602663 82.549 136.7513
1737.099845 82.529 136.8241
1749.687587 82.506 136.9097
1762.366544 82.481 137.0122
1775.137379 82.453 137.1358
1788.000756 82.424 137.2840
1800.957346 82.394 137.4587
1814.007826 82.364 137.6599
1827.152874 82.336 137.8854
1840.393177 82.309 138.1308
1853.729425 82.285 138.3899
1867.162312 82.263 138.6554
1880.692540 82.244 138.9199
1894.320813 82.226 139.1767
1908.047843 82.209 139.4209
1921.874344 82.191 139.6497
1935.801038 82.173 139.8624
1949.828650 82.152 140.0595
1963.957912 82.128 140.2437
1978.189561 82.101 140.4186
1992.524338 82.070 140.5900
2006.962991 82.034 140.7648
2021.506272 81.995 140.9503
2036.154940 81.952 141.1529
2050.909758 81.907 141.3770
2065.771495 81.861 141.6245
2080.740927 81.816 141.8943
2095.818833 81.772 142.1833
2111.006001 81.731 142.4861
2126.303220 81.694 142.7956
2141.711290 81.661 143.1042
2157.231013 81.632 143.4047
2172.863198 81.608 143.6909
2188.608660 81.588 143.9583
2204.468221 81.570 144.2041
2220.442706 81.556 144.4273
2236.532950 81.542 144.6292
2252.739789 81.530 144.8127
2269.064070 81.518 144.9827
2285.506644 81.507 145.1451
2302.068367 81.496 145.3062
2318.750104 81.486 145.4712
2335.552723 81.478 145.6436
2352.477101 81.473 145.8244
2369.524119 81.472 146.0118
2386.694668 81.476 146.2008
2403.989641 81.486 146.3841
2421.409941 81.502 146.5530
2438.956476 81.523 146.6991
2456.630160 81.549 146.8164
2474.431915 81.579 146.9027
2492.362668 81.610 146.9607
2510.423356 81.642 146.9971
2528.614918 81.674 147.0216
2546.938304 81.707 147.0441
2565.394469 81.741 147.0734
2583.984375 81.776 147.1151
2602.708991 81.816 147.1718
2621.569293 81.859 147.2424
2640.566265 81.908 147.3235
2659.700897 81.962 147.4100
2678.974186 82.022 147.4961
2698.387137 82.087 147.5770
2717.940763 82.158 147.6491
2737.636082 82.232 147.7104
2757.474121 82.311 147.7600
2777.455915 82.393 147.7979
2797.582506 82.478 147.8244
2817.854942 82.565 147.8396
2838.274281 82.654 147.8437
2858.841586 82.745 147.8363
2879.557931 82.837 147.8174
2900.424394 82.930 147.7867
2921.442065 83.024 147.7443
2942.612039 83.116 147.6899
2963.935418 83.209 147.6229
2985.413316 83.299 147.5418
3007.046852 83.388 147.4449
3028.837153 83.473 147.3309
3050.785356 83.554 147.1995
3072.892604 83.630 147.0521
3095.160050 83.700 146.8916
3117.588856 83.763 146.7220
3140.180190 83.819 146.5474
3162.935230 83.867 146.3710
3185.855163 83.909 146.1949
3208.941182 83.943 146.0203
3232.194493 83.970 145.8470
3255.616307 83.991 145.6740
3279.207844 84.004 145.5001
3302.970336 84.010 145.3243
3326.905021 84.009 145.1467
3351.013146 84.001 144.9681
3375.295969 83.984 144.7908
3399.754755 83.960 144.6179
3424.390779 83.928 144.4531
3449.205326 83.890 144.3006
3474.199690 83.845 144.1646
3499.375173 83.795 144.0483
