* Measurement data measured by REW V5.31.3
* Source: EXCL: Headset (USB-C to 3.5mm Headphone Jack Adapter), MICROPHONE (Master Volume), 0, volume: 0.750
* Format: 256k Log Swept Sine, 1 sweep at -12.0 dBFS with no timing reference
* Dated: Apr 7, 2025 12:24:07 PM
* REW Settings:
*  C-weighting compensation: Off
*  Target level: 75.0 dB
* Note: ; 
* Measurement: HD6XX (Forward) R1
* Smoothing: 1/6 octave
* Frequency Step: 96 ppo
* Start Frequency: 20.0 Hz
*
* Freq(Hz) SPL(dB) Phase(degrees)
20.187378 78.786 -96.8212
20.333664 78.827 -96.9514
20.481010 78.880 -97.1298
20.629424 78.944 -97.3559
20.778913 79.016 -97.6283
20.929486 79.094 -97.9436
21.081150 79.175 -98.2966
21.233912 79.256 -98.6798
21.387782 79.338 -99.0835
21.542767 79.418 -99.4964
21.698874 79.496 -99.9065
21.856113 79.573 -100.3017
22.014492 79.649 -100.6710
22.174018 79.725 -101.0061
22.334700 79.803 -101.3016
22.496546 79.884 -101.5561
22.659566 79.968 -101.7726
22.823766 80.056 -101.9575
22.989157 80.148 -102.1205
23.155745 80.243 -102.2728
23.323542 80.339 -102.4257
23.492554 80.433 -102.5889
23.662790 80.523 -102.7697
23.834261 80.607 -102.9714
24.006973 80.683 -103.1938
24.180938 80.748 -103.4332
24.356163 80.802 -103.6835
24.532658 80.845 -103.9371
24.710431 80.877 -104.1865
24.889493 80.900 -104.4257
25.069853 80.915 -104.6514
25.251519 80.925 -104.8637
25.434502 80.933 -105.0664
25.618811 80.941 -105.2668
25.804456 80.951 -105.4742
25.991445 80.965 -105.6995
26.179790 80.983 -105.9526
26.369500 81.006 -106.2416
26.560584 81.033 -106.5714
26.753053 81.063 -106.9431
26.946917 81.096 -107.3544
27.142185 81.130 -107.7998
27.338869 81.164 -108.2719
27.536977 81.199 -108.7625
27.736522 81.234 -109.2638
27.937512 81.268 -109.7690
28.139959 81.303 -110.2729
28.343872 81.338 -110.7719
28.549264 81.373 -111.2632
28.756143 81.408 -111.7452
28.964522 81.443 -112.2161
29.174411 81.479 -112.6736
29.385821 81.516 -113.1156
29.598763 81.554 -113.5393
29.813248 81.594 -113.9427
30.029287 81.638 -114.3245
30.246891 81.685 -114.6847
30.466073 81.737 -115.0248
30.686842 81.794 -115.3474
30.909212 81.857 -115.6562
31.133193 81.927 -115.9548
31.358797 82.001 -116.2461
31.586035 82.081 -116.5322
31.814921 82.165 -116.8142
32.045465 82.252 -117.0925
32.277680 82.343 -117.3675
32.511577 82.437 -117.6400
32.747169 82.534 -117.9120
32.984469 82.633 -118.1868
33.223488 82.734 -118.4685
33.464239 82.837 -118.7617
33.706735 82.942 -119.0704
33.950987 83.047 -119.3973
34.197010 83.153 -119.7433
34.444816 83.258 -120.1077
34.694417 83.362 -120.4878
34.945827 83.465 -120.8802
35.199059 83.567 -121.2808
35.454126 83.668 -121.6863
35.711041 83.768 -122.0934
35.969818 83.866 -122.5002
36.230470 83.963 -122.9050
36.493011 84.057 -123.3070
36.757455 84.149 -123.7054
37.023814 84.237 -124.0997
37.292104 84.322 -124.4894
37.562338 84.404 -124.8744
37.834530 84.481 -125.2548
38.108695 84.556 -125.6312
38.384846 84.627 -126.0040
38.662999 84.695 -126.3740
38.943167 84.761 -126.7411
39.225365 84.824 -127.1051
39.509608 84.885 -127.4646
39.795911 84.945 -127.8181
40.084289 85.003 -128.1634
40.374756 85.060 -128.4990
40.667328 85.116 -128.8239
40.962020 85.172 -129.1382
41.258848 85.228 -129.4430
41.557827 85.284 -129.7401
41.858972 85.339 -130.0314
42.162299 85.392 -130.3186
42.467824 85.444 -130.6027
42.775564 85.494 -130.8841
43.085533 85.540 -131.1633
43.397749 85.583 -131.4409
43.712227 85.623 -131.7181
44.028983 85.658 -131.9974
44.348036 85.690 -132.2819
44.669400 85.717 -132.5749
44.993093 85.740 -132.8798
45.319131 85.760 -133.1988
45.647532 85.777 -133.5328
45.978313 85.792 -133.8813
46.311491 85.805 -134.2420
46.647083 85.818 -134.6107
46.985107 85.832 -134.9821
47.325581 85.847 -135.3499
47.668521 85.863 -135.7077
48.013947 85.880 -136.0500
48.361876 85.899 -136.3726
48.712326 85.919 -136.6740
49.065315 85.938 -136.9545
49.420863 85.956 -137.2167
49.778987 85.973 -137.4644
50.139706 85.988 -137.7018
50.503039 86.002 -137.9332
50.869005 86.015 -138.1615
51.237623 86.027 -138.3890
51.608912 86.040 -138.6161
51.982891 86.054 -138.8424
52.359580 86.070 -139.0665
52.739000 86.088 -139.2874
53.121168 86.108 -139.5045
53.506106 86.130 -139.7184
53.893833 86.154 -139.9311
54.284370 86.179 -140.1457
54.677737 86.206 -140.3656
55.073955 86.233 -140.5942
55.473043 86.259 -140.8342
55.875024 86.284 -141.0872
56.279917 86.306 -141.3545
56.687745 86.324 -141.6376
57.098527 86.337 -141.9381
57.512287 86.348 -142.2574
57.929045 86.356 -142.5950
58.348822 86.364 -142.9469
58.771642 86.374 -143.3061
59.197525 86.392 -143.6640
59.626495 86.419 -144.0133
60.058573 86.459 -144.3507
60.493782 86.511 -144.6767
60.932145 86.575 -144.9942
61.373685 86.646 -145.3065
61.818424 86.722 -145.6155
62.266386 86.800 -145.9226
62.717593 86.878 -146.2290
63.172071 86.953 -146.5361
63.629842 87.026 -146.8456
64.090930 87.095 -147.1584
64.555359 87.162 -147.4747
65.023154 87.226 -147.7945
65.494339 87.287 -148.1178
65.968938 87.345 -148.4448
66.446976 87.401 -148.7760
66.928478 87.454 -149.1117
67.413469 87.505 -149.4525
67.901975 87.555 -149.7981
68.394021 87.604 -150.1475
68.889632 87.652 -150.4985
69.388835 87.698 -150.8484
69.891655 87.742 -151.1946
70.398118 87.784 -151.5352
70.908252 87.823 -151.8695
71.422083 87.859 -152.1977
71.939636 87.892 -152.5211
72.460941 87.922 -152.8417
72.986023 87.950 -153.1611
73.514909 87.975 -153.4807
74.047629 87.997 -153.8012
74.584208 88.017 -154.1225
75.124676 88.036 -154.4444
75.669061 88.052 -154.7666
76.217390 88.066 -155.0891
76.769692 88.078 -155.4119
77.325997 88.089 -155.7352
77.886333 88.098 -156.0589
78.450730 88.105 -156.3833
79.019216 88.111 -156.7081
79.591822 88.116 -157.0332
80.168577 88.120 -157.3580
80.749512 88.122 -157.6820
81.334656 88.124 -158.0043
81.924040 88.126 -158.3241
82.517696 88.127 -158.6411
83.115653 88.128 -158.9548
83.717943 88.130 -159.2654
84.324598 88.131 -159.5736
84.935649 88.132 -159.8799
85.551128 88.133 -160.1853
86.171066 88.134 -160.4903
86.795497 88.134 -160.7956
87.424453 88.134 -161.1017
88.057967 88.135 -161.4087
88.696071 88.134 -161.7169
89.338800 88.134 -162.0261
89.986185 88.133 -162.3360
90.638262 88.132 -162.6466
91.295065 88.131 -162.9577
91.956626 88.130 -163.2694
92.622982 88.128 -163.5816
93.294166 88.126 -163.8941
93.970214 88.124 -164.2064
94.651161 88.122 -164.5182
95.337042 88.119 -164.8293
96.027894 88.115 -165.1393
96.723752 88.112 -165.4481
97.424652 88.108 -165.7558
98.130631 88.104 -166.0622
98.841726 88.100 -166.3673
99.557974 88.096 -166.6708
100.279412 88.092 -166.9720
101.006078 88.089 -167.2707
101.738010 88.086 -167.5668
102.475245 88.084 -167.8604
103.217823 88.083 -168.1519
103.965782 88.082 -168.4413
104.719161 88.083 -168.7287
105.477999 88.084 -169.0141
106.242336 88.085 -169.2973
107.012212 88.088 -169.5778
107.787666 88.090 -169.8550
108.568740 88.093 -170.1285
109.355474 88.096 -170.3981
110.147909 88.100 -170.6641
110.946086 88.105 -170.9271
111.750047 88.110 -171.1879
112.559834 88.116 -171.4469
113.375489 88.123 -171.7044
114.197055 88.130 -171.9600
115.024574 88.138 -172.2132
115.858089 88.146 -172.4635
116.697645 88.153 -172.7111
117.543284 88.161 -172.9565
118.395051 88.169 -173.2005
119.252990 88.176 -173.4440
120.117147 88.183 -173.6872
120.987565 88.190 -173.9302
121.864291 88.197 -174.1723
122.747370 88.203 -174.4131
123.636848 88.208 -174.6522
124.532771 88.213 -174.8899
125.435187 88.216 -175.1265
126.344142 88.219 -175.3627
127.259684 88.221 -175.5990
128.181860 88.221 -175.8362
129.110718 88.221 -176.0748
130.046308 88.219 -176.3150
130.988677 88.217 -176.5569
131.937875 88.214 -176.7999
132.893951 88.210 -177.0433
133.856956 88.205 -177.2866
134.826938 88.198 -177.5292
135.803950 88.191 -177.7708
136.788041 88.183 -178.0112
137.779264 88.174 -178.2501
138.777669 88.163 -178.4873
139.783309 88.151 -178.7225
140.796237 88.139 -178.9557
141.816504 88.125 -179.1864
142.844165 88.110 -179.4147
143.879273 88.094 -179.6403
144.921881 88.077 -179.8632
145.972045 88.059 179.9166
147.029819 88.040 179.6987
148.095257 88.021 179.4830
149.168417 88.000 179.2690
150.249353 87.980 179.0564
151.338121 87.959 178.8449
152.434780 87.937 178.6342
153.539385 87.916 178.4242
154.651995 87.894 178.2150
155.772667 87.872 178.0069
156.901460 87.850 177.8002
158.038432 87.829 177.5949
159.183644 87.808 177.3911
160.337154 87.788 177.1887
161.499023 87.768 176.9873
162.669312 87.748 176.7867
163.848081 87.729 176.5863
165.035392 87.710 176.3857
166.231306 87.690 176.1845
167.435887 87.671 175.9827
168.649196 87.652 175.7800
169.871298 87.633 175.5762
171.102255 87.613 175.3709
172.342133 87.593 175.1640
173.590995 87.572 174.9553
174.848907 87.551 174.7453
176.115934 87.530 174.5350
177.392143 87.507 174.3258
178.677599 87.485 174.1198
179.972371 87.461 173.9189
181.276525 87.438 173.7241
182.590129 87.414 173.5355
183.913252 87.390 173.3522
185.245964 87.366 173.1732
186.588332 87.340 172.9976
187.940428 87.315 172.8250
189.302322 87.288 172.6548
190.674085 87.262 172.4873
192.055788 87.234 172.3226
193.447503 87.207 172.1609
194.849303 87.179 172.0028
196.261262 87.152 171.8486
197.683452 87.124 171.6989
199.115948 87.095 171.5539
200.558824 87.066 171.4139
202.012156 87.036 171.2784
203.476019 87.005 171.1466
204.950490 86.974 171.0171
206.435646 86.942 170.8884
207.931564 86.909 170.7597
209.438322 86.876 170.6309
210.955998 86.843 170.5027
212.484672 86.810 170.3763
214.024424 86.778 170.2536
215.575333 86.746 170.1361
217.137481 86.715 170.0251
218.710948 86.685 169.9215
220.295818 86.656 169.8254
221.892172 86.629 169.7367
223.500094 86.602 169.6545
225.119668 86.578 169.5778
226.750978 86.555 169.5049
228.394109 86.534 169.4340
230.049147 86.515 169.3632
231.716178 86.498 169.2906
233.395289 86.483 169.2146
235.086567 86.470 169.1339
236.790102 86.458 169.0475
238.505980 86.447 168.9550
240.234293 86.438 168.8562
241.975130 86.429 168.7514
243.728581 86.421 168.6411
245.494739 86.414 168.5258
247.273695 86.408 168.4064
249.065542 86.403 168.2834
250.870374 86.398 168.1580
252.688284 86.394 168.0315
254.519367 86.390 167.9056
256.363720 86.387 167.7822
258.221437 86.384 167.6635
260.092616 86.380 167.5518
261.977354 86.377 167.4493
263.875750 86.372 167.3575
265.787903 86.367 167.2769
267.713911 86.361 167.2064
269.653877 86.355 167.1440
271.607900 86.348 167.0871
273.576083 86.341 167.0335
275.558528 86.334 166.9813
277.555338 86.326 166.9296
279.566619 86.317 166.8780
281.592474 86.309 166.8264
283.633009 86.301 166.7746
285.688331 86.293 166.7220
287.758546 86.285 166.6675
289.843763 86.278 166.6099
291.944090 86.271 166.5484
294.059638 86.264 166.4827
296.190515 86.258 166.4133
298.336833 86.252 166.3408
300.498705 86.246 166.2662
302.676243 86.240 166.1904
304.869559 86.234 166.1147
307.078770 86.229 166.0407
309.303989 86.223 165.9697
311.545334 86.218 165.9030
313.802919 86.213 165.8416
316.076865 86.208 165.7861
318.367288 86.203 165.7368
320.674309 86.197 165.6937
322.998047 86.192 165.6566
325.338624 86.186 165.6249
327.696162 86.179 165.5978
330.070783 86.173 165.5742
332.462612 86.166 165.5529
334.871773 86.158 165.5330
337.298392 86.151 165.5134
339.742595 86.142 165.4937
342.204510 86.134 165.4737
344.684265 86.124 165.4533
347.181989 86.114 165.4329
349.697813 86.103 165.4132
352.231868 86.091 165.3950
354.784285 86.078 165.3794
357.355198 86.063 165.3672
359.944741 86.048 165.3593
362.553049 86.031 165.3563
365.180258 86.013 165.3586
367.826505 85.994 165.3663
370.491927 85.974 165.3794
373.176665 85.954 165.3975
375.880856 85.933 165.4197
378.604644 85.912 165.4449
381.348169 85.890 165.4716
384.111575 85.869 165.4981
386.895006 85.847 165.5229
389.698607 85.825 165.5444
392.522524 85.803 165.5616
395.366904 85.781 165.5744
398.231895 85.759 165.5830
401.117648 85.736 165.5882
404.024312 85.714 165.5909
406.952038 85.691 165.5919
409.900981 85.668 165.5924
412.871292 85.645 165.5936
415.863128 85.621 165.5965
418.876643 85.597 165.6021
421.911996 85.573 165.6110
424.969344 85.547 165.6233
428.048847 85.520 165.6390
431.150666 85.492 165.6576
434.274961 85.463 165.6786
437.421897 85.432 165.7012
440.591636 85.399 165.7247
443.784345 85.365 165.7484
447.000189 85.329 165.7717
450.239337 85.292 165.7947
453.501956 85.253 165.8173
456.788219 85.213 165.8401
460.098294 85.173 165.8638
463.432356 85.132 165.8890
466.790578 85.091 165.9167
470.173135 85.050 165.9474
473.580203 85.009 165.9816
477.011961 84.970 166.0196
480.468586 84.931 166.0613
483.950259 84.893 166.1068
487.457163 84.856 166.1559
490.989478 84.820 166.2087
494.547390 84.786 166.2651
498.131084 84.753 166.3246
501.740748 84.722 166.3868
505.376568 84.692 166.4509
509.038735 84.665 166.5157
512.727439 84.639 166.5805
516.442874 84.615 166.6445
520.185232 84.593 166.7073
523.954708 84.573 166.7691
527.751500 84.555 166.8303
531.575805 84.539 166.8911
535.427822 84.526 166.9519
539.307753 84.514 167.0126
543.215800 84.506 167.0728
547.152165 84.499 167.1315
551.117055 84.495 167.1881
555.110677 84.493 167.2416
559.133237 84.493 167.2916
563.184947 84.495 167.3378
567.266018 84.499 167.3806
571.376661 84.503 167.4207
575.517092 84.509 167.4592
579.687526 84.515 167.4970
583.888181 84.521 167.5352
588.119275 84.528 167.5746
592.381030 84.533 167.6163
596.673667 84.538 167.6610
600.997410 84.541 167.7093
605.352485 84.544 167.7620
609.739119 84.545 167.8197
614.157540 84.544 167.8830
618.607979 84.542 167.9528
623.090667 84.539 168.0297
627.605839 84.535 168.1142
632.153730 84.529 168.2067
636.734576 84.523 168.3073
641.348617 84.517 168.4154
645.996094 84.511 168.5300
650.677248 84.505 168.6494
655.392323 84.499 168.7715
660.141566 84.493 168.8939
664.925224 84.488 169.0143
669.743546 84.482 169.1305
674.596784 84.476 169.2406
679.485191 84.470 169.3432
684.409020 84.462 169.4375
689.368530 84.454 169.5235
694.363979 84.444 169.6017
699.395626 84.433 169.6734
704.463736 84.420 169.7399
709.568570 84.405 169.8030
714.710396 84.389 169.8644
719.889483 84.371 169.9255
725.106099 84.351 169.9876
730.360516 84.329 170.0515
735.653010 84.306 170.1176
740.983855 84.281 170.1858
746.353329 84.255 170.2556
751.761713 84.228 170.3263
757.209288 84.200 170.3968
762.696339 84.171 170.4664
768.223151 84.141 170.5347
773.790013 84.110 170.6011
779.397214 84.078 170.6655
785.045047 84.046 170.7276
790.733808 84.013 170.7871
796.463791 83.981 170.8436
802.235296 83.948 170.8962
808.048623 83.914 170.9442
813.904077 83.881 170.9862
819.801961 83.848 171.0215
825.742584 83.814 171.0494
831.726255 83.780 171.0699
837.753287 83.744 171.0836
843.823992 83.707 171.0923
849.938689 83.668 171.0987
856.097695 83.627 171.1066
862.301332 83.583 171.1211
868.549922 83.537 171.1485
874.843793 83.488 171.1960
881.183272 83.437 171.2712
887.568689 83.384 171.3816
894.000378 83.331 171.5338
900.478673 83.278 171.7325
907.003913 83.228 171.9799
913.576437 83.182 172.2748
920.196588 83.142 172.6121
926.864712 83.109 172.9839
933.581156 83.084 173.3800
940.346270 83.068 173.7894
947.160407 83.061 174.2012
954.023921 83.062 174.6057
960.937172 83.072 174.9951
967.900519 83.089 175.3638
974.914325 83.112 175.7083
981.978956 83.142 176.0271
989.094780 83.176 176.3198
996.262169 83.215 176.5873
1003.481495 83.257 176.8311
1010.753136 83.302 177.0526
1018.077470 83.351 177.2539
1025.454879 83.402 177.4365
1032.885748 83.455 177.6019
1040.370463 83.510 177.7514
1047.909417 83.567 177.8861
1055.503000 83.626 178.0070
1063.151610 83.686 178.1147
1070.855645 83.747 178.2101
1078.615506 83.809 178.2937
1086.431599 83.871 178.3660
1094.304330 83.934 178.4279
1102.234110 83.997 178.4800
1110.221353 84.059 178.5234
1118.266475 84.121 178.5585
1126.369895 84.183 178.5861
1134.532035 84.244 178.6061
1142.753322 84.305 178.6188
1151.034184 84.365 178.6240
1159.375052 84.424 178.6218
1167.776361 84.482 178.6119
1176.238550 84.539 178.5945
1184.762060 84.594 178.5699
1193.347334 84.649 178.5388
1201.994821 84.702 178.5015
1210.704971 84.754 178.4586
1219.478238 84.805 178.4109
1228.315080 84.855 178.3594
1237.215957 84.904 178.3054
1246.181334 84.951 178.2502
1255.211678 84.998 178.1953
1264.307459 85.043 178.1415
1273.469152 85.088 178.0898
1282.697235 85.132 178.0409
1291.992188 85.175 177.9956
1301.354495 85.218 177.9543
1310.784647 85.260 177.9167
1320.283132 85.303 177.8823
1329.850448 85.345 177.8497
1339.487093 85.387 177.8175
1349.193569 85.429 177.7847
1358.970381 85.471 177.7508
1368.818041 85.513 177.7153
1378.737061 85.554 177.6785
1388.727958 85.596 177.6406
1398.791253 85.638 177.6024
1408.927471 85.680 177.5645
1419.137140 85.722 177.5274
1429.420793 85.764 177.4914
1439.778965 85.808 177.4573
1450.212197 85.851 177.4261
1460.721033 85.895 177.3991
1471.306019 85.939 177.3778
1481.967709 85.983 177.3636
1492.706658 86.027 177.3577
1503.523426 86.072 177.3605
1514.418576 86.117 177.3718
1525.392678 86.161 177.3907
1536.446302 86.206 177.4163
1547.580025 86.249 177.4475
1558.794428 86.290 177.4837
1570.090095 86.330 177.5244
1581.467615 86.367 177.5697
1592.927581 86.400 177.6200
1604.470591 86.431 177.6759
1616.097246 86.458 177.7380
1627.808153 86.482 177.8069
1639.603922 86.501 177.8831
1651.485168 86.517 177.9672
1663.452510 86.529 178.0602
1675.506573 86.538 178.1627
1687.647984 86.544 178.2754
1699.877377 86.546 178.3987
1712.195390 86.547 178.5329
1724.602663 86.544 178.6784
1737.099845 86.540 178.8358
1749.687587 86.534 179.0058
1762.366544 86.526 179.1898
1775.137379 86.517 179.3890
1788.000756 86.507 179.6042
1800.957346 86.497 179.8357
1814.007826 86.487 -179.9175
1827.152874 86.478 -179.6574
1840.393177 86.469 -179.3871
1853.729425 86.461 -179.1101
1867.162312 86.453 -178.8300
1880.692540 86.446 -178.5500
1894.320813 86.439 -178.2719
1908.047843 86.432 -177.9968
1921.874344 86.424 -177.7251
1935.801038 86.414 -177.4571
1949.828650 86.404 -177.1932
1963.957912 86.393 -176.9342
1978.189561 86.380 -176.6806
1992.524338 86.366 -176.4329
2006.962991 86.350 -176.1908
2021.506272 86.333 -175.9538
2036.154940 86.314 -175.7210
2050.909758 86.294 -175.4915
2065.771495 86.273 -175.2650
2080.740927 86.253 -175.0421
2095.818833 86.232 -174.8238
2111.006001 86.212 -174.6117
2126.303220 86.192 -174.4080
2141.711290 86.174 -174.2148
2157.231013 86.156 -174.0337
2172.863198 86.139 -173.8659
2188.608660 86.123 -173.7114
2204.468221 86.107 -173.5688
2220.442706 86.091 -173.4359
2236.532950 86.075 -173.3096
2252.739789 86.059 -173.1865
2269.064070 86.043 -173.0633
2285.506644 86.027 -172.9375
2302.068367 86.013 -172.8074
2318.750104 86.001 -172.6725
2335.552723 85.991 -172.5335
2352.477101 85.983 -172.3916
2369.524119 85.979 -172.2491
2386.694668 85.979 -172.1083
2403.989641 85.982 -171.9722
2421.409941 85.990 -171.8436
2438.956476 86.002 -171.7252
2456.630160 86.018 -171.6194
2474.431915 86.038 -171.5280
2492.362668 86.061 -171.4516
2510.423356 86.087 -171.3898
2528.614918 86.116 -171.3403
2546.938304 86.147 -171.2999
2565.394469 86.180 -171.2641
2583.984375 86.215 -171.2288
2602.708991 86.254 -171.1904
2621.569293 86.295 -171.1470
2640.566265 86.341 -171.0983
2659.700897 86.390 -171.0457
2678.974186 86.445 -170.9916
2698.387137 86.504 -170.9390
2717.940763 86.567 -170.8904
2737.636082 86.634 -170.8477
2757.474121 86.705 -170.8120
2777.455915 86.779 -170.7836
2797.582506 86.857 -170.7624
2817.854942 86.937 -170.7489
2838.274281 87.019 -170.7438
2858.841586 87.104 -170.7487
2879.557931 87.190 -170.7651
2900.424394 87.277 -170.7948
2921.442065 87.365 -170.8390
2942.612039 87.452 -170.8984
2963.935418 87.539 -170.9729
2985.413316 87.623 -171.0621
3007.046852 87.704 -171.1649
3028.837153 87.782 -171.2801
3050.785356 87.856 -171.4062
3072.892604 87.926 -171.5419
3095.160050 87.991 -171.6857
3117.588856 88.050 -171.8368
3140.180190 88.104 -171.9946
3162.935230 88.152 -172.1597
3185.855163 88.195 -172.3329
3208.941182 88.231 -172.5157
3232.194493 88.260 -172.7093
3255.616307 88.283 -172.9147
3279.207844 88.298 -173.1322
3302.970336 88.306 -173.3615
3326.905021 88.305 -173.6014
3351.013146 88.297 -173.8505
3375.295969 88.281 -174.1066
3399.754755 88.256 -174.3674
