* Measurement data measured by REW V5.31.3
* Source: EXCL: Headset (USB-C to 3.5mm Headphone Jack Adapter), MICROPHONE (Master Volume), 0, volume: 0.750
* Format: 256k Log Swept Sine, 1 sweep at -12.0 dBFS with no timing reference
* Dated: Apr 1, 2025 10:13:16 PM
* REW Settings:
*  C-weighting compensation: Off
*  Target level: 75.0 dB
* Note: ; 
* Measurement: HD6XX L11
* Smoothing: 1/6 octave
* Frequency Step: 96 ppo
* Start Frequency: 20.0 Hz
*
* Freq(Hz) SPL(dB) Phase(degrees)
20.033247 84.096 -94.7394
20.178416 84.166 -95.1312
20.324637 84.237 -95.5215
20.471918 84.310 -95.9053
20.620266 84.384 -96.2784
20.769689 84.460 -96.6375
20.920195 84.539 -96.9802
21.071791 84.622 -97.3052
21.224486 84.709 -97.6120
21.378287 84.800 -97.9011
21.533203 84.895 -98.1733
21.689242 84.994 -98.4302
21.846411 85.097 -98.6735
22.004719 85.202 -98.9052
22.164174 85.310 -99.1274
22.324785 85.418 -99.3425
22.486559 85.528 -99.5528
22.649506 85.636 -99.7609
22.813634 85.744 -99.9690
22.978951 85.849 -100.1797
23.145466 85.951 -100.3950
23.313188 86.049 -100.6169
23.482124 86.143 -100.8472
23.652286 86.231 -101.0871
23.823680 86.315 -101.3379
23.996316 86.392 -101.6006
24.170203 86.464 -101.8762
24.345351 86.530 -102.1656
24.521767 86.591 -102.4695
24.699462 86.646 -102.7885
24.878444 86.696 -103.1227
25.058724 86.740 -103.4713
25.240310 86.779 -103.8329
25.423211 86.811 -104.2043
25.607438 86.838 -104.5815
25.793000 86.860 -104.9592
25.979907 86.876 -105.3308
26.168168 86.888 -105.6899
26.357794 86.896 -106.0303
26.548793 86.902 -106.3467
26.741176 86.906 -106.6358
26.934954 86.912 -106.8967
27.130136 86.919 -107.1311
27.326732 86.930 -107.3436
27.524753 86.946 -107.5410
27.724208 86.968 -107.7314
27.925110 86.995 -107.9239
28.127466 87.027 -108.1267
28.331290 87.065 -108.3470
28.536590 87.106 -108.5899
28.743378 87.150 -108.8583
28.951664 87.195 -109.1523
29.161460 87.241 -109.4702
29.372776 87.287 -109.8079
29.585623 87.332 -110.1602
29.800013 87.375 -110.5206
30.015956 87.419 -110.8829
30.233464 87.461 -111.2408
30.452548 87.504 -111.5889
30.673220 87.549 -111.9231
30.895490 87.596 -112.2413
31.119372 87.647 -112.5432
31.344876 87.702 -112.8305
31.572014 87.763 -113.1064
31.800797 87.830 -113.3755
32.031239 87.903 -113.6422
32.263351 87.982 -113.9111
32.497144 88.065 -114.1857
32.732632 88.153 -114.4683
32.969826 88.245 -114.7600
33.208739 88.340 -115.0609
33.449383 88.437 -115.3705
33.691771 88.535 -115.6880
33.935916 88.635 -116.0129
34.181829 88.736 -116.3445
34.429525 88.837 -116.6826
34.679015 88.937 -117.0267
34.930314 89.037 -117.3762
35.183433 89.136 -117.7303
35.438387 89.234 -118.0878
35.695188 89.331 -118.4474
35.953850 89.426 -118.8083
36.214387 89.520 -119.1701
36.476811 89.613 -119.5332
36.741137 89.705 -119.8987
37.007378 89.797 -120.2681
37.275549 89.886 -120.6429
37.545663 89.974 -121.0239
37.817734 90.060 -121.4113
38.091777 90.144 -121.8039
38.367806 90.225 -122.1995
38.645835 90.303 -122.5952
38.925879 90.378 -122.9880
39.207952 90.451 -123.3750
39.492069 90.521 -123.7542
39.778244 90.589 -124.1246
40.066494 90.656 -124.4865
40.356832 90.722 -124.8405
40.649275 90.786 -125.1884
40.943836 90.848 -125.5315
41.240532 90.909 -125.8710
41.539378 90.968 -126.2074
41.840389 91.025 -126.5402
42.143582 91.080 -126.8682
42.448972 91.132 -127.1897
42.756574 91.182 -127.5031
43.066406 91.230 -127.8071
43.378483 91.276 -128.1019
43.692822 91.322 -128.3889
44.009438 91.367 -128.6713
44.328348 91.411 -128.9527
44.649570 91.455 -129.2371
44.973119 91.498 -129.5275
45.299013 91.539 -129.8251
45.627268 91.579 -130.1300
45.957902 91.617 -130.4405
46.290932 91.652 -130.7542
46.626375 91.686 -131.0690
46.964249 91.718 -131.3832
47.304571 91.748 -131.6965
47.647360 91.778 -132.0090
47.992632 91.807 -132.3215
48.340407 91.835 -132.6345
48.690701 91.862 -132.9484
49.043534 91.889 -133.2626
49.398924 91.914 -133.5764
49.756889 91.939 -133.8892
50.117447 91.963 -134.2002
50.480619 91.986 -134.5097
50.846423 92.008 -134.8184
51.214877 92.030 -135.1271
51.586001 92.052 -135.4365
51.959814 92.072 -135.7465
52.336336 92.091 -136.0559
52.715587 92.109 -136.3630
53.097586 92.125 -136.6655
53.482353 92.141 -136.9614
53.869908 92.156 -137.2487
54.260272 92.171 -137.5262
54.653464 92.186 -137.7935
55.049506 92.201 -138.0504
55.448417 92.219 -138.2977
55.850219 92.237 -138.5370
56.254933 92.259 -138.7708
56.662579 92.282 -139.0020
57.073180 92.309 -139.2341
57.486755 92.338 -139.4709
57.903328 92.370 -139.7155
58.322919 92.403 -139.9701
58.745551 92.439 -140.2363
59.171246 92.476 -140.5139
59.600025 92.513 -140.8018
60.031911 92.552 -141.0973
60.466927 92.590 -141.3969
60.905096 92.630 -141.6977
61.346439 92.671 -141.9976
61.790981 92.714 -142.2961
62.238744 92.759 -142.5938
62.689751 92.806 -142.8919
63.144027 92.856 -143.1918
63.601595 92.908 -143.4946
64.062478 92.963 -143.8011
64.526701 93.019 -144.1122
64.994288 93.078 -144.4287
65.465264 93.138 -144.7515
65.939652 93.199 -145.0810
66.417478 93.261 -145.4176
66.898766 93.323 -145.7615
67.383542 93.386 -146.1130
67.871831 93.448 -146.4721
68.363659 93.509 -146.8392
68.859050 93.569 -147.2144
69.358031 93.627 -147.5974
69.860628 93.683 -147.9874
70.366867 93.737 -148.3824
70.876774 93.788 -148.7798
71.390376 93.835 -149.1763
71.907700 93.880 -149.5687
72.428773 93.921 -149.9536
72.953622 93.959 -150.3282
73.482274 93.994 -150.6909
74.014757 94.026 -151.0406
74.551098 94.055 -151.3771
75.091326 94.080 -151.7005
75.635469 94.102 -152.0112
76.183555 94.120 -152.3090
76.735612 94.133 -152.5936
77.291670 94.142 -152.8645
77.851757 94.147 -153.1215
78.415903 94.148 -153.3655
78.984137 94.146 -153.5986
79.556489 94.141 -153.8242
80.132988 94.135 -154.0466
80.713665 94.129 -154.2706
81.298549 94.121 -154.5004
81.887672 94.114 -154.7397
82.481064 94.107 -154.9908
83.078756 94.101 -155.2546
83.680778 94.095 -155.5306
84.287164 94.091 -155.8175
84.897943 94.088 -156.1129
85.513149 94.085 -156.4144
86.132812 94.084 -156.7198
86.756966 94.084 -157.0270
87.385643 94.086 -157.3345
88.018875 94.087 -157.6411
88.656696 94.090 -157.9462
89.299139 94.093 -158.2501
89.946238 94.097 -158.5533
90.598025 94.101 -158.8569
91.254536 94.105 -159.1621
91.915804 94.108 -159.4692
92.581864 94.111 -159.7782
93.252750 94.113 -160.0884
93.928498 94.114 -160.3989
94.609143 94.115 -160.7089
95.294719 94.115 -161.0175
95.985264 94.114 -161.3243
96.680813 94.113 -161.6288
97.381402 94.112 -161.9305
98.087068 94.111 -162.2294
98.797847 94.109 -162.5254
99.513777 94.108 -162.8184
100.234895 94.107 -163.1089
100.961238 94.107 -163.3972
101.692845 94.107 -163.6840
102.429753 94.108 -163.9698
103.172002 94.110 -164.2555
103.919628 94.112 -164.5415
104.672673 94.116 -164.8283
105.431174 94.121 -165.1163
106.195172 94.127 -165.4057
106.964706 94.134 -165.6967
107.739816 94.142 -165.9891
108.520543 94.151 -166.2826
109.306928 94.161 -166.5765
110.099011 94.171 -166.8702
110.896834 94.182 -167.1627
111.700438 94.193 -167.4535
112.509866 94.204 -167.7419
113.325158 94.215 -168.0276
114.146359 94.227 -168.3105
114.973511 94.238 -168.5904
115.806656 94.249 -168.8674
116.645839 94.260 -169.1415
117.491103 94.270 -169.4131
118.342492 94.279 -169.6822
119.200050 94.288 -169.9492
120.063823 94.296 -170.2140
120.933855 94.304 -170.4767
121.810191 94.311 -170.7374
122.692878 94.317 -170.9960
123.581962 94.323 -171.2531
124.477487 94.328 -171.5087
125.379503 94.333 -171.7633
126.288054 94.337 -172.0170
127.203189 94.341 -172.2697
128.124956 94.344 -172.5214
129.053402 94.347 -172.7720
129.988577 94.348 -173.0217
130.930527 94.349 -173.2703
131.879304 94.348 -173.5176
132.834956 94.346 -173.7634
133.797533 94.343 -174.0068
134.767085 94.338 -174.2469
135.743663 94.331 -174.4828
136.727317 94.323 -174.7141
137.718100 94.314 -174.9406
138.716062 94.303 -175.1625
139.721255 94.290 -175.3806
140.733733 94.277 -175.5954
141.753548 94.262 -175.8078
142.780753 94.247 -176.0186
143.815401 94.230 -176.2286
144.857546 94.214 -176.4386
145.907244 94.196 -176.6488
146.964548 94.179 -176.8596
148.029514 94.160 -177.0708
149.102197 94.141 -177.2822
150.182652 94.122 -177.4938
151.270938 94.102 -177.7051
152.367109 94.083 -177.9163
153.471224 94.063 -178.1273
154.583340 94.043 -178.3379
155.703515 94.023 -178.5479
156.831807 94.004 -178.7570
157.968274 93.984 -178.9645
159.112978 93.965 -179.1700
160.265976 93.946 -179.3732
161.427329 93.926 -179.5735
162.597098 93.907 -179.7709
163.775344 93.887 -179.9656
164.962128 93.868 179.8420
166.157511 93.849 179.6516
167.361557 93.829 179.4622
168.574328 93.810 179.2734
169.795887 93.791 179.0850
171.026298 93.771 178.8967
172.265625 93.752 178.7089
173.513933 93.734 178.5225
174.771286 93.715 178.3381
176.037751 93.696 178.1565
177.313393 93.677 177.9783
178.598279 93.657 177.8035
179.892476 93.637 177.6320
181.196051 93.616 177.4636
182.509072 93.594 177.2981
183.831608 93.571 177.1355
185.163728 93.548 176.9758
186.505500 93.524 176.8192
187.856996 93.499 176.6656
189.218285 93.473 176.5151
190.589439 93.447 176.3668
191.970529 93.421 176.2201
193.361626 93.393 176.0741
194.762804 93.365 175.9284
196.174136 93.337 175.7831
197.595694 93.308 175.6388
199.027554 93.280 175.4956
200.469790 93.251 175.3540
201.922477 93.224 175.2139
203.385690 93.197 175.0748
204.859507 93.170 174.9365
206.344003 93.144 174.7985
207.839257 93.119 174.6608
209.345346 93.093 174.5239
210.862348 93.068 174.3881
212.390344 93.042 174.2539
213.929412 93.017 174.1218
215.479633 92.992 173.9917
217.041087 92.967 173.8634
218.613856 92.942 173.7365
220.198022 92.919 173.6102
221.793668 92.896 173.4846
223.400876 92.875 173.3601
225.019731 92.855 173.2374
226.650317 92.836 173.1177
228.292718 92.818 173.0017
229.947022 92.802 172.8903
231.613312 92.787 172.7833
233.291678 92.773 172.6807
234.982206 92.761 172.5815
236.684984 92.750 172.4854
238.400101 92.740 172.3914
240.127646 92.732 172.2994
241.867710 92.725 172.2091
243.620383 92.718 172.1202
245.385757 92.713 172.0326
247.163923 92.708 171.9459
248.954975 92.703 171.8602
250.759005 92.699 171.7754
252.576108 92.694 171.6916
254.406379 92.689 171.6089
256.249912 92.684 171.5276
258.106805 92.678 171.4479
259.977153 92.671 171.3703
261.861055 92.663 171.2949
263.758608 92.655 171.2217
265.669911 92.647 171.1505
267.595065 92.638 171.0810
269.534169 92.629 171.0131
271.487325 92.620 170.9469
273.454634 92.612 170.8829
275.436199 92.603 170.8218
277.432123 92.595 170.7639
279.442511 92.587 170.7092
281.467467 92.579 170.6575
283.507096 92.571 170.6083
285.561505 92.564 170.5609
287.630801 92.557 170.5145
289.715093 92.550 170.4686
291.814488 92.544 170.4227
293.929096 92.539 170.3765
296.059027 92.535 170.3302
298.204393 92.532 170.2844
300.365305 92.530 170.2398
302.541876 92.528 170.1973
304.734219 92.528 170.1576
306.942449 92.527 170.1212
309.166680 92.528 170.0880
311.407029 92.528 170.0578
313.663613 92.528 170.0299
315.936549 92.528 170.0038
318.225955 92.527 169.9786
320.531952 92.526 169.9536
322.854659 92.525 169.9281
325.194197 92.524 169.9017
327.550688 92.521 169.8744
329.924255 92.519 169.8466
332.315022 92.516 169.8189
334.723114 92.512 169.7925
337.148655 92.508 169.7683
339.591774 92.502 169.7474
342.052596 92.496 169.7306
344.531250 92.489 169.7186
347.027865 92.481 169.7116
349.542572 92.471 169.7095
352.075502 92.461 169.7114
354.626786 92.449 169.7165
357.196558 92.436 169.7236
359.784951 92.422 169.7321
362.392101 92.408 169.7412
365.018144 92.393 169.7506
367.663216 92.377 169.7603
370.327455 92.361 169.7700
373.011000 92.345 169.7798
375.713992 92.328 169.7900
378.436570 92.312 169.8005
381.178878 92.295 169.8117
383.941057 92.279 169.8234
386.723252 92.262 169.8358
389.525608 92.245 169.8488
392.348271 92.229 169.8625
395.191389 92.211 169.8766
398.055108 92.194 169.8910
400.939580 92.176 169.9050
403.844953 92.158 169.9183
406.771380 92.139 169.9306
409.719013 92.119 169.9418
412.688006 92.097 169.9519
415.678514 92.075 169.9614
418.690692 92.051 169.9705
421.724697 92.027 169.9799
424.780688 92.000 169.9902
427.858824 91.972 170.0021
430.959265 91.943 170.0162
434.082174 91.912 170.0328
437.227712 91.879 170.0525
440.396044 91.845 170.0751
443.587336 91.809 170.1005
446.801752 91.773 170.1285
450.039462 91.735 170.1588
453.300634 91.696 170.1911
456.585437 91.657 170.2255
459.894043 91.618 170.2617
463.226625 91.579 170.2997
466.583356 91.540 170.3397
469.964411 91.502 170.3817
473.369967 91.464 170.4262
476.800201 91.427 170.4734
480.255292 91.390 170.5239
483.735420 91.355 170.5778
487.240766 91.321 170.6350
490.771513 91.288 170.6951
494.327846 91.257 170.7573
497.909949 91.227 170.8205
501.518010 91.199 170.8835
505.152216 91.172 170.9457
508.812758 91.146 171.0065
512.499825 91.122 171.0657
516.213610 91.100 171.1235
519.954306 91.079 171.1799
523.722109 91.060 171.2350
527.517216 91.043 171.2892
531.339823 91.028 171.3427
535.190130 91.014 171.3958
539.068339 91.003 171.4493
542.974650 90.993 171.5038
546.909268 90.986 171.5600
550.872398 90.980 171.6185
554.864247 90.976 171.6801
558.885022 90.974 171.7450
562.934933 90.974 171.8140
567.014192 90.974 171.8876
571.123010 90.976 171.9659
575.261603 90.980 172.0494
579.430186 90.984 172.1382
583.628976 90.988 172.2328
587.858192 90.993 172.3333
592.118055 90.999 172.4398
596.408786 91.005 172.5522
600.730610 91.011 172.6704
605.083752 91.017 172.7934
609.468438 91.024 172.9199
613.884897 91.031 173.0481
618.333360 91.038 173.1757
622.814059 91.045 173.3002
627.327226 91.052 173.4197
631.873098 91.059 173.5325
636.451911 91.065 173.6376
641.063904 91.070 173.7344
645.709317 91.073 173.8236
650.388393 91.076 173.9059
655.101375 91.077 173.9828
659.848510 91.077 174.0555
664.630044 91.075 174.1257
669.446228 91.071 174.1942
674.297311 91.067 174.2619
679.183547 91.061 174.3292
684.105191 91.054 174.3959
689.062499 91.046 174.4617
694.055730 91.037 174.5264
699.085144 91.026 174.5895
704.151003 91.014 174.6510
709.253572 91.000 174.7111
714.393116 90.985 174.7699
719.569903 90.968 174.8280
724.784203 90.949 174.8859
730.036288 90.928 174.9439
735.326432 90.905 175.0029
740.654910 90.880 175.0637
746.022001 90.852 175.1273
751.427984 90.823 175.1949
756.873141 90.792 175.2683
762.357756 90.758 175.3492
767.882114 90.723 175.4396
773.446504 90.686 175.5408
779.051217 90.649 175.6533
784.696543 90.612 175.7767
790.382778 90.575 175.9092
796.110217 90.540 176.0482
801.879160 90.506 176.1904
807.689907 90.474 176.3317
813.542761 90.444 176.4685
819.438027 90.415 176.5970
825.376013 90.389 176.7142
831.357028 90.364 176.8176
837.381383 90.339 176.9055
843.449394 90.316 176.9775
849.561376 90.291 177.0346
855.717648 90.266 177.0794
861.918531 90.239 177.1161
868.164348 90.209 177.1507
874.455424 90.176 177.1902
880.792089 90.140 177.2431
887.174671 90.102 177.3181
893.603505 90.061 177.4239
900.078924 90.019 177.5682
906.601267 89.976 177.7569
913.170874 89.936 177.9926
919.788086 89.900 178.2745
926.453250 89.869 178.5976
933.166712 89.846 178.9536
939.928823 89.832 179.3315
946.739934 89.826 179.7197
953.600402 89.830 -179.8934
960.510584 89.843 -179.5178
967.470839 89.864 -179.1615
974.481532 89.893 -178.8300
981.543027 89.928 -178.5266
988.655692 89.968 -178.2529
995.819899 90.013 -178.0091
1003.036020 90.061 -177.7941
1010.304433 90.113 -177.6062
1017.625515 90.166 -177.4432
1024.999649 90.222 -177.3024
1032.427219 90.279 -177.1808
1039.908612 90.337 -177.0758
1047.444219 90.397 -176.9849
1055.034432 90.457 -176.9064
1062.679646 90.518 -176.8398
1070.380261 90.580 -176.7849
1078.136677 90.643 -176.7418
1085.949300 90.705 -176.7109
1093.818536 90.767 -176.6919
1101.744796 90.829 -176.6843
1109.728493 90.889 -176.6870
1117.770043 90.948 -176.6981
1125.869866 91.005 -176.7158
1134.028383 91.061 -176.7380
1142.246020 91.115 -176.7633
1150.523206 91.168 -176.7905
1158.860371 91.219 -176.8192
1167.257951 91.269 -176.8497
1175.716383 91.318 -176.8825
1184.236109 91.365 -176.9182
1192.817572 91.411 -176.9568
1201.461220 91.456 -176.9980
1210.167503 91.499 -177.0404
1218.936876 91.540 -177.0817
1227.769795 91.580 -177.1197
1236.666721 91.618 -177.1523
1245.628118 91.656 -177.1786
1254.654453 91.694 -177.1980
1263.746196 91.731 -177.2109
1272.903822 91.768 -177.2176
1282.127808 91.805 -177.2186
1291.418634 91.843 -177.2142
1300.776786 91.881 -177.2049
1310.202751 91.919 -177.1910
1319.697020 91.957 -177.1730
1329.260089 91.996 -177.1519
1338.892455 92.035 -177.1284
1348.594622 92.074 -177.1036
1358.367094 92.113 -177.0778
1368.210382 92.153 -177.0510
1378.124999 92.193 -177.0230
1388.111461 92.233 -176.9936
1398.170288 92.275 -176.9628
1408.302007 92.317 -176.9309
1418.507144 92.360 -176.8983
1428.786231 92.404 -176.8649
1439.139805 92.449 -176.8298
1449.568405 92.495 -176.7915
1460.072576 92.541 -176.7482
1470.652863 92.589 -176.6982
1481.309820 92.637 -176.6403
1492.044002 92.686 -176.5739
1502.855968 92.736 -176.4996
1513.746282 92.787 -176.4186
1524.715511 92.838 -176.3323
1535.764228 92.890 -176.2430
1546.893009 92.940 -176.1522
1558.102433 92.989 -176.0614
1569.393086 93.037 -175.9705
1580.765555 93.081 -175.8790
1592.220434 93.123 -175.7854
1603.758320 93.161 -175.6884
1615.379813 93.195 -175.5863
1627.085521 93.226 -175.4780
1638.876054 93.254 -175.3622
1650.752025 93.278 -175.2384
1662.714055 93.298 -175.1061
1674.762766 93.316 -174.9650
1686.898788 93.330 -174.8144
1699.122752 93.342 -174.6536
1711.435296 93.352 -174.4814
1723.837061 93.360 -174.2968
1736.328695 93.367 -174.0992
1748.910849 93.373 -173.8894
1761.584178 93.379 -173.6693
1774.349343 93.385 -173.4415
1787.207010 93.391 -173.2092
1800.157848 93.398 -172.9753
1813.202534 93.405 -172.7424
1826.341747 93.412 -172.5124
1839.576172 93.419 -172.2866
1852.906500 93.425 -172.0655
1866.333424 93.429 -171.8488
1879.857645 93.433 -171.6354
1893.479869 93.434 -171.4243
1907.200804 93.434 -171.2144
1921.021168 93.432 -171.0052
1934.941679 93.428 -170.7971
1948.963064 93.422 -170.5912
1963.086054 93.415 -170.3887
1977.311384 93.405 -170.1899
1991.639798 93.394 -169.9952
2006.072041 93.380 -169.8046
2020.608866 93.365 -169.6187
2035.251031 93.349 -169.4384
2049.999299 93.331 -169.2645
2064.854438 93.311 -169.0974
2079.817225 93.291 -168.9366
2094.888438 93.268 -168.7810
2110.068863 93.245 -168.6293
2125.359292 93.221 -168.4804
2140.760521 93.196 -168.3333
2156.273355 93.172 -168.1872
2171.898600 93.147 -168.0413
2187.637073 93.123 -167.8956
2203.489593 93.099 -167.7506
2219.456987 93.077 -167.6074
2235.540087 93.055 -167.4673
2251.739732 93.035 -167.3306
2268.056766 93.015 -167.1969
2284.492041 92.997 -167.0649
2301.046412 92.979 -166.9330
2317.720742 92.963 -166.7996
2334.515902 92.948 -166.6633
2351.432767 92.934 -166.5237
2368.472218 92.923 -166.3804
2385.635144 92.914 -166.2334
2402.922440 92.908 -166.0829
2420.335006 92.905 -165.9288
2437.873752 92.905 -165.7710
2455.539590 92.909 -165.6096
2473.333442 92.917 -165.4446
2491.256235 92.929 -165.2768
2509.308905 92.946 -165.1069
2527.492392 92.967 -164.9362
2545.807644 92.994 -164.7656
2564.255615 93.025 -164.5959
2582.837268 93.062 -164.4280
2601.553572 93.103 -164.2620
2620.405502 93.149 -164.0977
2639.394040 93.201 -163.9344
2658.520177 93.257 -163.7718
2677.784910 93.318 -163.6093
2697.189244 93.385 -163.4474
2716.734189 93.457 -163.2870
2736.420765 93.534 -163.1296
2756.249998 93.616 -162.9775
2776.222921 93.704 -162.8337
2796.340577 93.796 -162.7017
2816.604013 93.893 -162.5851
2837.014287 93.994 -162.4872
2857.572462 94.098 -162.4106
2878.279610 94.204 -162.3569
2899.136811 94.311 -162.3265
2920.145151 94.418 -162.3193
2941.305727 94.525 -162.3341
2962.619641 94.630 -162.3701
2984.088004 94.734 -162.4261
3005.711935 94.835 -162.5007
3027.492563 94.932 -162.5925
3049.431022 95.025 -162.7003
3071.528457 95.115 -162.8226
3093.786018 95.199 -162.9588
3116.204867 95.278 -163.1082
3138.786172 95.351 -163.2706
3161.531110 95.418 -163.4456
3184.440868 95.479 -163.6334
3207.516639 95.534 -163.8342
3230.759627 95.581 -164.0480
3254.171043 95.621 -164.2749
3277.752108 95.654 -164.5150
3301.504051 95.679 -164.7681
