* Measurement data measured by REW V5.31.3
* Source: EXCL: Headset (USB-C to 3.5mm Headphone Jack Adapter), MICROPHONE (Master Volume), 0, volume: 0.750
* Format: 256k Log Swept Sine, 1 sweep at -12.0 dBFS with no timing reference
* Dated: Apr 7, 2025 12:05:32 PM
* REW Settings:
*  C-weighting compensation: Off
*  Target level: 75.0 dB
* Note: ; 
* Measurement: HD6XX L5
* Smoothing: 1/6 octave
* Frequency Step: 96 ppo
* Start Frequency: 20.0 Hz
*
* Freq(Hz) SPL(dB) Phase(degrees)
20.187378 79.033 -100.6467
20.333664 79.057 -100.7543
20.481010 79.090 -100.8950
20.629424 79.132 -101.0600
20.778913 79.183 -101.2403
20.929486 79.243 -101.4270
21.081150 79.312 -101.6123
21.233912 79.390 -101.7902
21.387782 79.477 -101.9565
21.542767 79.572 -102.1090
21.698874 79.676 -102.2476
21.856113 79.787 -102.3740
22.014492 79.904 -102.4914
22.174018 80.027 -102.6047
22.334700 80.153 -102.7193
22.496546 80.281 -102.8415
22.659566 80.409 -102.9777
22.823766 80.535 -103.1342
22.989157 80.658 -103.3167
23.155745 80.777 -103.5301
23.323542 80.889 -103.7783
23.492554 80.995 -104.0636
23.662790 81.092 -104.3871
23.834261 81.181 -104.7479
24.006973 81.261 -105.1438
24.180938 81.333 -105.5708
24.356163 81.397 -106.0235
24.532658 81.453 -106.4952
24.710431 81.502 -106.9787
24.889493 81.544 -107.4659
25.069853 81.582 -107.9490
25.251519 81.614 -108.4208
25.434502 81.643 -108.8750
25.618811 81.669 -109.3068
25.804456 81.692 -109.7131
25.991445 81.713 -110.0927
26.179790 81.732 -110.4465
26.369500 81.750 -110.7769
26.560584 81.766 -111.0881
26.753053 81.782 -111.3851
26.946917 81.796 -111.6737
27.142185 81.810 -111.9600
27.338869 81.824 -112.2497
27.536977 81.840 -112.5481
27.736522 81.857 -112.8595
27.937512 81.876 -113.1872
28.139959 81.899 -113.5331
28.343872 81.926 -113.8979
28.549264 81.958 -114.2806
28.756143 81.995 -114.6789
28.964522 82.036 -115.0891
29.174411 82.082 -115.5066
29.385821 82.131 -115.9259
29.598763 82.182 -116.3413
29.813248 82.236 -116.7473
30.029287 82.289 -117.1394
30.246891 82.343 -117.5145
30.466073 82.397 -117.8710
30.686842 82.450 -118.2091
30.909212 82.503 -118.5306
31.133193 82.556 -118.8385
31.358797 82.609 -119.1363
31.586035 82.664 -119.4275
31.814921 82.720 -119.7152
32.045465 82.780 -120.0017
32.277680 82.842 -120.2884
32.511577 82.909 -120.5762
32.747169 82.981 -120.8657
32.984469 83.057 -121.1579
33.223488 83.137 -121.4538
33.464239 83.222 -121.7550
33.706735 83.309 -122.0632
33.950987 83.399 -122.3802
34.197010 83.489 -122.7070
34.444816 83.581 -123.0445
34.694417 83.672 -123.3926
34.945827 83.763 -123.7512
35.199059 83.853 -124.1199
35.454126 83.945 -124.4984
35.711041 84.037 -124.8863
35.969818 84.130 -125.2828
36.230470 84.225 -125.6862
36.493011 84.320 -126.0939
36.757455 84.416 -126.5016
37.023814 84.511 -126.9044
37.292104 84.605 -127.2971
37.562338 84.698 -127.6757
37.834530 84.788 -128.0382
38.108695 84.875 -128.3853
38.384846 84.959 -128.7207
38.662999 85.040 -129.0499
38.943167 85.117 -129.3796
39.225365 85.190 -129.7161
39.509608 85.259 -130.0636
39.795911 85.325 -130.4238
40.084289 85.387 -130.7952
40.374756 85.446 -131.1744
40.667328 85.504 -131.5561
40.962020 85.560 -131.9347
41.258848 85.616 -132.3055
41.557827 85.672 -132.6652
41.858972 85.728 -133.0122
42.162299 85.783 -133.3473
42.467824 85.837 -133.6726
42.775564 85.889 -133.9921
43.085533 85.939 -134.3104
43.397749 85.986 -134.6326
43.712227 86.030 -134.9633
44.028983 86.071 -135.3056
44.348036 86.110 -135.6606
44.669400 86.147 -136.0263
44.993093 86.183 -136.3982
45.319131 86.218 -136.7697
45.647532 86.253 -137.1336
45.978313 86.288 -137.4836
46.311491 86.324 -137.8155
46.647083 86.361 -138.1283
46.985107 86.399 -138.4242
47.325581 86.437 -138.7073
47.668521 86.474 -138.9829
48.013947 86.510 -139.2561
48.361876 86.545 -139.5309
48.712326 86.577 -139.8096
49.065315 86.607 -140.0930
49.420863 86.636 -140.3800
49.778987 86.662 -140.6683
50.139706 86.686 -140.9548
50.503039 86.709 -141.2363
50.869005 86.730 -141.5104
51.237623 86.749 -141.7763
51.608912 86.766 -142.0355
51.982891 86.783 -142.2917
52.359580 86.798 -142.5503
52.739000 86.813 -142.8176
53.121168 86.828 -143.0991
53.506106 86.843 -143.3987
53.893833 86.858 -143.7174
54.284370 86.873 -144.0534
54.677737 86.888 -144.4032
55.073955 86.903 -144.7620
55.473043 86.919 -145.1260
55.875024 86.935 -145.4926
56.279917 86.951 -145.8617
56.687745 86.968 -146.2351
57.098527 86.986 -146.6155
57.512287 87.005 -147.0057
57.929045 87.026 -147.4063
58.348822 87.050 -147.8146
58.771642 87.077 -148.2237
59.197525 87.107 -148.6238
59.626495 87.141 -149.0040
60.058573 87.179 -149.3553
60.493782 87.220 -149.6733
60.932145 87.264 -149.9589
61.373685 87.311 -150.2177
61.818424 87.359 -150.4584
62.266386 87.409 -150.6900
62.717593 87.460 -150.9206
63.172071 87.512 -151.1561
63.629842 87.565 -151.4001
64.090930 87.618 -151.6543
64.555359 87.673 -151.9192
65.023154 87.728 -152.1949
65.494339 87.783 -152.4814
65.968938 87.838 -152.7786
66.446976 87.893 -153.0859
66.928478 87.947 -153.4022
67.413469 88.001 -153.7257
67.901975 88.053 -154.0545
68.394021 88.105 -154.3871
68.889632 88.155 -154.7225
69.388835 88.204 -155.0606
69.891655 88.251 -155.4016
70.398118 88.296 -155.7459
70.908252 88.339 -156.0936
71.422083 88.380 -156.4446
71.939636 88.418 -156.7983
72.460941 88.453 -157.1542
72.986023 88.485 -157.5121
73.514909 88.515 -157.8720
74.047629 88.542 -158.2341
74.584208 88.565 -158.5986
75.124676 88.587 -158.9655
75.669061 88.606 -159.3344
76.217390 88.622 -159.7048
76.769692 88.637 -160.0757
77.325997 88.650 -160.4460
77.886333 88.661 -160.8146
78.450730 88.670 -161.1805
79.019216 88.679 -161.5431
79.591822 88.686 -161.9022
80.168577 88.693 -162.2579
80.749512 88.699 -162.6106
81.334656 88.704 -162.9610
81.924040 88.710 -163.3099
82.517696 88.714 -163.6580
83.115653 88.719 -164.0058
83.717943 88.724 -164.3536
84.324598 88.728 -164.7013
84.935649 88.733 -165.0486
85.551128 88.737 -165.3951
86.171066 88.741 -165.7405
86.795497 88.744 -166.0849
87.424453 88.748 -166.4284
88.057967 88.751 -166.7712
88.696071 88.753 -167.1136
89.338800 88.755 -167.4556
89.986185 88.756 -167.7972
90.638262 88.757 -168.1384
91.295065 88.758 -168.4793
91.956626 88.758 -168.8200
92.622982 88.757 -169.1609
93.294166 88.756 -169.5018
93.970214 88.755 -169.8425
94.651161 88.754 -170.1828
95.337042 88.752 -170.5222
96.027894 88.750 -170.8606
96.723752 88.749 -171.1980
97.424652 88.748 -171.5344
98.130631 88.746 -171.8704
98.841726 88.745 -172.2066
99.557974 88.743 -172.5436
100.279412 88.741 -172.8822
101.006078 88.740 -173.2227
101.738010 88.738 -173.5653
102.475245 88.737 -173.9094
103.217823 88.737 -174.2539
103.965782 88.737 -174.5976
104.719161 88.739 -174.9385
105.477999 88.742 -175.2748
106.242336 88.747 -175.6051
107.012212 88.753 -175.9283
107.787666 88.761 -176.2445
108.568740 88.770 -176.5544
109.355474 88.778 -176.8598
110.147909 88.788 -177.1629
110.946086 88.797 -177.4659
111.750047 88.806 -177.7707
112.559834 88.815 -178.0785
113.375489 88.824 -178.3896
114.197055 88.833 -178.7038
115.024574 88.842 -179.0201
115.858089 88.852 -179.3374
116.697645 88.862 -179.6542
117.543284 88.872 -179.9690
118.395051 88.883 179.7192
119.252990 88.894 179.4111
120.117147 88.904 179.1066
120.987565 88.915 178.8050
121.864291 88.925 178.5055
122.747370 88.934 178.2074
123.636848 88.943 177.9103
124.532771 88.950 177.6140
125.435187 88.957 177.3185
126.344142 88.962 177.0240
127.259684 88.967 176.7306
128.181860 88.970 176.4384
129.110718 88.972 176.1476
130.046308 88.973 175.8585
130.988677 88.973 175.5709
131.937875 88.971 175.2850
132.893951 88.967 175.0006
133.856956 88.963 174.7175
134.826938 88.957 174.4354
135.803950 88.949 174.1543
136.788041 88.941 173.8741
137.779264 88.932 173.5949
138.777669 88.922 173.3166
139.783309 88.911 173.0392
140.796237 88.899 172.7625
141.816504 88.886 172.4866
142.844165 88.873 172.2117
143.879273 88.859 171.9377
144.921881 88.844 171.6648
145.972045 88.828 171.3932
147.029819 88.812 171.1230
148.095257 88.796 170.8542
149.168417 88.778 170.5871
150.249353 88.761 170.3216
151.338121 88.743 170.0576
152.434780 88.724 169.7951
153.539385 88.705 169.5337
154.651995 88.687 169.2731
155.772667 88.668 169.0130
156.901460 88.649 168.7534
158.038432 88.629 168.4943
159.183644 88.610 168.2359
160.337154 88.591 167.9785
161.499023 88.571 167.7225
162.669312 88.552 167.4680
163.848081 88.533 167.2152
165.035392 88.514 166.9639
166.231306 88.496 166.7139
167.435887 88.478 166.4650
168.649196 88.461 166.2170
169.871298 88.444 165.9697
171.102255 88.427 165.7229
172.342133 88.409 165.4767
173.590995 88.392 165.2312
174.848907 88.374 164.9865
176.115934 88.355 164.7427
177.392143 88.336 164.5001
178.677599 88.315 164.2593
179.972371 88.294 164.0207
181.276525 88.272 163.7846
182.590129 88.249 163.5510
183.913252 88.226 163.3194
185.245964 88.202 163.0894
186.588332 88.178 162.8603
187.940428 88.153 162.6318
189.302322 88.129 162.4037
190.674085 88.104 162.1760
192.055788 88.079 161.9489
193.447503 88.054 161.7227
194.849303 88.029 161.4978
196.261262 88.004 161.2748
197.683452 87.978 161.0540
199.115948 87.953 160.8362
200.558824 87.927 160.6224
202.012156 87.902 160.4138
203.476019 87.875 160.2110
204.950490 87.849 160.0141
206.435646 87.823 159.8221
207.931564 87.797 159.6338
209.438322 87.771 159.4478
210.955998 87.746 159.2632
212.484672 87.721 159.0793
214.024424 87.696 158.8957
215.575333 87.672 158.7122
217.137481 87.649 158.5289
218.710948 87.626 158.3463
220.295818 87.604 158.1652
221.892172 87.583 157.9866
223.500094 87.563 157.8120
225.119668 87.543 157.6425
226.750978 87.525 157.4788
228.394109 87.508 157.3208
230.049147 87.492 157.1670
231.716178 87.477 157.0154
233.395289 87.463 156.8639
235.086567 87.450 156.7106
236.790102 87.438 156.5547
238.505980 87.428 156.3961
240.234293 87.419 156.2349
241.975130 87.411 156.0716
243.728581 87.405 155.9062
245.494739 87.399 155.7388
247.273695 87.394 155.5695
249.065542 87.390 155.3987
250.870374 87.385 155.2267
252.688284 87.381 155.0543
254.519367 87.375 154.8821
256.363720 87.369 154.7105
258.221437 87.362 154.5398
260.092616 87.355 154.3702
261.977354 87.347 154.2025
263.875750 87.339 154.0374
265.787903 87.331 153.8760
267.713911 87.323 153.7195
269.653877 87.316 153.5681
271.607900 87.310 153.4216
273.576083 87.305 153.2792
275.558528 87.300 153.1402
277.555338 87.297 153.0039
279.566619 87.293 152.8700
281.592474 87.290 152.7386
283.633009 87.288 152.6097
285.688331 87.286 152.4836
287.758546 87.285 152.3607
289.843763 87.284 152.2410
291.944090 87.285 152.1243
294.059638 87.286 152.0099
296.190515 87.287 151.8969
298.336833 87.289 151.7841
300.498705 87.291 151.6708
302.676243 87.293 151.5564
304.869559 87.295 151.4410
307.078770 87.296 151.3250
309.303989 87.298 151.2090
311.545334 87.299 151.0934
313.802919 87.301 150.9786
316.076865 87.303 150.8644
318.367288 87.305 150.7511
320.674309 87.307 150.6386
322.998047 87.309 150.5271
325.338624 87.311 150.4167
327.696162 87.313 150.3075
330.070783 87.315 150.1994
332.462612 87.316 150.0925
334.871773 87.316 149.9863
337.298392 87.316 149.8807
339.742595 87.315 149.7749
342.204510 87.314 149.6685
344.684265 87.311 149.5612
347.181989 87.308 149.4531
349.697813 87.304 149.3443
352.231868 87.298 149.2349
354.784285 87.291 149.1250
357.355198 87.283 149.0148
359.944741 87.273 148.9047
362.553049 87.262 148.7951
365.180258 87.250 148.6868
367.826505 87.237 148.5806
370.491927 87.223 148.4770
373.176665 87.208 148.3763
375.880856 87.192 148.2784
378.604644 87.176 148.1833
381.348169 87.160 148.0902
384.111575 87.144 147.9988
386.895006 87.127 147.9089
389.698607 87.110 147.8203
392.522524 87.094 147.7328
395.366904 87.077 147.6464
398.231895 87.061 147.5604
401.117648 87.044 147.4744
404.024312 87.028 147.3876
406.952038 87.012 147.2998
409.900981 86.996 147.2110
412.871292 86.979 147.1215
415.863128 86.961 147.0317
418.876643 86.943 146.9418
421.911996 86.923 146.8520
424.969344 86.902 146.7625
428.048847 86.880 146.6731
431.150666 86.856 146.5840
434.274961 86.830 146.4951
437.421897 86.803 146.4067
440.591636 86.774 146.3192
443.784345 86.744 146.2328
447.000189 86.712 146.1480
450.239337 86.679 146.0654
453.501956 86.645 145.9851
456.788219 86.609 145.9074
460.098294 86.573 145.8319
463.432356 86.537 145.7584
466.790578 86.501 145.6862
470.173135 86.466 145.6154
473.580203 86.431 145.5459
477.011961 86.397 145.4780
480.468586 86.365 145.4119
483.950259 86.334 145.3479
487.457163 86.305 145.2860
490.989478 86.277 145.2262
494.547390 86.250 145.1682
498.131084 86.226 145.1114
501.740748 86.202 145.0553
505.376568 86.181 144.9991
509.038735 86.161 144.9421
512.727439 86.142 144.8836
516.442874 86.126 144.8232
520.185232 86.110 144.7607
523.954708 86.097 144.6956
527.751500 86.086 144.6280
531.575805 86.076 144.5574
535.427822 86.069 144.4839
539.307753 86.064 144.4073
543.215800 86.061 144.3279
547.152165 86.061 144.2463
551.117055 86.062 144.1631
555.110677 86.065 144.0795
559.133237 86.069 143.9961
563.184947 86.074 143.9135
567.266018 86.081 143.8321
571.376661 86.088 143.7522
575.517092 86.096 143.6743
579.687526 86.104 143.5992
583.888181 86.112 143.5278
588.119275 86.120 143.4611
592.381030 86.128 143.4003
596.673667 86.135 143.3459
600.997410 86.143 143.2982
605.352485 86.150 143.2567
609.739119 86.157 143.2204
614.157540 86.164 143.1879
618.607979 86.172 143.1573
623.090667 86.179 143.1267
627.605839 86.185 143.0944
632.153730 86.192 143.0590
636.734576 86.197 143.0192
641.348617 86.202 142.9748
645.996094 86.206 142.9258
650.677248 86.208 142.8728
655.392323 86.209 142.8167
660.141566 86.208 142.7583
664.925224 86.206 142.6986
669.743546 86.203 142.6383
674.596784 86.199 142.5779
679.485191 86.194 142.5175
684.409020 86.188 142.4571
689.368530 86.181 142.3965
694.363979 86.173 142.3357
699.395626 86.165 142.2745
704.463736 86.156 142.2130
709.568570 86.147 142.1513
714.710396 86.136 142.0898
719.889483 86.124 142.0285
725.106099 86.111 141.9672
730.360516 86.096 141.9053
735.653010 86.080 141.8427
740.983855 86.063 141.7785
746.353329 86.045 141.7127
751.761713 86.026 141.6449
757.209288 86.006 141.5752
762.696339 85.984 141.5036
768.223151 85.962 141.4303
773.790013 85.939 141.3555
779.397214 85.915 141.2791
785.045047 85.890 141.2011
790.733808 85.866 141.1211
796.463791 85.841 141.0383
802.235296 85.815 140.9517
808.048623 85.790 140.8602
813.904077 85.765 140.7625
819.801961 85.740 140.6574
825.742584 85.715 140.5438
831.726255 85.690 140.4210
837.753287 85.664 140.2888
843.823992 85.638 140.1477
849.938689 85.610 139.9995
856.097695 85.580 139.8470
862.301332 85.548 139.6942
868.549922 85.514 139.5464
874.843793 85.478 139.4094
881.183272 85.439 139.2893
887.568689 85.399 139.1923
894.000378 85.357 139.1237
900.478673 85.316 139.0875
907.003913 85.276 139.0862
913.576437 85.238 139.1201
920.196588 85.204 139.1873
926.864712 85.176 139.2836
933.581156 85.153 139.4030
940.346270 85.137 139.5384
947.160407 85.128 139.6820
954.023921 85.126 139.8264
960.937172 85.131 139.9649
967.900519 85.143 140.0927
974.914325 85.161 140.2059
981.978956 85.184 140.3025
989.094780 85.211 140.3816
996.262169 85.243 140.4428
1003.481495 85.279 140.4865
1010.753136 85.318 140.5129
1018.077470 85.360 140.5227
1025.454879 85.404 140.5165
1032.885748 85.451 140.4954
1040.370463 85.499 140.4606
1047.909417 85.549 140.4135
1055.503000 85.599 140.3559
1063.151610 85.651 140.2898
1070.855645 85.703 140.2173
1078.615506 85.756 140.1402
1086.431599 85.810 140.0596
1094.304330 85.864 139.9760
1102.234110 85.919 139.8889
1110.221353 85.975 139.7977
1118.266475 86.030 139.7014
1126.369895 86.086 139.5990
1134.532035 86.141 139.4902
1142.753322 86.196 139.3747
1151.034184 86.251 139.2529
1159.375052 86.304 139.1250
1167.776361 86.357 138.9918
1176.238550 86.409 138.8535
1184.762060 86.460 138.7102
1193.347334 86.510 138.5623
1201.994821 86.560 138.4099
1210.704971 86.608 138.2534
1219.478238 86.656 138.0936
1228.315080 86.702 137.9316
1237.215957 86.748 137.7687
1246.181334 86.793 137.6064
1255.211678 86.837 137.4462
1264.307459 86.881 137.2889
1273.469152 86.924 137.1353
1282.697235 86.967 136.9853
1291.992188 87.010 136.8386
1301.354495 87.053 136.6944
1310.784647 87.096 136.5517
1320.283132 87.140 136.4092
1329.850448 87.184 136.2656
1339.487093 87.228 136.1199
1349.193569 87.272 135.9712
1358.970381 87.316 135.8189
1368.818041 87.359 135.6631
1378.737061 87.402 135.5047
1388.727958 87.445 135.3450
1398.791253 87.488 135.1857
1408.927471 87.530 135.0283
1419.137140 87.573 134.8744
1429.420793 87.616 134.7252
1439.778965 87.659 134.5823
1450.212197 87.702 134.4475
1460.721033 87.746 134.3229
1471.306019 87.791 134.2107
1481.967709 87.836 134.1126
1492.706658 87.882 134.0300
1503.523426 87.930 133.9633
1514.418576 87.978 133.9117
1525.392678 88.028 133.8733
1536.446302 88.079 133.8452
1547.580025 88.131 133.8235
1558.794428 88.184 133.8039
1570.090095 88.236 133.7828
1581.467615 88.288 133.7572
1592.927581 88.338 133.7253
1604.470591 88.385 133.6863
1616.097246 88.429 133.6402
1627.808153 88.470 133.5877
1639.603922 88.506 133.5304
1651.485168 88.538 133.4708
1663.452510 88.565 133.4118
1675.506573 88.587 133.3571
1687.647984 88.606 133.3103
1699.877377 88.620 133.2747
1712.195390 88.630 133.2532
1724.602663 88.639 133.2484
1737.099845 88.645 133.2614
1749.687587 88.650 133.2922
1762.366544 88.656 133.3390
1775.137379 88.662 133.3982
1788.000756 88.670 133.4647
1800.957346 88.679 133.5323
1814.007826 88.689 133.5956
1827.152874 88.699 133.6500
1840.393177 88.709 133.6927
1853.729425 88.718 133.7228
1867.162312 88.726 133.7412
1880.692540 88.730 133.7501
1894.320813 88.731 133.7529
1908.047843 88.729 133.7537
1921.874344 88.723 133.7571
1935.801038 88.713 133.7670
1949.828650 88.700 133.7859
1963.957912 88.684 133.8145
1978.189561 88.667 133.8515
1992.524338 88.648 133.8945
2006.962991 88.628 133.9407
2021.506272 88.607 133.9878
2036.154940 88.585 134.0337
2050.909758 88.562 134.0767
2065.771495 88.539 134.1155
2080.740927 88.514 134.1489
2095.818833 88.490 134.1767
2111.006001 88.464 134.1995
2126.303220 88.439 134.2188
2141.711290 88.412 134.2363
2157.231013 88.386 134.2535
2172.863198 88.361 134.2708
2188.608660 88.337 134.2874
2204.468221 88.314 134.3019
2220.442706 88.293 134.3123
2236.532950 88.273 134.3167
2252.739789 88.256 134.3132
2269.064070 88.241 134.3000
2285.506644 88.226 134.2765
2302.068367 88.213 134.2429
2318.750104 88.201 134.2008
2335.552723 88.190 134.1528
2352.477101 88.179 134.1015
2369.524119 88.169 134.0496
2386.694668 88.161 133.9990
2403.989641 88.154 133.9512
2421.409941 88.150 133.9064
2438.956476 88.148 133.8640
2456.630160 88.150 133.8221
2474.431915 88.155 133.7786
2492.362668 88.164 133.7313
2510.423356 88.176 133.6788
2528.614918 88.192 133.6204
2546.938304 88.211 133.5563
2565.394469 88.233 133.4874
2583.984375 88.258 133.4150
2602.708991 88.285 133.3409
2621.569293 88.316 133.2662
2640.566265 88.348 133.1923
2659.700897 88.384 133.1202
2678.974186 88.422 133.0507
2698.387137 88.464 132.9849
2717.940763 88.507 132.9234
2737.636082 88.554 132.8670
2757.474121 88.604 132.8159
2777.455915 88.656 132.7696
2797.582506 88.712 132.7268
2817.854942 88.771 132.6853
2838.274281 88.832 132.6425
2858.841586 88.896 132.5955
2879.557931 88.962 132.5421
2900.424394 89.029 132.4802
2921.442065 89.097 132.4086
2942.612039 89.164 132.3263
2963.935418 89.229 132.2333
2985.413316 89.293 132.1306
3007.046852 89.354 132.0197
3028.837153 89.410 131.9030
3050.785356 89.463 131.7826
3072.892604 89.511 131.6608
3095.160050 89.554 131.5389
3117.588856 89.592 131.4175
3140.180190 89.625 131.2962
3162.935230 89.652 131.1740
3185.855163 89.672 131.0496
3208.941182 89.686 130.9226
3232.194493 89.693 130.7933
3255.616307 89.693 130.6630
3279.207844 89.684 130.5338
3302.970336 89.668 130.4081
3326.905021 89.643 130.2885
3351.013146 89.612 130.1764
3375.295969 89.573 130.0727
3399.754755 89.527 129.9772
3424.390779 89.476 129.8894
3449.205326 89.418 129.8088
3474.199690 89.355 129.7356
3499.375173 89.286 129.6710
