* Measurement data measured by REW V5.31.3
* Source: EXCL: Headset (USB-C to 3.5mm Headphone Jack Adapter), MICROPHONE (Master Volume), 0, volume: 0.750
* Format: 256k Log Swept Sine, 1 sweep at -12.0 dBFS with no timing reference
* Dated: Apr 7, 2025 12:25:50 PM
* REW Settings:
*  C-weighting compensation: Off
*  Target level: 75.0 dB
* Note: ; 
* Measurement: HD6XX (Forward) R4
* Smoothing: 1/6 octave
* Frequency Step: 96 ppo
* Start Frequency: 20.0 Hz
*
* Freq(Hz) SPL(dB) Phase(degrees)
20.187378 78.244 -97.1254
20.333664 78.281 -97.1729
20.481010 78.331 -97.2361
20.629424 78.394 -97.3130
20.778913 78.467 -97.4018
20.929486 78.549 -97.5018
21.081150 78.641 -97.6131
21.233912 78.739 -97.7374
21.387782 78.843 -97.8777
21.542767 78.951 -98.0382
21.698874 79.062 -98.2237
21.856113 79.173 -98.4397
22.014492 79.283 -98.6910
22.174018 79.390 -98.9815
22.334700 79.492 -99.3133
22.496546 79.586 -99.6862
22.659566 79.672 -100.0977
22.823766 79.747 -100.5422
22.989157 79.812 -101.0117
23.155745 79.865 -101.4961
23.323542 79.907 -101.9841
23.492554 79.940 -102.4638
23.662790 79.965 -102.9243
23.834261 79.985 -103.3567
24.006973 80.003 -103.7551
24.180938 80.022 -104.1177
24.356163 80.045 -104.4468
24.532658 80.074 -104.7490
24.710431 80.111 -105.0337
24.889493 80.158 -105.3124
25.069853 80.212 -105.5963
25.251519 80.273 -105.8948
25.434502 80.339 -106.2140
25.618811 80.407 -106.5558
25.804456 80.473 -106.9174
25.991445 80.537 -107.2925
26.179790 80.595 -107.6714
26.369500 80.645 -108.0435
26.560584 80.688 -108.3979
26.753053 80.724 -108.7259
26.946917 80.753 -109.0216
27.142185 80.776 -109.2831
27.338869 80.795 -109.5126
27.536977 80.812 -109.7163
27.736522 80.827 -109.9031
27.937512 80.843 -110.0835
28.139959 80.859 -110.2682
28.343872 80.876 -110.4666
28.549264 80.895 -110.6861
28.756143 80.916 -110.9312
28.964522 80.939 -111.2040
29.174411 80.964 -111.5044
29.385821 80.994 -111.8307
29.598763 81.027 -112.1809
29.813248 81.066 -112.5526
30.029287 81.111 -112.9434
30.246891 81.162 -113.3512
30.466073 81.218 -113.7735
30.686842 81.280 -114.2071
30.909212 81.346 -114.6482
31.133193 81.416 -115.0920
31.358797 81.489 -115.5333
31.586035 81.564 -115.9669
31.814921 81.640 -116.3887
32.045465 81.717 -116.7957
32.277680 81.795 -117.1869
32.511577 81.874 -117.5631
32.747169 81.954 -117.9267
32.984469 82.036 -118.2811
33.223488 82.119 -118.6303
33.464239 82.205 -118.9777
33.706735 82.293 -119.3263
33.950987 82.384 -119.6779
34.197010 82.479 -120.0336
34.444816 82.576 -120.3935
34.694417 82.677 -120.7572
34.945827 82.781 -121.1242
35.199059 82.887 -121.4934
35.454126 82.994 -121.8639
35.711041 83.102 -122.2344
35.969818 83.210 -122.6039
36.230470 83.315 -122.9712
36.493011 83.417 -123.3356
36.757455 83.516 -123.6966
37.023814 83.610 -124.0542
37.292104 83.698 -124.4085
37.562338 83.781 -124.7600
37.834530 83.859 -125.1093
38.108695 83.931 -125.4568
38.384846 83.998 -125.8029
38.662999 84.060 -126.1476
38.943167 84.117 -126.4905
39.225365 84.171 -126.8313
39.509608 84.222 -127.1691
39.795911 84.271 -127.5033
40.084289 84.319 -127.8337
40.374756 84.367 -128.1606
40.667328 84.415 -128.4854
40.962020 84.464 -128.8107
41.258848 84.516 -129.1398
41.557827 84.569 -129.4757
41.858972 84.623 -129.8212
42.162299 84.678 -130.1774
42.467824 84.732 -130.5438
42.775564 84.783 -130.9184
43.085533 84.830 -131.2985
43.397749 84.873 -131.6810
43.712227 84.910 -132.0636
44.028983 84.942 -132.4442
44.348036 84.968 -132.8215
44.669400 84.990 -133.1936
44.993093 85.009 -133.5583
45.319131 85.025 -133.9128
45.647532 85.041 -134.2536
45.978313 85.057 -134.5770
46.311491 85.076 -134.8796
46.647083 85.096 -135.1584
46.985107 85.119 -135.4113
47.325581 85.144 -135.6373
47.668521 85.172 -135.8371
48.013947 85.202 -136.0132
48.361876 85.234 -136.1705
48.712326 85.268 -136.3154
49.065315 85.305 -136.4546
49.420863 85.344 -136.5942
49.778987 85.385 -136.7376
50.139706 85.427 -136.8856
50.503039 85.469 -137.0364
50.869005 85.512 -137.1869
51.237623 85.553 -137.3348
51.608912 85.591 -137.4798
51.982891 85.628 -137.6240
52.359580 85.661 -137.7718
52.739000 85.692 -137.9286
53.121168 85.719 -138.0996
53.506106 85.744 -138.2882
53.893833 85.767 -138.4959
54.284370 85.788 -138.7220
54.677737 85.809 -138.9641
55.073955 85.829 -139.2184
55.473043 85.850 -139.4804
55.875024 85.871 -139.7454
56.279917 85.892 -140.0084
56.687745 85.914 -140.2655
57.098527 85.936 -140.5145
57.512287 85.959 -140.7557
57.929045 85.983 -140.9929
58.348822 86.009 -141.2332
58.771642 86.037 -141.4869
59.197525 86.069 -141.7657
59.626495 86.104 -142.0805
60.058573 86.143 -142.4385
60.493782 86.186 -142.8405
60.932145 86.231 -143.2805
61.373685 86.279 -143.7468
61.818424 86.328 -144.2256
62.266386 86.379 -144.7034
62.717593 86.430 -145.1703
63.172071 86.483 -145.6204
63.629842 86.536 -146.0511
64.090930 86.589 -146.4624
64.555359 86.643 -146.8556
65.023154 86.696 -147.2329
65.494339 86.749 -147.5975
65.968938 86.801 -147.9529
66.446976 86.854 -148.3029
66.928478 86.906 -148.6508
67.413469 86.957 -148.9990
67.901975 87.009 -149.3483
68.394021 87.059 -149.6982
68.889632 87.109 -150.0476
69.388835 87.157 -150.3950
69.891655 87.204 -150.7395
70.398118 87.248 -151.0810
70.908252 87.290 -151.4198
71.422083 87.330 -151.7565
71.939636 87.366 -152.0919
72.460941 87.400 -152.4270
72.986023 87.432 -152.7622
73.514909 87.461 -153.0983
74.047629 87.487 -153.4354
74.584208 87.510 -153.7735
75.124676 87.531 -154.1125
75.669061 87.549 -154.4520
76.217390 87.565 -154.7915
76.769692 87.578 -155.1307
77.325997 87.589 -155.4689
77.886333 87.598 -155.8060
78.450730 87.606 -156.1419
79.019216 87.612 -156.4765
79.591822 87.618 -156.8094
80.168577 87.623 -157.1406
80.749512 87.627 -157.4697
81.334656 87.630 -157.7964
81.924040 87.633 -158.1209
82.517696 87.635 -158.4435
83.115653 87.636 -158.7643
83.717943 87.638 -159.0836
84.324598 87.639 -159.4013
84.935649 87.640 -159.7179
85.551128 87.641 -160.0339
86.171066 87.642 -160.3499
86.795497 87.642 -160.6668
87.424453 87.642 -160.9851
88.057967 87.641 -161.3050
88.696071 87.640 -161.6264
89.338800 87.638 -161.9493
89.986185 87.637 -162.2730
90.638262 87.634 -162.5971
91.295065 87.632 -162.9209
91.956626 87.629 -163.2439
92.622982 87.626 -163.5656
93.294166 87.623 -163.8854
93.970214 87.619 -164.2030
94.651161 87.615 -164.5185
95.337042 87.611 -164.8322
96.027894 87.606 -165.1445
96.723752 87.602 -165.4563
97.424652 87.598 -165.7682
98.130631 87.593 -166.0811
98.841726 87.589 -166.3960
99.557974 87.585 -166.7135
100.279412 87.581 -167.0339
101.006078 87.578 -167.3571
101.738010 87.575 -167.6819
102.475245 87.573 -168.0069
103.217823 87.570 -168.3297
103.965782 87.568 -168.6480
104.719161 87.567 -168.9597
105.477999 87.565 -169.2633
106.242336 87.564 -169.5581
107.012212 87.563 -169.8446
107.787666 87.563 -170.1243
108.568740 87.563 -170.3989
109.355474 87.564 -170.6700
110.147909 87.567 -170.9388
110.946086 87.570 -171.2057
111.750047 87.575 -171.4710
112.559834 87.581 -171.7347
113.375489 87.588 -171.9967
114.197055 87.596 -172.2565
115.024574 87.604 -172.5136
115.858089 87.613 -172.7675
116.697645 87.621 -173.0177
117.543284 87.629 -173.2641
118.395051 87.636 -173.5074
119.252990 87.643 -173.7482
120.117147 87.649 -173.9876
120.987565 87.654 -174.2267
121.864291 87.659 -174.4664
122.747370 87.662 -174.7073
123.636848 87.664 -174.9496
124.532771 87.665 -175.1929
125.435187 87.666 -175.4367
126.344142 87.665 -175.6805
127.259684 87.664 -175.9236
128.181860 87.662 -176.1658
129.110718 87.659 -176.4068
130.046308 87.656 -176.6462
130.988677 87.652 -176.8838
131.937875 87.648 -177.1192
132.893951 87.643 -177.3523
133.856956 87.638 -177.5830
134.826938 87.631 -177.8116
135.803950 87.623 -178.0383
136.788041 87.615 -178.2637
137.779264 87.605 -178.4879
138.777669 87.594 -178.7113
139.783309 87.581 -178.9342
140.796237 87.568 -179.1567
141.816504 87.552 -179.3790
142.844165 87.536 -179.6013
143.879273 87.519 -179.8234
144.921881 87.500 179.9547
145.972045 87.481 179.7336
147.029819 87.461 179.5136
148.095257 87.440 179.2954
149.168417 87.419 179.0796
150.249353 87.398 178.8662
151.338121 87.376 178.6552
152.434780 87.354 178.4464
153.539385 87.332 178.2394
154.651995 87.310 178.0347
155.772667 87.288 177.8323
156.901460 87.266 177.6330
158.038432 87.244 177.4370
159.183644 87.222 177.2445
160.337154 87.200 177.0551
161.499023 87.179 176.8680
162.669312 87.158 176.6826
163.848081 87.137 176.4982
165.035392 87.117 176.3143
166.231306 87.097 176.1306
167.435887 87.076 175.9469
168.649196 87.056 175.7631
169.871298 87.037 175.5793
171.102255 87.017 175.3955
172.342133 86.998 175.2122
173.590995 86.978 175.0297
174.848907 86.959 174.8485
176.115934 86.940 174.6691
177.392143 86.921 174.4921
178.677599 86.901 174.3178
179.972371 86.882 174.1461
181.276525 86.862 173.9766
182.590129 86.842 173.8087
183.913252 86.821 173.6414
185.245964 86.801 173.4742
186.588332 86.780 173.3069
187.940428 86.759 173.1395
189.302322 86.737 172.9724
190.674085 86.715 172.8059
192.055788 86.693 172.6403
193.447503 86.670 172.4754
194.849303 86.646 172.3107
196.261262 86.621 172.1457
197.683452 86.595 171.9799
199.115948 86.567 171.8127
200.558824 86.539 171.6438
202.012156 86.509 171.4730
203.476019 86.478 171.3004
204.950490 86.446 171.1268
206.435646 86.415 170.9536
207.931564 86.382 170.7824
209.438322 86.350 170.6151
210.955998 86.318 170.4529
212.484672 86.287 170.2967
214.024424 86.256 170.1466
215.575333 86.226 170.0023
217.137481 86.198 169.8631
218.710948 86.170 169.7285
220.295818 86.145 169.5977
221.892172 86.120 169.4704
223.500094 86.098 169.3464
225.119668 86.077 169.2258
226.750978 86.058 169.1081
228.394109 86.040 168.9931
230.049147 86.023 168.8801
231.716178 86.008 168.7690
233.395289 85.994 168.6599
235.086567 85.981 168.5530
236.790102 85.969 168.4491
238.505980 85.958 168.3488
240.234293 85.948 168.2524
241.975130 85.939 168.1599
243.728581 85.931 168.0703
245.494739 85.924 167.9824
247.273695 85.917 167.8948
249.065542 85.911 167.8060
250.870374 85.904 167.7152
252.688284 85.898 167.6221
254.519367 85.891 167.5272
256.363720 85.884 167.4312
258.221437 85.877 167.3353
260.092616 85.869 167.2404
261.977354 85.861 167.1467
263.875750 85.853 167.0540
265.787903 85.844 166.9618
267.713911 85.834 166.8698
269.653877 85.824 166.7782
271.607900 85.814 166.6878
273.576083 85.803 166.5997
275.558528 85.793 166.5149
277.555338 85.783 166.4335
279.566619 85.773 166.3552
281.592474 85.765 166.2794
283.633009 85.758 166.2053
285.688331 85.751 166.1328
287.758546 85.745 166.0619
289.843763 85.740 165.9928
291.944090 85.734 165.9258
294.059638 85.729 165.8607
296.190515 85.724 165.7978
298.336833 85.719 165.7371
300.498705 85.714 165.6793
302.676243 85.709 165.6245
304.869559 85.704 165.5732
307.078770 85.698 165.5251
309.303989 85.693 165.4798
311.545334 85.687 165.4366
313.802919 85.681 165.3946
316.076865 85.675 165.3531
318.367288 85.670 165.3119
320.674309 85.664 165.2707
322.998047 85.657 165.2297
325.338624 85.651 165.1891
327.696162 85.644 165.1495
330.070783 85.636 165.1114
332.462612 85.628 165.0756
334.871773 85.619 165.0424
337.298392 85.609 165.0124
339.742595 85.597 164.9856
342.204510 85.586 164.9619
344.684265 85.573 164.9411
347.181989 85.559 164.9226
349.697813 85.545 164.9060
352.231868 85.531 164.8913
354.784285 85.516 164.8785
357.355198 85.501 164.8683
359.944741 85.485 164.8613
362.553049 85.468 164.8578
365.180258 85.451 164.8582
367.826505 85.434 164.8620
370.491927 85.416 164.8686
373.176665 85.397 164.8777
375.880856 85.378 164.8890
378.604644 85.359 164.9028
381.348169 85.339 164.9190
384.111575 85.318 164.9376
386.895006 85.298 164.9579
389.698607 85.276 164.9791
392.522524 85.255 165.0003
395.366904 85.233 165.0212
398.231895 85.210 165.0418
401.117648 85.187 165.0625
404.024312 85.163 165.0844
406.952038 85.138 165.1086
409.900981 85.113 165.1360
412.871292 85.088 165.1672
415.863128 85.061 165.2022
418.876643 85.035 165.2408
421.911996 85.007 165.2827
424.969344 84.978 165.3267
428.048847 84.949 165.3718
431.150666 84.918 165.4166
434.274961 84.885 165.4603
437.421897 84.851 165.5018
440.591636 84.816 165.5410
443.784345 84.779 165.5776
447.000189 84.742 165.6125
450.239337 84.703 165.6465
453.501956 84.664 165.6805
456.788219 84.624 165.7154
460.098294 84.584 165.7516
463.432356 84.544 165.7888
466.790578 84.504 165.8267
470.173135 84.465 165.8646
473.580203 84.426 165.9024
477.011961 84.388 165.9402
480.468586 84.351 165.9781
483.950259 84.315 166.0167
487.457163 84.281 166.0563
490.989478 84.247 166.0970
494.547390 84.214 166.1392
498.131084 84.183 166.1830
501.740748 84.153 166.2284
505.376568 84.124 166.2756
509.038735 84.096 166.3247
512.727439 84.070 166.3755
516.442874 84.046 166.4282
520.185232 84.024 166.4824
523.954708 84.003 166.5381
527.751500 83.985 166.5952
531.575805 83.969 166.6534
535.427822 83.955 166.7128
539.307753 83.943 166.7733
543.215800 83.934 166.8351
547.152165 83.927 166.8986
551.117055 83.922 166.9639
555.110677 83.920 167.0310
559.133237 83.920 167.0997
563.184947 83.922 167.1700
567.266018 83.926 167.2416
571.376661 83.932 167.3144
575.517092 83.939 167.3881
579.687526 83.948 167.4623
583.888181 83.958 167.5366
588.119275 83.968 167.6105
592.381030 83.978 167.6836
596.673667 83.988 167.7555
600.997410 83.997 167.8261
605.352485 84.006 167.8954
609.739119 84.014 167.9633
614.157540 84.020 168.0302
618.607979 84.026 168.0969
623.090667 84.030 168.1636
627.605839 84.034 168.2311
632.153730 84.036 168.2994
636.734576 84.037 168.3685
641.348617 84.037 168.4376
645.996094 84.036 168.5063
650.677248 84.034 168.5737
655.392323 84.031 168.6391
660.141566 84.027 168.7023
664.925224 84.021 168.7631
669.743546 84.015 168.8217
674.596784 84.007 168.8784
679.485191 83.998 168.9336
684.409020 83.988 168.9874
689.368530 83.977 169.0399
694.363979 83.965 169.0912
699.395626 83.951 169.1412
704.463736 83.937 169.1901
709.568570 83.922 169.2379
714.710396 83.907 169.2848
719.889483 83.890 169.3306
725.106099 83.872 169.3751
730.360516 83.853 169.4178
735.653010 83.832 169.4581
740.983855 83.811 169.4957
746.353329 83.788 169.5305
751.761713 83.763 169.5622
757.209288 83.737 169.5910
762.696339 83.709 169.6166
768.223151 83.680 169.6389
773.790013 83.650 169.6573
779.397214 83.618 169.6716
785.045047 83.586 169.6808
790.733808 83.552 169.6844
796.463791 83.517 169.6817
802.235296 83.481 169.6719
808.048623 83.444 169.6548
813.904077 83.405 169.6306
819.801961 83.364 169.6000
825.742584 83.321 169.5645
831.726255 83.276 169.5263
837.753287 83.228 169.4890
843.823992 83.176 169.4570
849.938689 83.121 169.4360
856.097695 83.063 169.4331
862.301332 83.001 169.4564
868.549922 82.936 169.5143
874.843793 82.869 169.6158
881.183272 82.801 169.7682
887.568689 82.733 169.9776
894.000378 82.667 170.2470
900.478673 82.605 170.5756
907.003913 82.550 170.9587
913.576437 82.504 171.3870
920.196588 82.467 171.8480
926.864712 82.441 172.3270
933.581156 82.427 172.8090
940.346270 82.423 173.2801
947.160407 82.430 173.7292
954.023921 82.446 174.1484
960.937172 82.469 174.5329
967.900519 82.499 174.8806
974.914325 82.535 175.1915
981.978956 82.575 175.4672
989.094780 82.618 175.7103
996.262169 82.664 175.9238
1003.481495 82.712 176.1109
1010.753136 82.762 176.2748
1018.077470 82.813 176.4185
1025.454879 82.866 176.5449
1032.885748 82.920 176.6563
1040.370463 82.974 176.7552
1047.909417 83.029 176.8434
1055.503000 83.085 176.9228
1063.151610 83.141 176.9948
1070.855645 83.198 177.0606
1078.615506 83.256 177.1204
1086.431599 83.315 177.1744
1094.304330 83.374 177.2222
1102.234110 83.433 177.2636
1110.221353 83.493 177.2980
1118.266475 83.553 177.3249
1126.369895 83.614 177.3436
1134.532035 83.674 177.3531
1142.753322 83.734 177.3524
1151.034184 83.794 177.3405
1159.375052 83.853 177.3165
1167.776361 83.911 177.2800
1176.238550 83.967 177.2311
1184.762060 84.022 177.1704
1193.347334 84.075 177.0992
1201.994821 84.127 177.0188
1210.704971 84.177 176.9307
1219.478238 84.225 176.8366
1228.315080 84.271 176.7384
1237.215957 84.315 176.6381
1246.181334 84.357 176.5376
1255.211678 84.398 176.4384
1264.307459 84.438 176.3415
1273.469152 84.477 176.2474
1282.697235 84.514 176.1568
1291.992188 84.551 176.0704
1301.354495 84.586 175.9885
1310.784647 84.621 175.9115
1320.283132 84.655 175.8388
1329.850448 84.688 175.7698
1339.487093 84.721 175.7040
1349.193569 84.753 175.6412
1358.970381 84.785 175.5815
1368.818041 84.815 175.5258
1378.737061 84.845 175.4751
1388.727958 84.875 175.4304
1398.791253 84.904 175.3927
1408.927471 84.934 175.3623
1419.137140 84.964 175.3392
1429.420793 84.995 175.3229
1439.778965 85.027 175.3129
1450.212197 85.061 175.3086
1460.721033 85.095 175.3099
1471.306019 85.131 175.3166
1481.967709 85.167 175.3287
1492.706658 85.204 175.3463
1503.523426 85.242 175.3687
1514.418576 85.279 175.3956
1525.392678 85.316 175.4267
1536.446302 85.351 175.4620
1547.580025 85.385 175.5022
1558.794428 85.416 175.5484
1570.090095 85.445 175.6017
1581.467615 85.471 175.6631
1592.927581 85.493 175.7336
1604.470591 85.511 175.8141
1616.097246 85.526 175.9051
1627.808153 85.537 176.0076
1639.603922 85.544 176.1231
1651.485168 85.547 176.2532
1663.452510 85.547 176.3997
1675.506573 85.543 176.5638
1687.647984 85.536 176.7464
1699.877377 85.527 176.9474
1712.195390 85.517 177.1661
1724.602663 85.506 177.4017
1737.099845 85.493 177.6533
1749.687587 85.481 177.9203
1762.366544 85.468 178.2024
1775.137379 85.455 178.4989
1788.000756 85.443 178.8087
1800.957346 85.432 179.1293
1814.007826 85.422 179.4572
1827.152874 85.414 179.7883
1840.393177 85.406 -179.8817
1853.729425 85.398 -179.5565
1867.162312 85.391 -179.2384
1880.692540 85.382 -178.9280
1894.320813 85.371 -178.6239
1908.047843 85.358 -178.3232
1921.874344 85.343 -178.0222
1935.801038 85.324 -177.7172
1949.828650 85.303 -177.4046
1963.957912 85.279 -177.0814
1978.189561 85.253 -176.7454
1992.524338 85.225 -176.3952
2006.962991 85.197 -176.0303
2021.506272 85.169 -175.6517
2036.154940 85.141 -175.2616
2050.909758 85.116 -174.8642
2065.771495 85.092 -174.4646
2080.740927 85.071 -174.0690
2095.818833 85.053 -173.6830
2111.006001 85.038 -173.3117
2126.303220 85.025 -172.9589
2141.711290 85.014 -172.6268
2157.231013 85.005 -172.3162
2172.863198 84.998 -172.0264
2188.608660 84.991 -171.7553
2204.468221 84.984 -171.5002
2220.442706 84.978 -171.2578
2236.532950 84.972 -171.0247
2252.739789 84.967 -170.7975
2269.064070 84.962 -170.5732
2285.506644 84.959 -170.3499
2302.068367 84.957 -170.1264
2318.750104 84.957 -169.9029
2335.552723 84.960 -169.6804
2352.477101 84.966 -169.4610
2369.524119 84.975 -169.2468
2386.694668 84.988 -169.0404
2403.989641 85.004 -168.8441
2421.409941 85.024 -168.6595
2438.956476 85.047 -168.4877
2456.630160 85.073 -168.3287
2474.431915 85.102 -168.1816
2492.362668 85.133 -168.0444
2510.423356 85.167 -167.9140
2528.614918 85.204 -167.7864
2546.938304 85.243 -167.6577
2565.394469 85.285 -167.5246
2583.984375 85.331 -167.3847
2602.708991 85.382 -167.2375
2621.569293 85.437 -167.0838
2640.566265 85.498 -166.9255
2659.700897 85.564 -166.7651
2678.974186 85.636 -166.6054
2698.387137 85.714 -166.4488
2717.940763 85.797 -166.2978
2737.636082 85.886 -166.1547
2757.474121 85.979 -166.0218
2777.455915 86.078 -165.9021
2797.582506 86.181 -165.7984
2817.854942 86.288 -165.7139
2838.274281 86.398 -165.6512
2858.841586 86.510 -165.6124
2879.557931 86.624 -165.5984
2900.424394 86.738 -165.6090
2921.442065 86.852 -165.6434
2942.612039 86.964 -165.6998
2963.935418 87.074 -165.7762
2985.413316 87.182 -165.8704
3007.046852 87.287 -165.9803
3028.837153 87.388 -166.1041
3050.785356 87.485 -166.2405
3072.892604 87.578 -166.3893
3095.160050 87.666 -166.5506
3117.588856 87.749 -166.7250
3140.180190 87.826 -166.9133
3162.935230 87.897 -167.1158
3185.855163 87.962 -167.3325
3208.941182 88.019 -167.5628
3232.194493 88.069 -167.8059
3255.616307 88.111 -168.0608
3279.207844 88.145 -168.3263
3302.970336 88.172 -168.6014
3326.905021 88.190 -168.8851
3351.013146 88.200 -169.1760
3375.295969 88.203 -169.4726
3399.754755 88.197 -169.7728
