* Measurement data measured by REW V5.31.3
* Source: EXCL: Headset (USB-C to 3.5mm Headphone Jack Adapter), MICROPHONE (Master Volume), 0, volume: 0.750
* Format: 256k Log Swept Sine, 1 sweep at -12.0 dBFS with no timing reference
* Dated: Apr 1, 2025 10:12:38 PM
* REW Settings:
*  C-weighting compensation: Off
*  Target level: 75.0 dB
* Note: ; 
* Measurement: HD6XX L9
* Smoothing: 1/6 octave
* Frequency Step: 96 ppo
* Start Frequency: 20.0 Hz
*
* Freq(Hz) SPL(dB) Phase(degrees)
20.033247 83.958 -92.0132
20.178416 84.056 -92.2438
20.324637 84.155 -92.4992
20.471918 84.255 -92.7761
20.620266 84.355 -93.0706
20.769689 84.456 -93.3783
20.920195 84.556 -93.6948
21.071791 84.657 -94.0159
21.224486 84.758 -94.3375
21.378287 84.860 -94.6569
21.533203 84.962 -94.9716
21.689242 85.065 -95.2807
21.846411 85.169 -95.5843
22.004719 85.273 -95.8834
22.164174 85.377 -96.1799
22.324785 85.480 -96.4763
22.486559 85.582 -96.7751
22.649506 85.682 -97.0791
22.813634 85.778 -97.3902
22.978951 85.871 -97.7097
23.145466 85.958 -98.0378
23.313188 86.038 -98.3740
23.482124 86.113 -98.7167
23.652286 86.180 -99.0635
23.823680 86.240 -99.4120
23.996316 86.293 -99.7591
24.170203 86.340 -100.1024
24.345351 86.381 -100.4400
24.521767 86.417 -100.7704
24.699462 86.449 -101.0934
24.878444 86.478 -101.4092
25.058724 86.505 -101.7191
25.240310 86.531 -102.0248
25.423211 86.556 -102.3282
25.607438 86.581 -102.6314
25.793000 86.606 -102.9362
25.979907 86.631 -103.2439
26.168168 86.657 -103.5555
26.357794 86.684 -103.8712
26.548793 86.711 -104.1907
26.741176 86.738 -104.5132
26.934954 86.766 -104.8375
27.130136 86.794 -105.1622
27.326732 86.823 -105.4861
27.524753 86.854 -105.8080
27.724208 86.885 -106.1274
27.925110 86.918 -106.4446
28.127466 86.952 -106.7606
28.331290 86.989 -107.0773
28.536590 87.028 -107.3972
28.743378 87.070 -107.7234
28.951664 87.113 -108.0593
29.161460 87.159 -108.4072
29.372776 87.206 -108.7693
29.585623 87.253 -109.1458
29.800013 87.301 -109.5359
30.015956 87.349 -109.9372
30.233464 87.398 -110.3461
30.452548 87.446 -110.7584
30.673220 87.495 -111.1696
30.895490 87.545 -111.5758
31.119372 87.598 -111.9739
31.344876 87.653 -112.3622
31.572014 87.712 -112.7400
31.800797 87.776 -113.1079
32.031239 87.846 -113.4674
32.263351 87.920 -113.8206
32.497144 88.000 -114.1699
32.732632 88.086 -114.5176
32.969826 88.176 -114.8660
33.208739 88.271 -115.2172
33.449383 88.369 -115.5724
33.691771 88.470 -115.9327
33.935916 88.573 -116.2979
34.181829 88.676 -116.6667
34.429525 88.780 -117.0367
34.679015 88.882 -117.4047
34.930314 88.983 -117.7670
35.183433 89.083 -118.1199
35.438387 89.182 -118.4609
35.695188 89.279 -118.7887
35.953850 89.375 -119.1036
36.214387 89.470 -119.4076
36.476811 89.564 -119.7031
36.741137 89.656 -119.9930
37.007378 89.747 -120.2793
37.275549 89.835 -120.5635
37.545663 89.921 -120.8458
37.817734 90.004 -121.1263
38.091777 90.085 -121.4048
38.367806 90.163 -121.6818
38.645835 90.239 -121.9586
38.925879 90.313 -122.2370
39.207952 90.385 -122.5193
39.492069 90.455 -122.8074
39.778244 90.523 -123.1027
40.066494 90.588 -123.4060
40.356832 90.651 -123.7177
40.649275 90.712 -124.0378
40.943836 90.771 -124.3665
41.240532 90.828 -124.7034
41.539378 90.882 -125.0479
41.840389 90.934 -125.3987
42.143582 90.983 -125.7534
42.448972 91.031 -126.1089
42.756574 91.076 -126.4619
43.066406 91.119 -126.8100
43.378483 91.162 -127.1520
43.692822 91.204 -127.4888
44.009438 91.246 -127.8225
44.328348 91.289 -128.1566
44.649570 91.331 -128.4941
44.973119 91.373 -128.8373
45.299013 91.414 -129.1868
45.627268 91.453 -129.5413
45.957902 91.489 -129.8986
46.290932 91.524 -130.2550
46.626375 91.555 -130.6064
46.964249 91.584 -130.9485
47.304571 91.612 -131.2773
47.647360 91.638 -131.5898
47.992632 91.663 -131.8844
48.340407 91.689 -132.1615
48.690701 91.715 -132.4236
49.043534 91.743 -132.6744
49.398924 91.773 -132.9182
49.756889 91.803 -133.1588
50.117447 91.835 -133.3987
50.480619 91.868 -133.6395
50.846423 91.901 -133.8820
51.214877 91.934 -134.1271
51.586001 91.967 -134.3754
51.959814 91.999 -134.6276
52.336336 92.031 -134.8837
52.715587 92.060 -135.1428
53.097586 92.088 -135.4029
53.482353 92.113 -135.6618
53.869908 92.137 -135.9174
54.260272 92.159 -136.1686
54.653464 92.179 -136.4149
55.049506 92.199 -136.6572
55.448417 92.218 -136.8969
55.850219 92.237 -137.1355
56.254933 92.256 -137.3750
56.662579 92.276 -137.6166
57.073180 92.296 -137.8616
57.486755 92.317 -138.1106
57.903328 92.340 -138.3635
58.322919 92.365 -138.6199
58.745551 92.392 -138.8792
59.171246 92.421 -139.1412
59.600025 92.455 -139.4066
60.031911 92.492 -139.6766
60.466927 92.533 -139.9534
60.905096 92.579 -140.2391
61.346439 92.628 -140.5350
61.790981 92.680 -140.8408
62.238744 92.734 -141.1555
62.689751 92.791 -141.4770
63.144027 92.849 -141.8029
63.601595 92.909 -142.1311
64.062478 92.969 -142.4598
64.526701 93.030 -142.7876
64.994288 93.092 -143.1137
65.465264 93.154 -143.4379
65.939652 93.216 -143.7604
66.417478 93.277 -144.0819
66.898766 93.338 -144.4033
67.383542 93.398 -144.7256
67.871831 93.457 -145.0496
68.363659 93.515 -145.3755
68.859050 93.570 -145.7030
69.358031 93.623 -146.0315
69.860628 93.673 -146.3600
70.366867 93.721 -146.6878
70.876774 93.766 -147.0143
71.390376 93.809 -147.3393
71.907700 93.848 -147.6628
72.428773 93.885 -147.9851
72.953622 93.919 -148.3065
73.482274 93.950 -148.6272
74.014757 93.978 -148.9477
74.551098 94.003 -149.2684
75.091326 94.026 -149.5900
75.635469 94.046 -149.9127
76.183555 94.064 -150.2368
76.735612 94.081 -150.5627
77.291670 94.095 -150.8903
77.851757 94.108 -151.2195
78.415903 94.119 -151.5499
78.984137 94.129 -151.8811
79.556489 94.138 -152.2123
80.132988 94.146 -152.5425
80.713665 94.154 -152.8707
81.298549 94.160 -153.1960
81.887672 94.166 -153.5177
82.481064 94.171 -153.8354
83.078756 94.176 -154.1495
83.680778 94.179 -154.4601
84.287164 94.183 -154.7677
84.897943 94.185 -155.0731
85.513149 94.187 -155.3766
86.132812 94.189 -155.6790
86.756966 94.190 -155.9806
87.385643 94.190 -156.2818
88.018875 94.190 -156.5827
88.656696 94.190 -156.8834
89.299139 94.191 -157.1840
89.946238 94.191 -157.4846
90.598025 94.191 -157.7852
91.254536 94.191 -158.0859
91.915804 94.192 -158.3862
92.581864 94.192 -158.6857
93.252750 94.193 -158.9841
93.928498 94.193 -159.2816
94.609143 94.193 -159.5782
95.294719 94.194 -159.8746
95.985264 94.194 -160.1713
96.680813 94.195 -160.4686
97.381402 94.195 -160.7665
98.087068 94.195 -161.0648
98.797847 94.195 -161.3633
99.513777 94.195 -161.6614
100.234895 94.196 -161.9586
100.961238 94.196 -162.2546
101.692845 94.197 -162.5491
102.429753 94.198 -162.8421
103.172002 94.199 -163.1335
103.919628 94.201 -163.4237
104.672673 94.204 -163.7132
105.431174 94.208 -164.0025
106.195172 94.212 -164.2922
106.964706 94.218 -164.5826
107.739816 94.225 -164.8739
108.520543 94.233 -165.1660
109.306928 94.243 -165.4584
110.099011 94.253 -165.7502
110.896834 94.265 -166.0402
111.700438 94.278 -166.3274
112.509866 94.291 -166.6108
113.325158 94.305 -166.8900
114.146359 94.320 -167.1649
114.973511 94.334 -167.4359
115.806656 94.349 -167.7039
116.645839 94.363 -167.9698
117.491103 94.377 -168.2350
118.342492 94.390 -168.5003
119.200050 94.402 -168.7667
120.063823 94.413 -169.0344
120.933855 94.423 -169.3031
121.810191 94.432 -169.5720
122.692878 94.439 -169.8401
123.581962 94.445 -170.1065
124.477487 94.450 -170.3702
125.379503 94.455 -170.6308
126.288054 94.458 -170.8881
127.203189 94.460 -171.1420
128.124956 94.462 -171.3929
129.053402 94.462 -171.6410
129.988577 94.461 -171.8865
130.930527 94.459 -172.1295
131.879304 94.456 -172.3699
132.834956 94.451 -172.6074
133.797533 94.446 -172.8418
134.767085 94.439 -173.0726
135.743663 94.431 -173.3001
136.727317 94.423 -173.5246
137.718100 94.413 -173.7468
138.716062 94.402 -173.9677
139.721255 94.391 -174.1882
140.733733 94.378 -174.4091
141.753548 94.365 -174.6306
142.780753 94.350 -174.8525
143.815401 94.335 -175.0744
144.857546 94.318 -175.2953
145.907244 94.301 -175.5144
146.964548 94.284 -175.7312
148.029514 94.265 -175.9453
149.102197 94.246 -176.1566
150.182652 94.227 -176.3651
151.270938 94.208 -176.5712
152.367109 94.188 -176.7749
153.471224 94.168 -176.9761
154.583340 94.148 -177.1746
155.703515 94.127 -177.3704
156.831807 94.107 -177.5632
157.968274 94.087 -177.7530
159.112978 94.068 -177.9399
160.265976 94.048 -178.1244
161.427329 94.028 -178.3066
162.597098 94.009 -178.4871
163.775344 93.990 -178.6664
164.962128 93.971 -178.8448
166.157511 93.953 -179.0224
167.361557 93.934 -179.1991
168.574328 93.916 -179.3746
169.795887 93.897 -179.5486
171.026298 93.878 -179.7206
172.265625 93.860 -179.8907
173.513933 93.841 179.9410
174.771286 93.822 179.7743
176.037751 93.802 179.6088
177.313393 93.782 179.4440
178.598279 93.762 179.2797
179.892476 93.742 179.1158
181.196051 93.722 178.9523
182.509072 93.701 178.7891
183.831608 93.680 178.6265
185.163728 93.659 178.4647
186.505500 93.637 178.3038
187.856996 93.614 178.1440
189.218285 93.592 177.9856
190.589439 93.568 177.8286
191.970529 93.545 177.6732
193.361626 93.522 177.5193
194.762804 93.499 177.3669
196.174136 93.475 177.2161
197.595694 93.452 177.0663
199.027554 93.429 176.9174
200.469790 93.406 176.7693
201.922477 93.382 176.6224
203.385690 93.358 176.4772
204.859507 93.334 176.3344
206.344003 93.309 176.1942
207.839257 93.284 176.0568
209.345346 93.258 175.9222
210.862348 93.232 175.7903
212.390344 93.206 175.6613
213.929412 93.181 175.5353
215.479633 93.156 175.4122
217.041087 93.131 175.2922
218.613856 93.108 175.1752
220.198022 93.086 175.0609
221.793668 93.064 174.9491
223.400876 93.044 174.8396
225.019731 93.025 174.7322
226.650317 93.007 174.6265
228.292718 92.990 174.5226
229.947022 92.974 174.4205
231.613312 92.960 174.3201
233.291678 92.946 174.2216
234.982206 92.934 174.1252
236.684984 92.923 174.0311
238.400101 92.913 173.9393
240.127646 92.904 173.8501
241.867710 92.896 173.7634
243.620383 92.888 173.6794
245.385757 92.882 173.5977
247.163923 92.876 173.5178
248.954975 92.870 173.4387
250.759005 92.865 173.3597
252.576108 92.860 173.2799
254.406379 92.855 173.1984
256.249912 92.851 173.1149
258.106805 92.846 173.0294
259.977153 92.841 172.9421
261.861055 92.836 172.8539
263.758608 92.831 172.7656
265.669911 92.825 172.6785
267.595065 92.819 172.5938
269.534169 92.812 172.5125
271.487325 92.806 172.4351
273.454634 92.799 172.3615
275.436199 92.792 172.2914
277.432123 92.785 172.2237
279.442511 92.778 172.1574
281.467467 92.772 172.0915
283.507096 92.766 172.0255
285.561505 92.760 171.9596
287.630801 92.755 171.8943
289.715093 92.751 171.8306
291.814488 92.747 171.7695
293.929096 92.744 171.7121
296.059027 92.741 171.6595
298.204393 92.739 171.6127
300.365305 92.737 171.5723
302.541876 92.735 171.5387
304.734219 92.734 171.5115
306.942449 92.733 171.4901
309.166680 92.732 171.4733
311.407029 92.732 171.4602
313.663613 92.732 171.4497
315.936549 92.733 171.4412
318.225955 92.733 171.4342
320.531952 92.734 171.4286
322.854659 92.734 171.4243
325.194197 92.734 171.4211
327.550688 92.734 171.4189
329.924255 92.733 171.4171
332.315022 92.731 171.4153
334.723114 92.728 171.4127
337.148655 92.724 171.4086
339.591774 92.719 171.4023
342.052596 92.713 171.3934
344.531250 92.705 171.3817
347.027865 92.696 171.3675
349.542572 92.686 171.3518
352.075502 92.675 171.3357
354.626786 92.663 171.3205
357.196558 92.650 171.3074
359.784951 92.637 171.2970
362.392101 92.623 171.2900
365.018144 92.609 171.2866
367.663216 92.594 171.2865
370.327455 92.579 171.2896
373.011000 92.564 171.2952
375.713992 92.548 171.3027
378.436570 92.532 171.3116
381.178878 92.516 171.3215
383.941057 92.499 171.3318
386.723252 92.482 171.3423
389.525608 92.465 171.3529
392.348271 92.447 171.3638
395.191389 92.429 171.3755
398.055108 92.411 171.3886
400.939580 92.392 171.4036
403.844953 92.373 171.4209
406.771380 92.353 171.4408
409.719013 92.333 171.4631
412.688006 92.311 171.4879
415.678514 92.289 171.5148
418.690692 92.266 171.5437
421.724697 92.242 171.5745
424.780688 92.216 171.6071
427.858824 92.189 171.6412
430.959265 92.161 171.6771
434.082174 92.132 171.7145
437.227712 92.101 171.7535
440.396044 92.069 171.7936
443.587336 92.036 171.8347
446.801752 92.002 171.8765
450.039462 91.966 171.9187
453.300634 91.930 171.9613
456.585437 91.893 172.0043
459.894043 91.856 172.0479
463.226625 91.819 172.0925
466.583356 91.782 172.1381
469.964411 91.746 172.1850
473.369967 91.710 172.2331
476.800201 91.675 172.2825
480.255292 91.641 172.3333
483.735420 91.608 172.3855
487.240766 91.576 172.4392
490.771513 91.546 172.4943
494.327846 91.517 172.5505
497.909949 91.489 172.6076
501.518010 91.462 172.6653
505.152216 91.437 172.7235
508.812758 91.414 172.7820
512.499825 91.392 172.8406
516.213610 91.371 172.8991
519.954306 91.353 172.9573
523.722109 91.336 173.0146
527.517216 91.322 173.0708
531.339823 91.309 173.1255
535.190130 91.298 173.1786
539.068339 91.289 173.2303
542.974650 91.283 173.2812
546.909268 91.277 173.3320
550.872398 91.274 173.3834
554.864247 91.273 173.4362
558.885022 91.273 173.4912
562.934933 91.275 173.5488
567.014192 91.278 173.6093
571.123010 91.282 173.6730
575.261603 91.286 173.7400
579.430186 91.292 173.8108
583.628976 91.297 173.8859
587.858192 91.303 173.9662
592.118055 91.309 174.0524
596.408786 91.314 174.1455
600.730610 91.319 174.2460
605.083752 91.323 174.3538
609.468438 91.328 174.4688
613.884897 91.333 174.5899
618.333360 91.337 174.7161
622.814059 91.342 174.8457
627.327226 91.347 174.9771
631.873098 91.352 175.1081
636.451911 91.357 175.2368
641.063904 91.362 175.3613
645.709317 91.366 175.4799
650.388393 91.370 175.5912
655.101375 91.374 175.6949
659.848510 91.376 175.7909
664.630044 91.377 175.8796
669.446228 91.378 175.9622
674.297311 91.376 176.0396
679.183547 91.374 176.1133
684.105191 91.370 176.1843
689.062499 91.366 176.2533
694.055730 91.360 176.3205
699.085144 91.353 176.3859
704.151003 91.345 176.4492
709.253572 91.336 176.5098
714.393116 91.325 176.5668
719.569903 91.313 176.6196
724.784203 91.299 176.6678
730.036288 91.283 176.7114
735.326432 91.266 176.7505
740.654910 91.245 176.7858
746.022001 91.222 176.8188
751.427984 91.197 176.8515
756.873141 91.169 176.8865
762.357756 91.138 176.9268
767.882114 91.104 176.9753
773.446504 91.069 177.0345
779.051217 91.032 177.1063
784.696543 90.993 177.1913
790.382778 90.955 177.2892
796.110217 90.917 177.3988
801.879160 90.880 177.5172
807.689907 90.845 177.6412
813.542761 90.812 177.7667
819.438027 90.781 177.8898
825.376013 90.752 178.0064
831.357028 90.725 178.1133
837.381383 90.700 178.2079
843.449394 90.675 178.2888
849.561376 90.651 178.3560
855.717648 90.626 178.4113
861.918531 90.600 178.4580
868.164348 90.572 178.5012
874.455424 90.542 178.5468
880.792089 90.510 178.6016
887.174671 90.475 178.6725
893.603505 90.438 178.7664
900.078924 90.400 178.8894
906.601267 90.362 179.0466
913.170874 90.326 179.2415
919.788086 90.291 179.4755
926.453250 90.261 179.7473
933.166712 90.237 -179.9465
939.928823 90.219 -179.6125
946.739934 90.209 -179.2591
953.600402 90.208 -178.8960
960.510584 90.216 -178.5333
967.470839 90.233 -178.1804
974.481532 90.258 -177.8451
981.543027 90.290 -177.5336
988.655692 90.330 -177.2499
995.819899 90.374 -176.9966
1003.036020 90.424 -176.7743
1010.304433 90.477 -176.5826
1017.625515 90.533 -176.4198
1024.999649 90.592 -176.2833
1032.427219 90.651 -176.1698
1039.908612 90.712 -176.0760
1047.444219 90.774 -175.9988
1055.034432 90.836 -175.9354
1062.679646 90.899 -175.8845
1070.380261 90.962 -175.8453
1078.136677 91.025 -175.8182
1085.949300 91.089 -175.8040
1093.818536 91.152 -175.8032
1101.744796 91.215 -175.8158
1109.728493 91.276 -175.8413
1117.770043 91.335 -175.8779
1125.869866 91.393 -175.9233
1134.028383 91.448 -175.9748
1142.246020 91.501 -176.0298
1150.523206 91.552 -176.0859
1158.860371 91.601 -176.1415
1167.257951 91.648 -176.1954
1175.716383 91.693 -176.2468
1184.236109 91.737 -176.2955
1192.817572 91.780 -176.3410
1201.461220 91.822 -176.3827
1210.167503 91.863 -176.4199
1218.936876 91.903 -176.4519
1227.769795 91.943 -176.4784
1236.666721 91.984 -176.4998
1245.628118 92.025 -176.5173
1254.654453 92.067 -176.5332
1263.746196 92.110 -176.5501
1272.903822 92.153 -176.5706
1282.127808 92.197 -176.5963
1291.418634 92.240 -176.6283
1300.776786 92.283 -176.6663
1310.202751 92.324 -176.7097
1319.697020 92.365 -176.7571
1329.260089 92.404 -176.8069
1338.892455 92.441 -176.8574
1348.594622 92.477 -176.9068
1358.367094 92.511 -176.9530
1368.210382 92.544 -176.9938
1378.124999 92.576 -177.0267
1388.111461 92.607 -177.0498
1398.170288 92.637 -177.0620
1408.302007 92.668 -177.0627
1418.507144 92.700 -177.0519
1428.786231 92.732 -177.0297
1439.139805 92.765 -176.9957
1449.568405 92.800 -176.9491
1460.072576 92.835 -176.8885
1470.652863 92.873 -176.8127
1481.309820 92.912 -176.7208
1492.044002 92.953 -176.6125
1502.855968 92.997 -176.4888
1513.746282 93.043 -176.3522
1524.715511 93.090 -176.2058
1535.764228 93.140 -176.0540
1546.893009 93.191 -175.9009
1558.102433 93.243 -175.7501
1569.393086 93.294 -175.6042
1580.765555 93.345 -175.4653
1592.220434 93.394 -175.3347
1603.758320 93.441 -175.2133
1615.379813 93.485 -175.1016
1627.085521 93.525 -174.9986
1638.876054 93.561 -174.9026
1650.752025 93.592 -174.8113
1662.714055 93.619 -174.7214
1674.762766 93.641 -174.6298
1686.898788 93.659 -174.5334
1699.122752 93.673 -174.4295
1711.435296 93.683 -174.3154
1723.837061 93.690 -174.1894
1736.328695 93.695 -174.0498
1748.910849 93.698 -173.8960
1761.584178 93.700 -173.7281
1774.349343 93.701 -173.5472
1787.207010 93.702 -173.3549
1800.157848 93.703 -173.1532
1813.202534 93.704 -172.9447
1826.341747 93.705 -172.7321
1839.576172 93.706 -172.5182
1852.906500 93.707 -172.3062
1866.333424 93.707 -172.0985
1879.857645 93.707 -171.8967
1893.479869 93.704 -171.7010
1907.200804 93.699 -171.5104
1921.021168 93.692 -171.3228
1934.941679 93.681 -171.1362
1948.963064 93.668 -170.9482
1963.086054 93.652 -170.7568
1977.311384 93.633 -170.5604
1991.639798 93.612 -170.3574
2006.072041 93.588 -170.1470
2020.608866 93.564 -169.9292
2035.251031 93.539 -169.7054
2049.999299 93.515 -169.4787
2064.854438 93.491 -169.2532
2079.817225 93.468 -169.0339
2094.888438 93.446 -168.8257
2110.068863 93.425 -168.6333
2125.359292 93.405 -168.4600
2140.760521 93.385 -168.3069
2156.273355 93.364 -168.1728
2171.898600 93.341 -168.0535
2187.637073 93.317 -167.9433
2203.489593 93.292 -167.8360
2219.456987 93.265 -167.7262
2235.540087 93.236 -167.6096
2251.739732 93.208 -167.4834
2268.056766 93.179 -167.3456
2284.492041 93.151 -167.1948
2301.046412 93.124 -167.0305
2317.720742 93.099 -166.8523
2334.515902 93.077 -166.6599
2351.432767 93.057 -166.4534
2368.472218 93.042 -166.2338
2385.635144 93.031 -166.0037
2402.922440 93.025 -165.7672
2420.335006 93.025 -165.5292
2437.873752 93.030 -165.2950
2455.539590 93.042 -165.0687
2473.333442 93.059 -164.8532
2491.256235 93.081 -164.6501
2509.308905 93.107 -164.4594
2527.492392 93.138 -164.2802
2545.807644 93.173 -164.1105
2564.255615 93.213 -163.9486
2582.837268 93.256 -163.7921
2601.553572 93.304 -163.6390
2620.405502 93.355 -163.4871
2639.394040 93.412 -163.3343
2658.520177 93.473 -163.1794
2677.784910 93.539 -163.0228
2697.189244 93.612 -162.8661
2716.734189 93.690 -162.7132
2736.420765 93.775 -162.5692
2756.249998 93.865 -162.4398
2776.222921 93.961 -162.3302
2796.340577 94.060 -162.2440
2816.604013 94.163 -162.1826
2837.014287 94.267 -162.1459
2857.572462 94.373 -162.1320
2878.279610 94.480 -162.1384
2899.136811 94.586 -162.1635
2920.145151 94.692 -162.2059
2941.305727 94.798 -162.2654
2962.619641 94.902 -162.3419
2984.088004 95.004 -162.4355
3005.711935 95.104 -162.5466
3027.492563 95.201 -162.6753
3049.431022 95.293 -162.8210
3071.528457 95.380 -162.9834
3093.786018 95.462 -163.1610
3116.204867 95.538 -163.3524
3138.786172 95.607 -163.5554
3161.531110 95.670 -163.7680
3184.440868 95.724 -163.9880
3207.516639 95.772 -164.2137
3230.759627 95.812 -164.4437
3254.171043 95.845 -164.6772
3277.752108 95.870 -164.9141
3301.504051 95.889 -165.1546
