* Measurement data measured by REW V5.31.3
* Source: EXCL: Headset (USB-C to 3.5mm Headphone Jack Adapter), MICROPHONE (Master Volume), 0, volume: 0.750
* Format: 256k Log Swept Sine, 1 sweep at -12.0 dBFS with no timing reference
* Dated: Apr 7, 2025 5:26:19 PM
* REW Settings:
*  C-weighting compensation: Off
*  Target level: 75.0 dB
* Note: ; 
* Measurement: HD 6XX (Geekeria) L1
* Smoothing: 1/6 octave
* Frequency Step: 96 ppo
* Start Frequency: 20.0 Hz
*
* Freq(Hz) SPL(dB) Phase(degrees)
20.187378 75.955 -99.3770
20.333664 75.990 -99.4265
20.481010 76.036 -99.4903
20.629424 76.095 -99.5643
20.778913 76.166 -99.6459
20.929486 76.248 -99.7347
21.081150 76.339 -99.8334
21.233912 76.438 -99.9469
21.387782 76.544 -100.0818
21.542767 76.652 -100.2450
21.698874 76.762 -100.4431
21.856113 76.870 -100.6802
22.014492 76.974 -100.9585
22.174018 77.071 -101.2768
22.334700 77.161 -101.6312
22.496546 77.243 -102.0155
22.659566 77.317 -102.4213
22.823766 77.383 -102.8397
22.989157 77.443 -103.2611
23.155745 77.498 -103.6769
23.323542 77.551 -104.0798
23.492554 77.603 -104.4639
23.662790 77.658 -104.8258
23.834261 77.716 -105.1634
24.006973 77.778 -105.4766
24.180938 77.845 -105.7668
24.356163 77.917 -106.0361
24.532658 77.992 -106.2876
24.710431 78.070 -106.5248
24.889493 78.149 -106.7520
25.069853 78.226 -106.9735
25.251519 78.301 -107.1945
25.434502 78.370 -107.4197
25.618811 78.432 -107.6543
25.804456 78.486 -107.9023
25.991445 78.530 -108.1672
26.179790 78.564 -108.4504
26.369500 78.587 -108.7520
26.560584 78.599 -109.0698
26.753053 78.602 -109.4003
26.946917 78.598 -109.7386
27.142185 78.588 -110.0798
27.338869 78.577 -110.4193
27.536977 78.567 -110.7540
27.736522 78.562 -111.0827
27.937512 78.563 -111.4066
28.139959 78.574 -111.7282
28.343872 78.594 -112.0514
28.549264 78.624 -112.3797
28.756143 78.661 -112.7155
28.964522 78.705 -113.0593
29.174411 78.753 -113.4093
29.385821 78.803 -113.7620
29.598763 78.852 -114.1125
29.813248 78.900 -114.4559
30.029287 78.946 -114.7885
30.246891 78.992 -115.1080
30.466073 79.037 -115.4148
30.686842 79.082 -115.7110
30.909212 79.130 -116.0004
31.133193 79.182 -116.2870
31.358797 79.237 -116.5745
31.586035 79.298 -116.8647
31.814921 79.363 -117.1579
32.045465 79.434 -117.4521
32.277680 79.509 -117.7445
32.511577 79.588 -118.0315
32.747169 79.671 -118.3104
32.984469 79.757 -118.5798
33.223488 79.846 -118.8400
33.464239 79.936 -119.0936
33.706735 80.029 -119.3445
33.950987 80.123 -119.5978
34.197010 80.217 -119.8591
34.444816 80.313 -120.1333
34.694417 80.409 -120.4248
34.945827 80.506 -120.7363
35.199059 80.604 -121.0688
35.454126 80.702 -121.4216
35.711041 80.800 -121.7922
35.969818 80.898 -122.1762
36.230470 80.995 -122.5686
36.493011 81.090 -122.9636
36.757455 81.184 -123.3560
37.023814 81.274 -123.7417
37.292104 81.361 -124.1187
37.562338 81.444 -124.4866
37.834530 81.523 -124.8472
38.108695 81.596 -125.2031
38.384846 81.665 -125.5573
38.662999 81.729 -125.9122
38.943167 81.788 -126.2685
39.225365 81.842 -126.6256
39.509608 81.894 -126.9814
39.795911 81.943 -127.3330
40.084289 81.991 -127.6775
40.374756 82.039 -128.0128
40.667328 82.089 -128.3380
40.962020 82.141 -128.6535
41.258848 82.195 -128.9609
41.557827 82.251 -129.2619
41.858972 82.309 -129.5587
42.162299 82.367 -129.8528
42.467824 82.426 -130.1450
42.775564 82.484 -130.4357
43.085533 82.541 -130.7242
43.397749 82.597 -131.0095
43.712227 82.652 -131.2899
44.028983 82.704 -131.5634
44.348036 82.755 -131.8281
44.669400 82.804 -132.0822
44.993093 82.852 -132.3247
45.319131 82.897 -132.5560
45.647532 82.939 -132.7775
45.978313 82.978 -132.9926
46.311491 83.015 -133.2060
46.647083 83.048 -133.4242
46.985107 83.079 -133.6549
47.325581 83.108 -133.9061
47.668521 83.135 -134.1856
48.013947 83.161 -134.4991
48.361876 83.186 -134.8493
48.712326 83.210 -135.2350
49.065315 83.233 -135.6513
49.420863 83.256 -136.0902
49.778987 83.278 -136.5427
50.139706 83.300 -136.9996
50.503039 83.322 -137.4534
50.869005 83.344 -137.8982
51.237623 83.365 -138.3295
51.608912 83.387 -138.7441
51.982891 83.407 -139.1392
52.359580 83.425 -139.5134
52.739000 83.443 -139.8665
53.121168 83.459 -140.2003
53.506106 83.475 -140.5188
53.893833 83.490 -140.8279
54.284370 83.506 -141.1356
54.677737 83.522 -141.4510
55.073955 83.540 -141.7851
55.473043 83.561 -142.1497
55.875024 83.586 -142.5569
56.279917 83.616 -143.0165
56.687745 83.651 -143.5340
57.098527 83.692 -144.1081
57.512287 83.740 -144.7288
57.929045 83.792 -145.3772
58.348822 83.848 -146.0254
58.771642 83.902 -146.6387
59.197525 83.952 -147.1790
59.626495 83.994 -147.6110
60.058573 84.025 -147.9101
60.493782 84.047 -148.0691
60.932145 84.061 -148.1016
61.373685 84.069 -148.0389
61.818424 84.075 -147.9222
62.266386 84.081 -147.7931
62.717593 84.089 -147.6850
63.172071 84.101 -147.6199
63.629842 84.117 -147.6084
64.090930 84.139 -147.6525
64.555359 84.165 -147.7482
65.023154 84.195 -147.8887
65.494339 84.228 -148.0664
65.968938 84.264 -148.2740
66.446976 84.302 -148.5058
66.928478 84.342 -148.7571
67.413469 84.383 -149.0240
67.901975 84.424 -149.3026
68.394021 84.466 -149.5890
68.889632 84.508 -149.8791
69.388835 84.549 -150.1688
69.891655 84.590 -150.4546
70.398118 84.631 -150.7338
70.908252 84.672 -151.0049
71.422083 84.712 -151.2674
71.939636 84.752 -151.5214
72.460941 84.789 -151.7677
72.986023 84.824 -152.0078
73.514909 84.855 -152.2431
74.047629 84.884 -152.4759
74.584208 84.908 -152.7080
75.124676 84.929 -152.9414
75.669061 84.947 -153.1776
76.217390 84.962 -153.4179
76.769692 84.973 -153.6630
77.325997 84.983 -153.9134
77.886333 84.990 -154.1696
78.450730 84.996 -154.4317
79.019216 85.001 -154.6998
79.591822 85.005 -154.9736
80.168577 85.008 -155.2525
80.749512 85.010 -155.5357
81.334656 85.013 -155.8221
81.924040 85.015 -156.1104
82.517696 85.017 -156.3995
83.115653 85.018 -156.6879
83.717943 85.021 -156.9746
84.324598 85.023 -157.2587
84.935649 85.026 -157.5395
85.551128 85.029 -157.8165
86.171066 85.033 -158.0892
86.795497 85.036 -158.3571
87.424453 85.040 -158.6201
88.057967 85.043 -158.8781
88.696071 85.046 -159.1311
89.338800 85.048 -159.3797
89.986185 85.049 -159.6246
90.638262 85.048 -159.8670
91.295065 85.047 -160.1084
91.956626 85.044 -160.3505
92.622982 85.041 -160.5949
93.294166 85.037 -160.8429
93.970214 85.033 -161.0954
94.651161 85.029 -161.3528
95.337042 85.025 -161.6149
96.027894 85.023 -161.8807
96.723752 85.020 -162.1488
97.424652 85.019 -162.4173
98.130631 85.017 -162.6843
98.841726 85.016 -162.9484
99.557974 85.014 -163.2084
100.279412 85.013 -163.4640
101.006078 85.011 -163.7157
101.738010 85.008 -163.9646
102.475245 85.006 -164.2125
103.217823 85.004 -164.4609
103.965782 85.002 -164.7110
104.719161 85.002 -164.9636
105.477999 85.002 -165.2186
106.242336 85.003 -165.4756
107.012212 85.006 -165.7337
107.787666 85.011 -165.9916
108.568740 85.016 -166.2483
109.355474 85.023 -166.5029
110.147909 85.031 -166.7542
110.946086 85.041 -167.0015
111.750047 85.051 -167.2443
112.559834 85.063 -167.4823
113.375489 85.075 -167.7159
114.197055 85.088 -167.9457
115.024574 85.101 -168.1729
115.858089 85.114 -168.3987
116.697645 85.127 -168.6244
117.543284 85.140 -168.8513
118.395051 85.153 -169.0807
119.252990 85.164 -169.3136
120.117147 85.175 -169.5508
120.987565 85.185 -169.7924
121.864291 85.195 -170.0376
122.747370 85.203 -170.2854
123.636848 85.210 -170.5341
124.532771 85.216 -170.7820
125.435187 85.222 -171.0278
126.344142 85.226 -171.2701
127.259684 85.230 -171.5084
128.181860 85.233 -171.7422
129.110718 85.235 -171.9718
130.046308 85.236 -172.1970
130.988677 85.236 -172.4178
131.937875 85.234 -172.6341
132.893951 85.231 -172.8459
133.856956 85.227 -173.0530
134.826938 85.222 -173.2560
135.803950 85.215 -173.4559
136.788041 85.206 -173.6542
137.779264 85.196 -173.8528
138.777669 85.185 -174.0528
139.783309 85.173 -174.2551
140.796237 85.159 -174.4597
141.816504 85.145 -174.6660
142.844165 85.129 -174.8734
143.879273 85.112 -175.0807
144.921881 85.094 -175.2871
145.972045 85.075 -175.4918
147.029819 85.055 -175.6942
148.095257 85.035 -175.8935
149.168417 85.014 -176.0894
150.249353 84.992 -176.2815
151.338121 84.970 -176.4698
152.434780 84.948 -176.6541
153.539385 84.925 -176.8346
154.651995 84.902 -177.0112
155.772667 84.878 -177.1843
156.901460 84.855 -177.3543
158.038432 84.832 -177.5219
159.183644 84.810 -177.6879
160.337154 84.788 -177.8525
161.499023 84.766 -178.0161
162.669312 84.745 -178.1789
163.848081 84.724 -178.3412
165.035392 84.703 -178.5034
166.231306 84.682 -178.6662
167.435887 84.661 -178.8304
168.649196 84.640 -178.9967
169.871298 84.619 -179.1655
171.102255 84.597 -179.3368
172.342133 84.575 -179.5102
173.590995 84.552 -179.6851
174.848907 84.528 -179.8604
176.115934 84.505 179.9650
177.392143 84.481 179.7922
178.677599 84.458 179.6227
179.972371 84.435 179.4574
181.276525 84.413 179.2972
182.590129 84.392 179.1419
183.913252 84.372 178.9911
185.245964 84.351 178.8438
186.588332 84.331 178.6992
187.940428 84.309 178.5566
189.302322 84.286 178.4158
190.674085 84.263 178.2772
192.055788 84.239 178.1412
193.447503 84.213 178.0084
194.849303 84.188 177.8792
196.261262 84.161 177.7540
197.683452 84.134 177.6330
199.115948 84.107 177.5162
200.558824 84.080 177.4034
202.012156 84.053 177.2941
203.476019 84.025 177.1876
204.950490 83.998 177.0833
206.435646 83.970 176.9808
207.931564 83.943 176.8794
209.438322 83.915 176.7789
210.955998 83.888 176.6791
212.484672 83.861 176.5802
214.024424 83.835 176.4825
215.575333 83.809 176.3864
217.137481 83.783 176.2924
218.710948 83.758 176.2008
220.295818 83.734 176.1121
221.892172 83.711 176.0263
223.500094 83.689 175.9436
225.119668 83.668 175.8638
226.750978 83.648 175.7866
228.394109 83.630 175.7115
230.049147 83.613 175.6382
231.716178 83.597 175.5660
233.395289 83.584 175.4947
235.086567 83.571 175.4242
236.790102 83.560 175.3545
238.505980 83.549 175.2858
240.234293 83.540 175.2184
241.975130 83.531 175.1529
243.728581 83.523 175.0895
245.494739 83.516 175.0286
247.273695 83.509 174.9702
249.065542 83.502 174.9141
250.870374 83.495 174.8602
252.688284 83.489 174.8080
254.519367 83.482 174.7569
256.363720 83.475 174.7065
258.221437 83.467 174.6565
260.092616 83.459 174.6064
261.977354 83.451 174.5561
263.875750 83.442 174.5054
265.787903 83.433 174.4543
267.713911 83.424 174.4029
269.653877 83.414 174.3515
271.607900 83.405 174.3005
273.576083 83.396 174.2505
275.558528 83.387 174.2018
277.555338 83.379 174.1547
279.566619 83.372 174.1090
281.592474 83.366 174.0645
283.633009 83.360 174.0208
285.688331 83.356 173.9777
287.758546 83.351 173.9354
289.843763 83.347 173.8940
291.944090 83.343 173.8540
294.059638 83.340 173.8160
296.190515 83.336 173.7805
298.336833 83.333 173.7482
300.498705 83.329 173.7198
302.676243 83.326 173.6955
304.869559 83.323 173.6754
307.078770 83.319 173.6590
309.303989 83.316 173.6457
311.545334 83.313 173.6347
313.802919 83.310 173.6253
316.076865 83.308 173.6170
318.367288 83.306 173.6096
320.674309 83.304 173.6033
322.998047 83.302 173.5981
325.338624 83.300 173.5946
327.696162 83.299 173.5929
330.070783 83.297 173.5930
332.462612 83.294 173.5950
334.871773 83.291 173.5984
337.298392 83.287 173.6029
339.742595 83.281 173.6081
342.204510 83.275 173.6136
344.684265 83.267 173.6191
347.181989 83.257 173.6246
349.697813 83.247 173.6303
352.231868 83.235 173.6361
354.784285 83.222 173.6424
357.355198 83.207 173.6492
359.944741 83.192 173.6569
362.553049 83.177 173.6657
365.180258 83.160 173.6757
367.826505 83.143 173.6871
370.491927 83.125 173.6998
373.176665 83.107 173.7139
375.880856 83.089 173.7291
378.604644 83.071 173.7456
381.348169 83.052 173.7634
384.111575 83.034 173.7827
386.895006 83.016 173.8036
389.698607 82.998 173.8264
392.522524 82.979 173.8505
395.366904 82.961 173.8756
398.231895 82.942 173.9011
401.117648 82.923 173.9264
404.024312 82.903 173.9510
406.952038 82.883 173.9744
409.900981 82.861 173.9969
412.871292 82.839 174.0187
415.863128 82.815 174.0403
418.876643 82.790 174.0624
421.911996 82.763 174.0858
424.969344 82.734 174.1113
428.048847 82.704 174.1396
431.150666 82.672 174.1711
434.274961 82.639 174.2060
437.421897 82.604 174.2446
440.591636 82.567 174.2867
443.784345 82.529 174.3322
447.000189 82.491 174.3808
450.239337 82.451 174.4322
453.501956 82.411 174.4861
456.788219 82.371 174.5421
460.098294 82.330 174.6000
463.432356 82.290 174.6597
466.790578 82.251 174.7209
470.173135 82.211 174.7832
473.580203 82.173 174.8461
477.011961 82.136 174.9094
480.468586 82.099 174.9727
483.950259 82.064 175.0363
487.457163 82.029 175.1002
490.989478 81.996 175.1646
494.547390 81.964 175.2295
498.131084 81.932 175.2951
501.740748 81.902 175.3613
505.376568 81.874 175.4281
509.038735 81.847 175.4954
512.727439 81.821 175.5633
516.442874 81.797 175.6317
520.185232 81.775 175.7003
523.954708 81.756 175.7689
527.751500 81.739 175.8370
531.575805 81.724 175.9044
535.427822 81.712 175.9706
539.307753 81.703 176.0352
543.215800 81.696 176.0983
547.152165 81.692 176.1599
551.117055 81.689 176.2204
555.110677 81.689 176.2802
559.133237 81.690 176.3395
563.184947 81.692 176.3984
567.266018 81.696 176.4567
571.376661 81.701 176.5141
575.517092 81.706 176.5709
579.687526 81.712 176.6270
583.888181 81.718 176.6830
588.119275 81.724 176.7393
592.381030 81.729 176.7964
596.673667 81.734 176.8551
600.997410 81.737 176.9161
605.352485 81.739 176.9802
609.739119 81.740 177.0484
614.157540 81.740 177.1218
618.607979 81.738 177.2011
623.090667 81.735 177.2872
627.605839 81.731 177.3801
632.153730 81.727 177.4797
636.734576 81.722 177.5852
641.348617 81.717 177.6953
645.996094 81.712 177.8079
650.677248 81.707 177.9205
655.392323 81.703 178.0307
660.141566 81.698 178.1359
664.925224 81.694 178.2341
669.743546 81.689 178.3238
674.596784 81.684 178.4043
679.485191 81.678 178.4752
684.409020 81.671 178.5367
689.368530 81.663 178.5889
694.363979 81.653 178.6323
699.395626 81.640 178.6675
704.463736 81.626 178.6957
709.568570 81.609 178.7181
714.710396 81.590 178.7368
719.889483 81.567 178.7536
725.106099 81.542 178.7709
730.360516 81.515 178.7909
735.653010 81.484 178.8154
740.983855 81.451 178.8463
746.353329 81.416 178.8851
751.761713 81.378 178.9330
757.209288 81.340 178.9907
762.696339 81.300 179.0582
768.223151 81.260 179.1345
773.790013 81.220 179.2180
779.397214 81.180 179.3065
785.045047 81.141 179.3976
790.733808 81.102 179.4886
796.463791 81.065 179.5768
802.235296 81.029 179.6600
808.048623 80.994 179.7358
813.904077 80.960 179.8025
819.801961 80.927 179.8586
825.742584 80.894 179.9037
831.726255 80.860 179.9377
837.753287 80.827 179.9616
843.823992 80.792 179.9769
849.938689 80.756 179.9861
856.097695 80.718 179.9923
862.301332 80.678 179.9993
868.549922 80.637 -179.9886
874.843793 80.593 -179.9667
881.183272 80.547 -179.9297
887.568689 80.500 -179.8729
894.000378 80.452 -179.7921
900.478673 80.405 -179.6837
907.003913 80.358 -179.5457
913.576437 80.314 -179.3772
920.196588 80.273 -179.1794
926.864712 80.237 -178.9550
933.581156 80.206 -178.7095
940.346270 80.183 -178.4497
947.160407 80.166 -178.1841
954.023921 80.156 -177.9215
960.937172 80.154 -177.6702
967.900519 80.158 -177.4370
974.914325 80.168 -177.2271
981.978956 80.182 -177.0437
989.094780 80.201 -176.8880
996.262169 80.222 -176.7594
1003.481495 80.245 -176.6556
1010.753136 80.269 -176.5733
1018.077470 80.294 -176.5085
1025.454879 80.320 -176.4568
1032.885748 80.345 -176.4144
1040.370463 80.372 -176.3778
1047.909417 80.398 -176.3449
1055.503000 80.425 -176.3144
1063.151610 80.452 -176.2860
1070.855645 80.481 -176.2600
1078.615506 80.509 -176.2369
1086.431599 80.538 -176.2173
1094.304330 80.566 -176.2018
1102.234110 80.594 -176.1908
1110.221353 80.622 -176.1846
1118.266475 80.648 -176.1828
1126.369895 80.673 -176.1845
1134.532035 80.696 -176.1888
1142.753322 80.718 -176.1945
1151.034184 80.737 -176.2005
1159.375052 80.755 -176.2054
1167.776361 80.771 -176.2078
1176.238550 80.784 -176.2061
1184.762060 80.796 -176.1986
1193.347334 80.806 -176.1835
1201.994821 80.813 -176.1589
1210.704971 80.820 -176.1224
1219.478238 80.825 -176.0715
1228.315080 80.829 -176.0040
1237.215957 80.833 -175.9180
1246.181334 80.837 -175.8126
1255.211678 80.842 -175.6882
1264.307459 80.848 -175.5461
1273.469152 80.855 -175.3885
1282.697235 80.865 -175.2180
1291.992188 80.877 -175.0375
1301.354495 80.890 -174.8495
1310.784647 80.906 -174.6561
1320.283132 80.923 -174.4592
1329.850448 80.942 -174.2606
1339.487093 80.962 -174.0616
1349.193569 80.985 -173.8638
1358.970381 81.008 -173.6684
1368.818041 81.034 -173.4767
1378.737061 81.060 -173.2895
1388.727958 81.088 -173.1070
1398.791253 81.118 -172.9283
1408.927471 81.148 -172.7520
1419.137140 81.180 -172.5765
1429.420793 81.214 -172.4007
1439.778965 81.250 -172.2242
1450.212197 81.288 -172.0477
1460.721033 81.328 -171.8724
1471.306019 81.370 -171.6994
1481.967709 81.413 -171.5298
1492.706658 81.458 -171.3642
1503.523426 81.504 -171.2030
1514.418576 81.551 -171.0466
1525.392678 81.597 -170.8955
1536.446302 81.642 -170.7500
1547.580025 81.685 -170.6103
1558.794428 81.725 -170.4758
1570.090095 81.762 -170.3448
1581.467615 81.795 -170.2147
1592.927581 81.824 -170.0818
1604.470591 81.848 -169.9422
1616.097246 81.866 -169.7921
1627.808153 81.881 -169.6278
1639.603922 81.891 -169.4466
1651.485168 81.897 -169.2469
1663.452510 81.900 -169.0281
1675.506573 81.901 -168.7908
1687.647984 81.899 -168.5365
1699.877377 81.897 -168.2670
1712.195390 81.894 -167.9851
1724.602663 81.890 -167.6937
1737.099845 81.887 -167.3961
1749.687587 81.884 -167.0960
1762.366544 81.881 -166.7964
1775.137379 81.878 -166.4997
1788.000756 81.874 -166.2072
1800.957346 81.871 -165.9197
1814.007826 81.866 -165.6371
1827.152874 81.860 -165.3585
1840.393177 81.853 -165.0821
1853.729425 81.843 -164.8055
1867.162312 81.831 -164.5262
1880.692540 81.817 -164.2422
1894.320813 81.801 -163.9525
1908.047843 81.783 -163.6569
1921.874344 81.763 -163.3563
1935.801038 81.742 -163.0518
1949.828650 81.719 -162.7448
1963.957912 81.695 -162.4364
1978.189561 81.669 -162.1277
1992.524338 81.642 -161.8200
2006.962991 81.614 -161.5143
2021.506272 81.584 -161.2114
2036.154940 81.553 -160.9114
2050.909758 81.521 -160.6139
2065.771495 81.488 -160.3189
2080.740927 81.455 -160.0269
2095.818833 81.421 -159.7386
2111.006001 81.387 -159.4554
2126.303220 81.353 -159.1777
2141.711290 81.319 -158.9048
2157.231013 81.284 -158.6348
2172.863198 81.250 -158.3647
2188.608660 81.216 -158.0920
2204.468221 81.183 -157.8144
2220.442706 81.151 -157.5304
2236.532950 81.121 -157.2389
2252.739789 81.093 -156.9399
2269.064070 81.069 -156.6343
2285.506644 81.049 -156.3249
2302.068367 81.034 -156.0163
2318.750104 81.023 -155.7146
2335.552723 81.019 -155.4264
2352.477101 81.019 -155.1580
2369.524119 81.024 -154.9147
2386.694668 81.033 -154.7004
2403.989641 81.045 -154.5168
2421.409941 81.059 -154.3631
2438.956476 81.075 -154.2361
2456.630160 81.092 -154.1307
2474.431915 81.109 -154.0405
2492.362668 81.127 -153.9597
2510.423356 81.146 -153.8836
2528.614918 81.167 -153.8087
2546.938304 81.189 -153.7327
2565.394469 81.214 -153.6543
2583.984375 81.242 -153.5729
2602.708991 81.273 -153.4885
2621.569293 81.308 -153.4014
2640.566265 81.347 -153.3120
2659.700897 81.389 -153.2206
2678.974186 81.435 -153.1281
2698.387137 81.486 -153.0355
2717.940763 81.540 -152.9444
2737.636082 81.599 -152.8564
2757.474121 81.662 -152.7732
2777.455915 81.728 -152.6971
2797.582506 81.798 -152.6305
2817.854942 81.871 -152.5756
2838.274281 81.947 -152.5340
2858.841586 82.024 -152.5066
2879.557931 82.102 -152.4940
2900.424394 82.181 -152.4963
2921.442065 82.259 -152.5136
2942.612039 82.337 -152.5463
2963.935418 82.413 -152.5948
2985.413316 82.486 -152.6590
3007.046852 82.557 -152.7386
3028.837153 82.623 -152.8325
3050.785356 82.685 -152.9384
3072.892604 82.740 -153.0539
3095.160050 82.790 -153.1760
3117.588856 82.833 -153.3017
3140.180190 82.869 -153.4284
3162.935230 82.898 -153.5538
3185.855163 82.921 -153.6767
3208.941182 82.936 -153.7969
3232.194493 82.944 -153.9150
3255.616307 82.946 -154.0317
3279.207844 82.940 -154.1474
