* Measurement data measured by REW V5.31.3
* Source: EXCL: Headset (USB-C to 3.5mm Headphone Jack Adapter), MICROPHONE (Master Volume), 0, volume: 0.750
* Format: 256k Log Swept Sine, 1 sweep at -12.0 dBFS with no timing reference
* Dated: Apr 7, 2025 12:13:58 PM
* REW Settings:
*  C-weighting compensation: Off
*  Target level: 75.0 dB
* Note: ; 
* Measurement: HD6XX (Back) L2
* Smoothing: 1/6 octave
* Frequency Step: 96 ppo
* Start Frequency: 20.0 Hz
*
* Freq(Hz) SPL(dB) Phase(degrees)
20.187378 79.190 -95.0914
20.333664 79.204 -95.2379
20.481010 79.224 -95.4301
20.629424 79.250 -95.6576
20.778913 79.283 -95.9103
20.929486 79.324 -96.1801
21.081150 79.375 -96.4617
21.233912 79.435 -96.7531
21.387782 79.505 -97.0548
21.542767 79.583 -97.3695
21.698874 79.669 -97.7005
21.856113 79.761 -98.0506
22.014492 79.856 -98.4213
22.174018 79.953 -98.8117
22.334700 80.048 -99.2186
22.496546 80.141 -99.6366
22.659566 80.229 -100.0589
22.823766 80.311 -100.4783
22.989157 80.387 -100.8880
23.155745 80.458 -101.2835
23.323542 80.524 -101.6629
23.492554 80.587 -102.0280
23.662790 80.648 -102.3843
23.834261 80.708 -102.7402
24.006973 80.769 -103.1068
24.180938 80.832 -103.4955
24.356163 80.897 -103.9170
24.532658 80.964 -104.3792
24.710431 81.031 -104.8862
24.889493 81.098 -105.4372
25.069853 81.164 -106.0264
25.251519 81.227 -106.6435
25.434502 81.287 -107.2750
25.618811 81.343 -107.9053
25.804456 81.395 -108.5180
25.991445 81.442 -109.0983
26.179790 81.485 -109.6334
26.369500 81.525 -110.1143
26.560584 81.562 -110.5356
26.753053 81.596 -110.8967
26.946917 81.628 -111.2003
27.142185 81.659 -111.4529
27.338869 81.688 -111.6631
27.536977 81.717 -111.8410
27.736522 81.744 -111.9974
27.937512 81.772 -112.1427
28.139959 81.799 -112.2864
28.343872 81.826 -112.4369
28.549264 81.854 -112.6008
28.756143 81.884 -112.7834
28.964522 81.916 -112.9885
29.174411 81.952 -113.2187
29.385821 81.991 -113.4754
29.598763 82.035 -113.7591
29.813248 82.083 -114.0693
30.029287 82.135 -114.4044
30.246891 82.191 -114.7619
30.466073 82.250 -115.1380
30.686842 82.311 -115.5277
30.909212 82.374 -115.9251
31.133193 82.439 -116.3235
31.358797 82.504 -116.7163
31.586035 82.572 -117.0977
31.814921 82.641 -117.4636
32.045465 82.714 -117.8121
32.277680 82.790 -118.1441
32.511577 82.870 -118.4632
32.747169 82.956 -118.7751
32.984469 83.045 -119.0864
33.223488 83.138 -119.4038
33.464239 83.233 -119.7324
33.706735 83.329 -120.0752
33.950987 83.425 -120.4328
34.197010 83.518 -120.8038
34.444816 83.610 -121.1854
34.694417 83.700 -121.5742
34.945827 83.787 -121.9673
35.199059 83.873 -122.3623
35.454126 83.958 -122.7578
35.711041 84.043 -123.1527
35.969818 84.127 -123.5459
36.230470 84.211 -123.9357
36.493011 84.295 -124.3199
36.757455 84.377 -124.6955
37.023814 84.459 -125.0597
37.292104 84.538 -125.4105
37.562338 84.616 -125.7475
37.834530 84.692 -126.0725
38.108695 84.766 -126.3899
38.384846 84.840 -126.7061
38.662999 84.912 -127.0289
38.943167 84.984 -127.3658
39.225365 85.056 -127.7225
39.509608 85.128 -128.1013
39.795911 85.199 -128.5002
40.084289 85.270 -128.9130
40.374756 85.339 -129.3301
40.667328 85.408 -129.7405
40.962020 85.475 -130.1341
41.258848 85.540 -130.5034
41.557827 85.602 -130.8448
41.858972 85.660 -131.1581
42.162299 85.715 -131.4455
42.467824 85.764 -131.7105
42.775564 85.809 -131.9563
43.085533 85.849 -132.1862
43.397749 85.886 -132.4033
43.712227 85.923 -132.6119
44.028983 85.960 -132.8178
44.348036 85.999 -133.0279
44.669400 86.043 -133.2495
44.993093 86.091 -133.4881
45.319131 86.142 -133.7471
45.647532 86.195 -134.0271
45.978313 86.248 -134.3267
46.311491 86.300 -134.6436
46.647083 86.349 -134.9759
46.985107 86.393 -135.3221
47.325581 86.431 -135.6816
47.668521 86.463 -136.0533
48.013947 86.490 -136.4360
48.361876 86.511 -136.8276
48.712326 86.529 -137.2259
49.065315 86.546 -137.6285
49.420863 86.565 -138.0335
49.778987 86.586 -138.4390
50.139706 86.612 -138.8428
50.503039 86.643 -139.2425
50.869005 86.677 -139.6355
51.237623 86.712 -140.0193
51.608912 86.748 -140.3922
51.982891 86.782 -140.7538
52.359580 86.812 -141.1056
52.739000 86.837 -141.4507
53.121168 86.858 -141.7937
53.506106 86.874 -142.1398
53.893833 86.888 -142.4939
54.284370 86.901 -142.8596
54.677737 86.913 -143.2390
55.073955 86.926 -143.6327
55.473043 86.940 -144.0404
55.875024 86.957 -144.4612
56.279917 86.977 -144.8941
56.687745 86.999 -145.3377
57.098527 87.024 -145.7901
57.512287 87.051 -146.2483
57.929045 87.082 -146.7080
58.348822 87.116 -147.1629
58.771642 87.152 -147.6049
59.197525 87.189 -148.0243
59.626495 87.227 -148.4113
60.058573 87.266 -148.7580
60.493782 87.304 -149.0612
60.932145 87.342 -149.3236
61.373685 87.382 -149.5528
61.818424 87.422 -149.7598
62.266386 87.465 -149.9553
62.717593 87.509 -150.1484
63.172071 87.555 -150.3456
63.629842 87.603 -150.5510
64.090930 87.652 -150.7671
64.555359 87.703 -150.9959
65.023154 87.754 -151.2391
65.494339 87.805 -151.4977
65.968938 87.857 -151.7730
66.446976 87.909 -152.0651
66.928478 87.961 -152.3741
67.413469 88.013 -152.6992
67.901975 88.067 -153.0392
68.394021 88.120 -153.3924
68.889632 88.173 -153.7569
69.388835 88.224 -154.1299
69.891655 88.274 -154.5080
70.398118 88.322 -154.8873
70.908252 88.366 -155.2640
71.422083 88.408 -155.6346
71.939636 88.445 -155.9968
72.460941 88.480 -156.3500
72.986023 88.512 -156.6945
73.514909 88.541 -157.0322
74.047629 88.568 -157.3651
74.584208 88.592 -157.6954
75.124676 88.615 -158.0250
75.669061 88.635 -158.3552
76.217390 88.654 -158.6869
76.769692 88.671 -159.0206
77.325997 88.685 -159.3567
77.886333 88.698 -159.6954
78.450730 88.710 -160.0368
79.019216 88.721 -160.3813
79.591822 88.730 -160.7288
80.168577 88.739 -161.0793
80.749512 88.747 -161.4329
81.334656 88.755 -161.7893
81.924040 88.762 -162.1483
82.517696 88.770 -162.5094
83.115653 88.777 -162.8716
83.717943 88.785 -163.2341
84.324598 88.793 -163.5956
84.935649 88.801 -163.9555
85.551128 88.809 -164.3130
86.171066 88.817 -164.6681
86.795497 88.824 -165.0208
87.424453 88.830 -165.3714
88.057967 88.835 -165.7205
88.696071 88.839 -166.0685
89.338800 88.842 -166.4162
89.986185 88.844 -166.7644
90.638262 88.845 -167.1139
91.295065 88.844 -167.4652
91.956626 88.843 -167.8186
92.622982 88.842 -168.1741
93.294166 88.840 -168.5312
93.970214 88.838 -168.8895
94.651161 88.835 -169.2483
95.337042 88.833 -169.6068
96.027894 88.831 -169.9646
96.723752 88.829 -170.3210
97.424652 88.827 -170.6752
98.130631 88.825 -171.0268
98.841726 88.824 -171.3752
99.557974 88.822 -171.7200
100.279412 88.821 -172.0610
101.006078 88.820 -172.3981
101.738010 88.819 -172.7315
102.475245 88.820 -173.0616
103.217823 88.821 -173.3890
103.965782 88.824 -173.7143
104.719161 88.828 -174.0380
105.477999 88.833 -174.3602
106.242336 88.839 -174.6807
107.012212 88.847 -174.9995
107.787666 88.855 -175.3163
108.568740 88.864 -175.6306
109.355474 88.874 -175.9421
110.147909 88.884 -176.2503
110.946086 88.895 -176.5555
111.750047 88.906 -176.8581
112.559834 88.918 -177.1596
113.375489 88.930 -177.4615
114.197055 88.944 -177.7654
115.024574 88.958 -178.0723
115.858089 88.972 -178.3825
116.697645 88.987 -178.6959
117.543284 89.002 -179.0120
118.395051 89.017 -179.3304
119.252990 89.031 -179.6507
120.117147 89.045 -179.9723
120.987565 89.058 179.7052
121.864291 89.070 179.3823
122.747370 89.081 179.0596
123.636848 89.090 178.7374
124.532771 89.099 178.4160
125.435187 89.106 178.0957
126.344142 89.113 177.7763
127.259684 89.118 177.4574
128.181860 89.122 177.1383
129.110718 89.126 176.8183
130.046308 89.128 176.4967
130.988677 89.129 176.1735
131.937875 89.130 175.8493
132.893951 89.129 175.5258
133.856956 89.128 175.2048
134.826938 89.125 174.8889
135.803950 89.122 174.5797
136.788041 89.117 174.2785
137.779264 89.112 173.9852
138.777669 89.105 173.6989
139.783309 89.097 173.4181
140.796237 89.089 173.1413
141.816504 89.078 172.8669
142.844165 89.067 172.5938
143.879273 89.054 172.3208
144.921881 89.039 172.0472
145.972045 89.023 171.7724
147.029819 89.007 171.4958
148.095257 88.989 171.2172
149.168417 88.972 170.9364
150.249353 88.954 170.6538
151.338121 88.936 170.3702
152.434780 88.918 170.0866
153.539385 88.900 169.8043
154.651995 88.883 169.5240
155.772667 88.866 169.2463
156.901460 88.849 168.9707
158.038432 88.832 168.6964
159.183644 88.816 168.4225
160.337154 88.799 168.1483
161.499023 88.783 167.8733
162.669312 88.766 167.5977
163.848081 88.750 167.3215
165.035392 88.734 167.0450
166.231306 88.717 166.7682
167.435887 88.700 166.4913
168.649196 88.683 166.2142
169.871298 88.666 165.9375
171.102255 88.648 165.6617
172.342133 88.630 165.3875
173.590995 88.611 165.1157
174.848907 88.592 164.8470
176.115934 88.572 164.5820
177.392143 88.553 164.3210
178.677599 88.532 164.0635
179.972371 88.512 163.8092
181.276525 88.491 163.5573
182.590129 88.470 163.3073
183.913252 88.449 163.0590
185.245964 88.428 162.8121
186.588332 88.406 162.5667
187.940428 88.384 162.3229
189.302322 88.361 162.0807
190.674085 88.338 161.8397
192.055788 88.315 161.5995
193.447503 88.292 161.3594
194.849303 88.268 161.1191
196.261262 88.244 160.8784
197.683452 88.219 160.6370
199.115948 88.195 160.3951
200.558824 88.170 160.1536
202.012156 88.145 159.9134
203.476019 88.119 159.6759
204.950490 88.094 159.4422
206.435646 88.068 159.2127
207.931564 88.043 158.9872
209.438322 88.017 158.7653
210.955998 87.991 158.5465
212.484672 87.965 158.3303
214.024424 87.939 158.1165
215.575333 87.914 157.9048
217.137481 87.889 157.6953
218.710948 87.864 157.4883
220.295818 87.841 157.2841
221.892172 87.818 157.0826
223.500094 87.796 156.8837
225.119668 87.776 156.6865
226.750978 87.758 156.4905
228.394109 87.741 156.2952
230.049147 87.726 156.1007
231.716178 87.712 155.9075
233.395289 87.701 155.7160
235.086567 87.690 155.5269
236.790102 87.682 155.3406
238.505980 87.675 155.1575
240.234293 87.669 154.9778
241.975130 87.664 154.8018
243.728581 87.660 154.6293
245.494739 87.656 154.4603
247.273695 87.653 154.2947
249.065542 87.650 154.1326
250.870374 87.646 153.9739
252.688284 87.642 153.8185
254.519367 87.637 153.6659
256.363720 87.631 153.5150
258.221437 87.625 153.3644
260.092616 87.619 153.2119
261.977354 87.612 153.0549
263.875750 87.604 152.8909
265.787903 87.597 152.7185
267.713911 87.589 152.5381
269.653877 87.581 152.3515
271.607900 87.574 152.1610
273.576083 87.566 151.9689
275.558528 87.559 151.7766
277.555338 87.553 151.5851
279.566619 87.546 151.3948
281.592474 87.540 151.2065
283.633009 87.533 151.0211
285.688331 87.527 150.8398
287.758546 87.521 150.6636
289.843763 87.516 150.4931
291.944090 87.511 150.3286
294.059638 87.506 150.1701
296.190515 87.502 150.0170
298.336833 87.499 149.8685
300.498705 87.496 149.7234
302.676243 87.493 149.5807
304.869559 87.491 149.4395
307.078770 87.489 149.2991
309.303989 87.488 149.1596
311.545334 87.486 149.0210
313.802919 87.485 148.8836
316.076865 87.485 148.7479
318.367288 87.485 148.6139
320.674309 87.485 148.4816
322.998047 87.487 148.3508
325.338624 87.488 148.2213
327.696162 87.491 148.0927
330.070783 87.493 147.9645
332.462612 87.495 147.8362
334.871773 87.497 147.7073
337.298392 87.499 147.5772
339.742595 87.499 147.4458
342.204510 87.498 147.3130
344.684265 87.496 147.1791
347.181989 87.492 147.0442
349.697813 87.486 146.9081
352.231868 87.479 146.7710
354.784285 87.471 146.6332
357.355198 87.461 146.4957
359.944741 87.450 146.3593
362.553049 87.439 146.2249
365.180258 87.427 146.0933
367.826505 87.415 145.9644
370.491927 87.402 145.8382
373.176665 87.389 145.7139
375.880856 87.376 145.5910
378.604644 87.362 145.4688
381.348169 87.348 145.3468
384.111575 87.333 145.2249
386.895006 87.318 145.1029
389.698607 87.303 144.9809
392.522524 87.287 144.8589
395.366904 87.270 144.7370
398.231895 87.253 144.6154
401.117648 87.235 144.4946
404.024312 87.216 144.3748
406.952038 87.196 144.2562
409.900981 87.175 144.1389
412.871292 87.153 144.0228
415.863128 87.129 143.9076
418.876643 87.104 143.7934
421.911996 87.078 143.6801
424.969344 87.051 143.5677
428.048847 87.022 143.4561
431.150666 86.993 143.3452
434.274961 86.962 143.2348
437.421897 86.931 143.1252
440.591636 86.899 143.0162
443.784345 86.867 142.9084
447.000189 86.833 142.8022
450.239337 86.799 142.6982
453.501956 86.765 142.5970
456.788219 86.729 142.4987
460.098294 86.693 142.4029
463.432356 86.657 142.3085
466.790578 86.621 142.2144
470.173135 86.585 142.1194
473.580203 86.550 142.0228
477.011961 86.515 141.9244
480.468586 86.482 141.8242
483.950259 86.449 141.7225
487.457163 86.417 141.6198
490.989478 86.387 141.5164
494.547390 86.357 141.4130
498.131084 86.329 141.3100
501.740748 86.302 141.2078
505.376568 86.276 141.1069
509.038735 86.252 141.0072
512.727439 86.229 140.9089
516.442874 86.208 140.8116
520.185232 86.189 140.7152
523.954708 86.172 140.6191
527.751500 86.157 140.5229
531.575805 86.143 140.4261
535.427822 86.132 140.3281
539.307753 86.122 140.2285
543.215800 86.115 140.1270
547.152165 86.109 140.0237
551.117055 86.105 139.9194
555.110677 86.103 139.8148
559.133237 86.103 139.7107
563.184947 86.104 139.6080
567.266018 86.106 139.5075
571.376661 86.110 139.4100
575.517092 86.115 139.3159
579.687526 86.121 139.2256
583.888181 86.128 139.1390
588.119275 86.135 139.0561
592.381030 86.142 138.9765
596.673667 86.150 138.8997
600.997410 86.157 138.8252
605.352485 86.163 138.7523
609.739119 86.169 138.6802
614.157540 86.174 138.6080
618.607979 86.178 138.5350
623.090667 86.182 138.4604
627.605839 86.184 138.3836
632.153730 86.185 138.3043
636.734576 86.185 138.2222
641.348617 86.184 138.1376
645.996094 86.181 138.0509
650.677248 86.177 137.9629
655.392323 86.171 137.8745
660.141566 86.165 137.7862
664.925224 86.157 137.6985
669.743546 86.148 137.6113
674.596784 86.138 137.5240
679.485191 86.128 137.4362
684.409020 86.116 137.3472
689.368530 86.104 137.2571
694.363979 86.091 137.1658
699.395626 86.076 137.0739
704.463736 86.060 136.9823
709.568570 86.043 136.8920
714.710396 86.024 136.8041
719.889483 86.004 136.7196
725.106099 85.982 136.6390
730.360516 85.959 136.5623
735.653010 85.936 136.4893
740.983855 85.911 136.4193
746.353329 85.885 136.3517
751.761713 85.858 136.2862
757.209288 85.831 136.2221
762.696339 85.802 136.1592
768.223151 85.773 136.0970
773.790013 85.744 136.0347
779.397214 85.714 135.9714
785.045047 85.684 135.9057
790.733808 85.654 135.8362
796.463791 85.625 135.7612
802.235296 85.596 135.6790
808.048623 85.568 135.5882
813.904077 85.540 135.4875
819.801961 85.513 135.3764
825.742584 85.485 135.2546
831.726255 85.458 135.1226
837.753287 85.430 134.9811
843.823992 85.400 134.8317
849.938689 85.370 134.6765
856.097695 85.337 134.5180
862.301332 85.303 134.3600
868.549922 85.267 134.2067
874.843793 85.228 134.0630
881.183272 85.188 133.9341
887.568689 85.146 133.8249
894.000378 85.104 133.7399
900.478673 85.061 133.6825
907.003913 85.020 133.6547
913.576437 84.980 133.6567
920.196588 84.944 133.6872
926.864712 84.911 133.7427
933.581156 84.884 133.8189
940.346270 84.862 133.9105
947.160407 84.847 134.0117
954.023921 84.838 134.1173
960.937172 84.835 134.2221
967.900519 84.839 134.3216
974.914325 84.849 134.4121
981.978956 84.864 134.4910
989.094780 84.885 134.5565
996.262169 84.910 134.6077
1003.481495 84.939 134.6442
1010.753136 84.972 134.6660
1018.077470 85.008 134.6734
1025.454879 85.047 134.6664
1032.885748 85.089 134.6456
1040.370463 85.133 134.6111
1047.909417 85.179 134.5632
1055.503000 85.227 134.5024
1063.151610 85.276 134.4294
1070.855645 85.325 134.3451
1078.615506 85.374 134.2511
1086.431599 85.423 134.1495
1094.304330 85.473 134.0422
1102.234110 85.521 133.9308
1110.221353 85.569 133.8168
1118.266475 85.617 133.7006
1126.369895 85.663 133.5824
1134.532035 85.709 133.4620
1142.753322 85.755 133.3390
1151.034184 85.799 133.2131
1159.375052 85.842 133.0849
1167.776361 85.884 132.9552
1176.238550 85.925 132.8256
1184.762060 85.965 132.6978
1193.347334 86.005 132.5734
1201.994821 86.044 132.4536
1210.704971 86.083 132.3386
1219.478238 86.122 132.2280
1228.315080 86.162 132.1205
1237.215957 86.203 132.0146
1246.181334 86.245 131.9087
1255.211678 86.288 131.8014
1264.307459 86.331 131.6917
1273.469152 86.375 131.5790
1282.697235 86.420 131.4632
1291.992188 86.464 131.3441
1301.354495 86.509 131.2219
1310.784647 86.554 131.0964
1320.283132 86.599 130.9673
1329.850448 86.643 130.8342
1339.487093 86.688 130.6967
1349.193569 86.732 130.5550
1358.970381 86.775 130.4094
1368.818041 86.819 130.2610
1378.737061 86.862 130.1108
1388.727958 86.905 129.9601
1398.791253 86.947 129.8099
1408.927471 86.990 129.6613
1419.137140 87.033 129.5149
1429.420793 87.077 129.3716
1439.778965 87.120 129.2323
1450.212197 87.164 129.0987
1460.721033 87.208 128.9727
1471.306019 87.252 128.8561
1481.967709 87.296 128.7507
1492.706658 87.341 128.6573
1503.523426 87.387 128.5762
1514.418576 87.433 128.5070
1525.392678 87.479 128.4491
1536.446302 87.525 128.4019
1547.580025 87.572 128.3651
1558.794428 87.617 128.3383
1570.090095 87.662 128.3209
1581.467615 87.706 128.3114
1592.927581 87.749 128.3081
1604.470591 87.790 128.3083
1616.097246 87.829 128.3093
1627.808153 87.867 128.3082
1639.603922 87.901 128.3032
1651.485168 87.932 128.2938
1663.452510 87.960 128.2813
1675.506573 87.983 128.2684
1687.647984 88.002 128.2591
1699.877377 88.018 128.2575
1712.195390 88.030 128.2673
1724.602663 88.040 128.2910
1737.099845 88.049 128.3301
1749.687587 88.056 128.3845
1762.366544 88.063 128.4535
1775.137379 88.071 128.5356
1788.000756 88.079 128.6284
1800.957346 88.088 128.7290
1814.007826 88.098 128.8335
1827.152874 88.109 128.9379
1840.393177 88.121 129.0389
1853.729425 88.134 129.1339
1867.162312 88.146 129.2216
1880.692540 88.157 129.3015
1894.320813 88.167 129.3738
1908.047843 88.175 129.4396
1921.874344 88.181 129.5001
1935.801038 88.185 129.5568
1949.828650 88.187 129.6115
1963.957912 88.186 129.6659
1978.189561 88.184 129.7209
1992.524338 88.180 129.7764
2006.962991 88.175 129.8310
2021.506272 88.170 129.8823
2036.154940 88.164 129.9271
2050.909758 88.158 129.9623
2065.771495 88.153 129.9851
2080.740927 88.147 129.9935
2095.818833 88.141 129.9865
2111.006001 88.134 129.9634
2126.303220 88.127 129.9247
2141.711290 88.120 129.8718
2157.231013 88.111 129.8069
2172.863198 88.103 129.7328
2188.608660 88.093 129.6520
2204.468221 88.084 129.5659
2220.442706 88.076 129.4749
2236.532950 88.068 129.3784
2252.739789 88.062 129.2750
2269.064070 88.056 129.1633
2285.506644 88.052 129.0417
2302.068367 88.049 128.9095
2318.750104 88.047 128.7665
2335.552723 88.045 128.6135
2352.477101 88.045 128.4517
2369.524119 88.045 128.2831
2386.694668 88.045 128.1099
2403.989641 88.047 127.9339
2421.409941 88.050 127.7567
2438.956476 88.054 127.5793
2456.630160 88.061 127.4030
2474.431915 88.069 127.2278
2492.362668 88.080 127.0535
2510.423356 88.095 126.8791
2528.614918 88.112 126.7035
2546.938304 88.132 126.5255
2565.394469 88.155 126.3445
2583.984375 88.182 126.1609
2602.708991 88.211 125.9755
2621.569293 88.242 125.7896
2640.566265 88.277 125.6049
2659.700897 88.314 125.4223
2678.974186 88.354 125.2421
2698.387137 88.398 125.0642
2717.940763 88.444 124.8878
2737.636082 88.494 124.7117
2757.474121 88.548 124.5346
2777.455915 88.604 124.3546
2797.582506 88.663 124.1693
2817.854942 88.724 123.9760
2838.274281 88.788 123.7725
2858.841586 88.852 123.5572
2879.557931 88.916 123.3292
2900.424394 88.980 123.0887
2921.442065 89.043 122.8361
2942.612039 89.104 122.5725
2963.935418 89.161 122.2996
2985.413316 89.216 122.0192
3007.046852 89.266 121.7335
3028.837153 89.311 121.4446
3050.785356 89.351 121.1545
3072.892604 89.385 120.8655
3095.160050 89.413 120.5795
3117.588856 89.435 120.2982
3140.180190 89.449 120.0235
3162.935230 89.456 119.7567
3185.855163 89.456 119.4990
3208.941182 89.448 119.2512
3232.194493 89.432 119.0138
3255.616307 89.409 118.7872
3279.207844 89.378 118.5720
3302.970336 89.340 118.3688
3326.905021 89.293 118.1785
3351.013146 89.239 118.0020
3375.295969 89.178 117.8407
3399.754755 89.109 117.6960
3424.390779 89.034 117.5693
3449.205326 88.953 117.4623
3474.199690 88.866 117.3765
3499.375173 88.775 117.3130
