* Measurement data measured by REW V5.31.3
* Source: EXCL: Headset (USB-C to 3.5mm Headphone Jack Adapter), MICROPHONE (Master Volume), 0, volume: 0.750
* Format: 256k Log Swept Sine, 1 sweep at -12.0 dBFS with no timing reference
* Dated: Apr 7, 2025 12:05:50 PM
* REW Settings:
*  C-weighting compensation: Off
*  Target level: 75.0 dB
* Note: ; 
* Measurement: HD6XX L6
* Smoothing: 1/6 octave
* Frequency Step: 96 ppo
* Start Frequency: 20.0 Hz
*
* Freq(Hz) SPL(dB) Phase(degrees)
20.187378 79.325 -95.5911
20.333664 79.347 -95.6948
20.481010 79.376 -95.8362
20.629424 79.411 -96.0142
20.778913 79.452 -96.2276
20.929486 79.498 -96.4752
21.081150 79.547 -96.7559
21.233912 79.601 -97.0684
21.387782 79.658 -97.4113
21.542767 79.719 -97.7830
21.698874 79.785 -98.1814
21.856113 79.854 -98.6038
22.014492 79.928 -99.0470
22.174018 80.007 -99.5069
22.334700 80.090 -99.9787
22.496546 80.176 -100.4569
22.659566 80.266 -100.9355
22.823766 80.357 -101.4077
22.989157 80.449 -101.8668
23.155745 80.540 -102.3060
23.323542 80.628 -102.7189
23.492554 80.712 -103.0997
23.662790 80.790 -103.4438
23.834261 80.862 -103.7477
24.006973 80.926 -104.0099
24.180938 80.983 -104.2305
24.356163 81.031 -104.4119
24.532658 81.072 -104.5587
24.710431 81.106 -104.6776
24.889493 81.134 -104.7774
25.069853 81.157 -104.8682
25.251519 81.176 -104.9613
25.434502 81.193 -105.0681
25.618811 81.209 -105.1993
25.804456 81.224 -105.3642
25.991445 81.240 -105.5694
26.179790 81.257 -105.8188
26.369500 81.275 -106.1133
26.560584 81.295 -106.4503
26.753053 81.316 -106.8246
26.946917 81.339 -107.2287
27.142185 81.363 -107.6542
27.338869 81.389 -108.0919
27.536977 81.416 -108.5336
27.736522 81.445 -108.9722
27.937512 81.474 -109.4024
28.139959 81.504 -109.8208
28.343872 81.536 -110.2261
28.549264 81.568 -110.6186
28.756143 81.602 -110.9998
28.964522 81.637 -111.3721
29.174411 81.674 -111.7382
29.385821 81.712 -112.1009
29.598763 81.754 -112.4629
29.813248 81.799 -112.8266
30.029287 81.848 -113.1939
30.246891 81.901 -113.5661
30.466073 81.959 -113.9441
30.686842 82.022 -114.3279
30.909212 82.089 -114.7162
31.133193 82.160 -115.1071
31.358797 82.233 -115.4973
31.586035 82.309 -115.8826
31.814921 82.386 -116.2583
32.045465 82.464 -116.6199
32.277680 82.543 -116.9632
32.511577 82.622 -117.2854
32.747169 82.703 -117.5853
32.984469 82.784 -117.8639
33.223488 82.868 -118.1240
33.464239 82.954 -118.3702
33.706735 83.044 -118.6082
33.950987 83.137 -118.8441
34.197010 83.233 -119.0839
34.444816 83.333 -119.3327
34.694417 83.437 -119.5948
34.945827 83.542 -119.8731
35.199059 83.650 -120.1697
35.454126 83.760 -120.4859
35.711041 83.870 -120.8219
35.969818 83.979 -121.1776
36.230470 84.088 -121.5515
36.493011 84.194 -121.9414
36.757455 84.298 -122.3432
37.023814 84.398 -122.7519
37.292104 84.494 -123.1609
37.562338 84.586 -123.5629
37.834530 84.675 -123.9508
38.108695 84.760 -124.3184
38.384846 84.843 -124.6614
38.662999 84.924 -124.9781
38.943167 85.005 -125.2699
39.225365 85.084 -125.5405
39.509608 85.162 -125.7960
39.795911 85.238 -126.0432
40.084289 85.312 -126.2890
40.374756 85.383 -126.5385
40.667328 85.449 -126.7950
40.962020 85.511 -127.0593
41.258848 85.567 -127.3300
41.557827 85.619 -127.6043
41.858972 85.668 -127.8789
42.162299 85.714 -128.1514
42.467824 85.758 -128.4204
42.775564 85.802 -128.6865
43.085533 85.846 -128.9515
43.397749 85.889 -129.2179
43.712227 85.932 -129.4885
44.028983 85.973 -129.7652
44.348036 86.012 -130.0495
44.669400 86.049 -130.3422
44.993093 86.083 -130.6442
45.319131 86.116 -130.9566
45.647532 86.147 -131.2803
45.978313 86.178 -131.6163
46.311491 86.210 -131.9640
46.647083 86.241 -132.3214
46.985107 86.274 -132.6842
47.325581 86.306 -133.0470
47.668521 86.340 -133.4037
48.013947 86.372 -133.7491
48.361876 86.405 -134.0800
48.712326 86.437 -134.3957
49.065315 86.468 -134.6977
49.420863 86.497 -134.9892
49.778987 86.525 -135.2738
50.139706 86.551 -135.5546
50.503039 86.574 -135.8334
50.869005 86.596 -136.1110
51.237623 86.616 -136.3871
51.608912 86.633 -136.6610
51.982891 86.649 -136.9323
52.359580 86.664 -137.2003
52.739000 86.678 -137.4650
53.121168 86.692 -137.7266
53.506106 86.706 -137.9854
53.893833 86.721 -138.2415
54.284370 86.737 -138.4953
54.677737 86.754 -138.7469
55.073955 86.774 -138.9962
55.473043 86.796 -139.2429
55.875024 86.821 -139.4867
56.279917 86.848 -139.7272
56.687745 86.878 -139.9642
57.098527 86.911 -140.1980
57.512287 86.946 -140.4293
57.929045 86.984 -140.6602
58.348822 87.024 -140.8939
58.771642 87.066 -141.1346
59.197525 87.110 -141.3867
59.626495 87.153 -141.6538
60.058573 87.196 -141.9378
60.493782 87.238 -142.2386
60.932145 87.279 -142.5544
61.373685 87.319 -142.8827
61.818424 87.358 -143.2205
62.266386 87.397 -143.5651
62.717593 87.436 -143.9138
63.172071 87.476 -144.2643
63.629842 87.518 -144.6145
64.090930 87.561 -144.9630
64.555359 87.605 -145.3091
65.023154 87.652 -145.6528
65.494339 87.700 -145.9945
65.968938 87.751 -146.3354
66.446976 87.803 -146.6763
66.928478 87.856 -147.0179
67.413469 87.910 -147.3603
67.901975 87.965 -147.7029
68.394021 88.018 -148.0448
68.889632 88.071 -148.3846
69.388835 88.122 -148.7210
69.891655 88.171 -149.0527
70.398118 88.218 -149.3789
70.908252 88.261 -149.6990
71.422083 88.301 -150.0131
71.939636 88.339 -150.3216
72.460941 88.373 -150.6254
72.986023 88.404 -150.9258
73.514909 88.432 -151.2243
74.047629 88.457 -151.5226
74.584208 88.480 -151.8220
75.124676 88.500 -152.1236
75.669061 88.518 -152.4279
76.217390 88.533 -152.7348
76.769692 88.547 -153.0441
77.325997 88.559 -153.3552
77.886333 88.569 -153.6678
78.450730 88.578 -153.9817
79.019216 88.585 -154.2966
79.591822 88.592 -154.6122
80.168577 88.598 -154.9279
80.749512 88.604 -155.2433
81.334656 88.610 -155.5579
81.924040 88.615 -155.8712
82.517696 88.620 -156.1832
83.115653 88.624 -156.4940
83.717943 88.628 -156.8037
84.324598 88.632 -157.1126
84.935649 88.635 -157.4208
85.551128 88.637 -157.7281
86.171066 88.639 -158.0348
86.795497 88.641 -158.3407
87.424453 88.642 -158.6461
88.057967 88.643 -158.9507
88.696071 88.643 -159.2542
89.338800 88.644 -159.5562
89.986185 88.643 -159.8562
90.638262 88.643 -160.1537
91.295065 88.642 -160.4488
91.956626 88.642 -160.7416
92.622982 88.641 -161.0330
93.294166 88.640 -161.3234
93.970214 88.638 -161.6134
94.651161 88.636 -161.9032
95.337042 88.634 -162.1927
96.027894 88.631 -162.4812
96.723752 88.628 -162.7681
97.424652 88.625 -163.0529
98.130631 88.622 -163.3354
98.841726 88.618 -163.6156
99.557974 88.615 -163.8941
100.279412 88.612 -164.1716
101.006078 88.610 -164.4488
101.738010 88.608 -164.7266
102.475245 88.607 -165.0060
103.217823 88.608 -165.2878
103.965782 88.610 -165.5727
104.719161 88.614 -165.8604
105.477999 88.619 -166.1505
106.242336 88.626 -166.4417
107.012212 88.635 -166.7327
107.787666 88.645 -167.0224
108.568740 88.656 -167.3100
109.355474 88.667 -167.5949
110.147909 88.678 -167.8770
110.946086 88.689 -168.1558
111.750047 88.700 -168.4310
112.559834 88.710 -168.7025
113.375489 88.719 -168.9699
114.197055 88.728 -169.2333
115.024574 88.736 -169.4927
115.858089 88.744 -169.7485
116.697645 88.752 -170.0012
117.543284 88.760 -170.2514
118.395051 88.767 -170.4998
119.252990 88.775 -170.7468
120.117147 88.782 -170.9927
120.987565 88.790 -171.2377
121.864291 88.797 -171.4818
122.747370 88.804 -171.7249
123.636848 88.810 -171.9673
124.532771 88.816 -172.2089
125.435187 88.821 -172.4498
126.344142 88.825 -172.6898
127.259684 88.828 -172.9290
128.181860 88.831 -173.1672
129.110718 88.832 -173.4041
130.046308 88.833 -173.6393
130.988677 88.833 -173.8724
131.937875 88.832 -174.1031
132.893951 88.830 -174.3315
133.856956 88.826 -174.5576
134.826938 88.821 -174.7816
135.803950 88.815 -175.0033
136.788041 88.807 -175.2224
137.779264 88.797 -175.4384
138.777669 88.786 -175.6506
139.783309 88.774 -175.8588
140.796237 88.761 -176.0634
141.816504 88.746 -176.2648
142.844165 88.730 -176.4638
143.879273 88.714 -176.6613
144.921881 88.697 -176.8581
145.972045 88.680 -177.0547
147.029819 88.663 -177.2515
148.095257 88.645 -177.4487
149.168417 88.628 -177.6463
150.249353 88.611 -177.8443
151.338121 88.594 -178.0427
152.434780 88.578 -178.2416
153.539385 88.562 -178.4409
154.651995 88.545 -178.6406
155.772667 88.529 -178.8406
156.901460 88.513 -179.0403
158.038432 88.496 -179.2392
159.183644 88.479 -179.4365
160.337154 88.463 -179.6315
161.499023 88.446 -179.8241
162.669312 88.429 179.9857
163.848081 88.412 179.7974
165.035392 88.396 179.6103
166.231306 88.380 179.4240
167.435887 88.365 179.2381
168.649196 88.349 179.0527
169.871298 88.334 178.8679
171.102255 88.320 178.6839
172.342133 88.305 178.5008
173.590995 88.289 178.3191
174.848907 88.274 178.1392
176.115934 88.258 177.9614
177.392143 88.241 177.7857
178.677599 88.224 177.6113
179.972371 88.206 177.4374
181.276525 88.187 177.2635
182.590129 88.167 177.0894
183.913252 88.146 176.9153
185.245964 88.125 176.7419
186.588332 88.103 176.5695
187.940428 88.080 176.3988
189.302322 88.057 176.2302
190.674085 88.032 176.0639
192.055788 88.007 175.9000
193.447503 87.981 175.7383
194.849303 87.955 175.5784
196.261262 87.928 175.4197
197.683452 87.901 175.2613
199.115948 87.875 175.1024
200.558824 87.849 174.9422
202.012156 87.825 174.7806
203.476019 87.800 174.6176
204.950490 87.777 174.4541
206.435646 87.754 174.2911
207.931564 87.731 174.1298
209.438322 87.708 173.9716
210.955998 87.685 173.8178
212.484672 87.661 173.6692
214.024424 87.638 173.5262
215.575333 87.615 173.3888
217.137481 87.592 173.2567
218.710948 87.570 173.1297
220.295818 87.548 173.0074
221.892172 87.527 172.8899
223.500094 87.507 172.7768
225.119668 87.487 172.6682
226.750978 87.469 172.5638
228.394109 87.451 172.4634
230.049147 87.434 172.3669
231.716178 87.419 172.2742
233.395289 87.405 172.1853
235.086567 87.392 172.1006
236.790102 87.381 172.0198
238.505980 87.371 171.9427
240.234293 87.363 171.8687
241.975130 87.355 171.7968
243.728581 87.348 171.7263
245.494739 87.342 171.6561
247.273695 87.337 171.5859
249.065542 87.333 171.5153
250.870374 87.329 171.4445
252.688284 87.326 171.3742
254.519367 87.323 171.3051
256.363720 87.320 171.2382
258.221437 87.317 171.1736
260.092616 87.314 171.1111
261.977354 87.312 171.0498
263.875750 87.309 170.9881
265.787903 87.306 170.9242
267.713911 87.303 170.8563
269.653877 87.300 170.7832
271.607900 87.297 170.7047
273.576083 87.294 170.6213
275.558528 87.290 170.5348
277.555338 87.287 170.4471
279.566619 87.283 170.3604
281.592474 87.279 170.2765
283.633009 87.276 170.1967
285.688331 87.272 170.1219
287.758546 87.269 170.0527
289.843763 87.267 169.9890
291.944090 87.265 169.9305
294.059638 87.263 169.8758
296.190515 87.262 169.8235
298.336833 87.261 169.7724
300.498705 87.261 169.7217
302.676243 87.261 169.6715
304.869559 87.261 169.6221
307.078770 87.261 169.5742
309.303989 87.262 169.5281
311.545334 87.263 169.4840
313.802919 87.264 169.4415
316.076865 87.265 169.4001
318.367288 87.266 169.3591
320.674309 87.267 169.3177
322.998047 87.268 169.2756
325.338624 87.269 169.2328
327.696162 87.269 169.1894
330.070783 87.269 169.1459
332.462612 87.269 169.1030
334.871773 87.268 169.0614
337.298392 87.266 169.0218
339.742595 87.264 168.9851
342.204510 87.261 168.9522
344.684265 87.258 168.9237
347.181989 87.253 168.9001
349.697813 87.248 168.8815
352.231868 87.241 168.8676
354.784285 87.234 168.8577
357.355198 87.225 168.8506
359.944741 87.215 168.8450
362.553049 87.204 168.8397
365.180258 87.191 168.8339
367.826505 87.177 168.8275
370.491927 87.162 168.8209
373.176665 87.147 168.8151
375.880856 87.131 168.8109
378.604644 87.115 168.8090
381.348169 87.099 168.8097
384.111575 87.083 168.8130
386.895006 87.068 168.8187
389.698607 87.052 168.8262
392.522524 87.037 168.8347
395.366904 87.023 168.8431
398.231895 87.008 168.8507
401.117648 86.993 168.8568
404.024312 86.978 168.8615
406.952038 86.963 168.8654
409.900981 86.946 168.8690
412.871292 86.928 168.8731
415.863128 86.909 168.8781
418.876643 86.889 168.8841
421.911996 86.866 168.8912
424.969344 86.843 168.8996
428.048847 86.817 168.9092
431.150666 86.790 168.9202
434.274961 86.762 168.9323
437.421897 86.732 168.9454
440.591636 86.700 168.9593
443.784345 86.668 168.9740
447.000189 86.635 168.9897
450.239337 86.601 169.0070
453.501956 86.567 169.0262
456.788219 86.532 169.0477
460.098294 86.498 169.0714
463.432356 86.463 169.0971
466.790578 86.429 169.1246
470.173135 86.396 169.1534
473.580203 86.363 169.1833
477.011961 86.331 169.2139
480.468586 86.299 169.2449
483.950259 86.269 169.2761
487.457163 86.240 169.3074
490.989478 86.212 169.3391
494.547390 86.186 169.3712
498.131084 86.161 169.4038
501.740748 86.137 169.4370
505.376568 86.115 169.4702
509.038735 86.094 169.5035
512.727439 86.075 169.5367
516.442874 86.058 169.5699
520.185232 86.043 169.6031
523.954708 86.029 169.6366
527.751500 86.018 169.6703
531.575805 86.008 169.7045
535.427822 86.001 169.7390
539.307753 85.995 169.7741
543.215800 85.992 169.8099
547.152165 85.990 169.8466
551.117055 85.991 169.8843
555.110677 85.994 169.9231
559.133237 85.999 169.9629
563.184947 86.006 170.0038
567.266018 86.015 170.0457
571.376661 86.025 170.0884
575.517092 86.038 170.1319
579.687526 86.051 170.1758
583.888181 86.065 170.2198
588.119275 86.080 170.2636
592.381030 86.094 170.3073
596.673667 86.108 170.3507
600.997410 86.121 170.3940
605.352485 86.134 170.4375
609.739119 86.146 170.4810
614.157540 86.156 170.5247
618.607979 86.166 170.5683
623.090667 86.175 170.6118
627.605839 86.183 170.6552
632.153730 86.190 170.6984
636.734576 86.196 170.7412
641.348617 86.202 170.7837
645.996094 86.206 170.8254
650.677248 86.209 170.8660
655.392323 86.212 170.9050
660.141566 86.213 170.9419
664.925224 86.214 170.9760
669.743546 86.214 171.0067
674.596784 86.213 171.0341
679.485191 86.211 171.0581
684.409020 86.208 171.0792
689.368530 86.203 171.0981
694.363979 86.198 171.1155
699.395626 86.192 171.1320
704.463736 86.185 171.1481
709.568570 86.177 171.1636
714.710396 86.168 171.1782
719.889483 86.159 171.1910
725.106099 86.148 171.2008
730.360516 86.136 171.2061
735.653010 86.123 171.2055
740.983855 86.109 171.1974
746.353329 86.094 171.1812
751.761713 86.076 171.1563
757.209288 86.057 171.1230
762.696339 86.035 171.0818
768.223151 86.012 171.0340
773.790013 85.986 170.9807
779.397214 85.957 170.9235
785.045047 85.927 170.8636
790.733808 85.894 170.8021
796.463791 85.860 170.7397
802.235296 85.824 170.6768
808.048623 85.787 170.6133
813.904077 85.747 170.5496
819.801961 85.706 170.4858
825.742584 85.664 170.4230
831.726255 85.619 170.3628
837.753287 85.572 170.3077
843.823992 85.523 170.2613
849.938689 85.472 170.2280
856.097695 85.418 170.2133
862.301332 85.362 170.2234
868.549922 85.305 170.2648
874.843793 85.246 170.3438
881.183272 85.188 170.4651
887.568689 85.131 170.6319
894.000378 85.078 170.8439
900.478673 85.029 171.0983
907.003913 84.987 171.3886
913.576437 84.951 171.7065
920.196588 84.924 172.0414
926.864712 84.906 172.3829
933.581156 84.897 172.7207
940.346270 84.895 173.0461
947.160407 84.902 173.3524
954.023921 84.915 173.6348
960.937172 84.934 173.8907
967.900519 84.958 174.1191
974.914325 84.986 174.3210
981.978956 85.018 174.4982
989.094780 85.052 174.6529
996.262169 85.089 174.7877
1003.481495 85.128 174.9049
1010.753136 85.170 175.0066
1018.077470 85.213 175.0942
1025.454879 85.257 175.1692
1032.885748 85.303 175.2327
1040.370463 85.350 175.2858
1047.909417 85.398 175.3298
1055.503000 85.447 175.3661
1063.151610 85.496 175.3961
1070.855645 85.545 175.4214
1078.615506 85.595 175.4435
1086.431599 85.645 175.4635
1094.304330 85.696 175.4818
1102.234110 85.747 175.4980
1110.221353 85.799 175.5114
1118.266475 85.852 175.5206
1126.369895 85.905 175.5245
1134.532035 85.958 175.5222
1142.753322 86.011 175.5131
1151.034184 86.063 175.4972
1159.375052 86.115 175.4748
1167.776361 86.166 175.4465
1176.238550 86.216 175.4128
1184.762060 86.265 175.3741
1193.347334 86.313 175.3308
1201.994821 86.360 175.2833
1210.704971 86.406 175.2319
1219.478238 86.451 175.1775
1228.315080 86.495 175.1210
1237.215957 86.538 175.0639
1246.181334 86.579 175.0077
1255.211678 86.621 174.9538
1264.307459 86.661 174.9034
1273.469152 86.702 174.8568
1282.697235 86.742 174.8142
1291.992188 86.782 174.7750
1301.354495 86.823 174.7382
1310.784647 86.864 174.7026
1320.283132 86.904 174.6667
1329.850448 86.945 174.6293
1339.487093 86.986 174.5895
1349.193569 87.026 174.5470
1358.970381 87.066 174.5017
1368.818041 87.106 174.4544
1378.737061 87.144 174.4062
1388.727958 87.183 174.3587
1398.791253 87.221 174.3136
1408.927471 87.259 174.2723
1419.137140 87.297 174.2360
1429.420793 87.335 174.2057
1439.778965 87.374 174.1826
1450.212197 87.414 174.1682
1460.721033 87.455 174.1642
1471.306019 87.496 174.1726
1481.967709 87.539 174.1946
1492.706658 87.583 174.2307
1503.523426 87.630 174.2802
1514.418576 87.678 174.3412
1525.392678 87.728 174.4109
1536.446302 87.779 174.4850
1547.580025 87.832 174.5590
1558.794428 87.885 174.6286
1570.090095 87.937 174.6901
1581.467615 87.988 174.7415
1592.927581 88.036 174.7820
1604.470591 88.081 174.8122
1616.097246 88.122 174.8338
1627.808153 88.158 174.8492
1639.603922 88.189 174.8618
1651.485168 88.214 174.8751
1663.452510 88.235 174.8936
1675.506573 88.250 174.9215
1687.647984 88.261 174.9625
1699.877377 88.268 175.0197
1712.195390 88.273 175.0951
1724.602663 88.274 175.1898
1737.099845 88.275 175.3037
1749.687587 88.275 175.4355
1762.366544 88.275 175.5823
1775.137379 88.276 175.7401
1788.000756 88.278 175.9034
1800.957346 88.281 176.0660
1814.007826 88.286 176.2225
1827.152874 88.291 176.3683
1840.393177 88.295 176.5012
1853.729425 88.298 176.6206
1867.162312 88.299 176.7277
1880.692540 88.297 176.8249
1894.320813 88.291 176.9154
1908.047843 88.282 177.0034
1921.874344 88.268 177.0931
1935.801038 88.251 177.1888
1949.828650 88.230 177.2941
1963.957912 88.206 177.4106
1978.189561 88.180 177.5382
1992.524338 88.152 177.6756
2006.962991 88.122 177.8207
2021.506272 88.091 177.9717
2036.154940 88.060 178.1270
2050.909758 88.027 178.2850
2065.771495 87.995 178.4439
2080.740927 87.963 178.6018
2095.818833 87.930 178.7573
2111.006001 87.899 178.9095
2126.303220 87.867 179.0581
2141.711290 87.837 179.2035
2157.231013 87.807 179.3459
2172.863198 87.779 179.4841
2188.608660 87.753 179.6163
2204.468221 87.730 179.7397
2220.442706 87.708 179.8515
2236.532950 87.688 179.9492
2252.739789 87.669 -179.9689
2269.064070 87.652 -179.9034
2285.506644 87.635 -179.8535
2302.068367 87.618 -179.8166
2318.750104 87.601 -179.7889
2335.552723 87.584 -179.7652
2352.477101 87.566 -179.7408
2369.524119 87.548 -179.7113
2386.694668 87.532 -179.6739
2403.989641 87.517 -179.6274
2421.409941 87.505 -179.5720
2438.956476 87.497 -179.5097
2456.630160 87.492 -179.4440
2474.431915 87.493 -179.3792
2492.362668 87.497 -179.3196
2510.423356 87.507 -179.2687
2528.614918 87.520 -179.2283
2546.938304 87.537 -179.1988
2565.394469 87.557 -179.1794
2583.984375 87.581 -179.1686
2602.708991 87.607 -179.1642
2621.569293 87.635 -179.1645
2640.566265 87.667 -179.1676
2659.700897 87.700 -179.1717
2678.974186 87.736 -179.1748
2698.387137 87.775 -179.1749
2717.940763 87.816 -179.1697
2737.636082 87.860 -179.1577
2757.474121 87.906 -179.1379
2777.455915 87.956 -179.1107
2797.582506 88.010 -179.0779
2817.854942 88.067 -179.0425
2838.274281 88.127 -179.0081
2858.841586 88.190 -178.9785
2879.557931 88.256 -178.9566
2900.424394 88.323 -178.9450
2921.442065 88.391 -178.9452
2942.612039 88.459 -178.9579
2963.935418 88.526 -178.9828
2985.413316 88.591 -179.0189
3007.046852 88.653 -179.0640
3028.837153 88.712 -179.1160
3050.785356 88.767 -179.1727
3072.892604 88.818 -179.2322
3095.160050 88.864 -179.2935
3117.588856 88.906 -179.3564
3140.180190 88.942 -179.4215
3162.935230 88.974 -179.4904
3185.855163 88.999 -179.5643
3208.941182 89.019 -179.6440
3232.194493 89.032 -179.7291
3255.616307 89.037 -179.8183
3279.207844 89.035 -179.9097
3302.970336 89.026 179.9986
3326.905021 89.010 179.9083
3351.013146 88.986 179.8203
3375.295969 88.956 179.7350
3399.754755 88.920 179.6521
3424.390779 88.878 179.5714
