* Measurement data measured by REW V5.31.3
* Source: EXCL: Headset (USB-C to 3.5mm Headphone Jack Adapter), MICROPHONE (Master Volume), 0, volume: 0.750
* Format: 256k Log Swept Sine, 1 sweep at -12.0 dBFS with no timing reference
* Dated: Apr 7, 2025 12:16:08 PM
* REW Settings:
*  C-weighting compensation: Off
*  Target level: 75.0 dB
* Note: ; 
* Measurement: HD6XX (Back) L10
* Smoothing: 1/6 octave
* Frequency Step: 96 ppo
* Start Frequency: 20.0 Hz
*
* Freq(Hz) SPL(dB) Phase(degrees)
20.187378 79.476 -99.9944
20.333664 79.514 -100.1706
20.481010 79.565 -100.3990
20.629424 79.625 -100.6635
20.778913 79.692 -100.9464
20.929486 79.764 -101.2298
21.081150 79.838 -101.4969
21.233912 79.913 -101.7335
21.387782 79.989 -101.9284
21.542767 80.065 -102.0743
21.698874 80.142 -102.1686
21.856113 80.219 -102.2134
22.014492 80.299 -102.2155
22.174018 80.380 -102.1857
22.334700 80.465 -102.1382
22.496546 80.552 -102.0889
22.659566 80.642 -102.0535
22.823766 80.732 -102.0461
22.989157 80.821 -102.0775
23.155745 80.909 -102.1535
23.323542 80.992 -102.2749
23.492554 81.069 -102.4371
23.662790 81.140 -102.6311
23.834261 81.203 -102.8449
24.006973 81.259 -103.0646
24.180938 81.308 -103.2772
24.356163 81.352 -103.4721
24.532658 81.390 -103.6425
24.710431 81.427 -103.7873
24.889493 81.462 -103.9108
25.069853 81.498 -104.0232
25.251519 81.535 -104.1387
25.434502 81.573 -104.2741
25.618811 81.612 -104.4466
25.804456 81.651 -104.6713
25.991445 81.688 -104.9592
26.179790 81.721 -105.3161
26.369500 81.750 -105.7415
26.560584 81.774 -106.2288
26.753053 81.791 -106.7662
26.946917 81.803 -107.3376
27.142185 81.810 -107.9247
27.338869 81.815 -108.5087
27.536977 81.819 -109.0721
27.736522 81.825 -109.6005
27.937512 81.835 -110.0837
28.139959 81.852 -110.5171
28.343872 81.876 -110.9010
28.549264 81.907 -111.2409
28.756143 81.947 -111.5458
28.964522 81.992 -111.8277
29.174411 82.042 -112.0991
29.385821 82.095 -112.3722
29.598763 82.149 -112.6578
29.813248 82.202 -112.9638
30.029287 82.254 -113.2953
30.246891 82.302 -113.6542
30.466073 82.347 -114.0390
30.686842 82.391 -114.4455
30.909212 82.433 -114.8675
31.133193 82.476 -115.2971
31.358797 82.521 -115.7263
31.586035 82.569 -116.1474
31.814921 82.623 -116.5541
32.045465 82.684 -116.9421
32.277680 82.751 -117.3091
32.511577 82.824 -117.6551
32.747169 82.904 -117.9820
32.984469 82.988 -118.2928
33.223488 83.077 -118.5914
33.464239 83.168 -118.8818
33.706735 83.261 -119.1680
33.950987 83.355 -119.4540
34.197010 83.450 -119.7430
34.444816 83.545 -120.0381
34.694417 83.642 -120.3418
34.945827 83.739 -120.6559
35.199059 83.837 -120.9817
35.454126 83.935 -121.3196
35.711041 84.033 -121.6693
35.969818 84.130 -122.0298
36.230470 84.225 -122.3992
36.493011 84.318 -122.7750
36.757455 84.407 -123.1539
37.023814 84.492 -123.5323
37.292104 84.573 -123.9059
37.562338 84.651 -124.2706
37.834530 84.726 -124.6229
38.108695 84.800 -124.9603
38.384846 84.873 -125.2817
38.662999 84.947 -125.5872
38.943167 85.022 -125.8780
39.225365 85.097 -126.1558
39.509608 85.172 -126.4217
39.795911 85.245 -126.6764
40.084289 85.315 -126.9202
40.374756 85.381 -127.1539
40.667328 85.442 -127.3794
40.962020 85.498 -127.6003
41.258848 85.549 -127.8214
41.557827 85.596 -128.0480
41.858972 85.639 -128.2837
42.162299 85.679 -128.5294
42.467824 85.717 -128.7822
42.775564 85.753 -129.0361
43.085533 85.790 -129.2839
43.397749 85.828 -129.5199
43.712227 85.868 -129.7418
44.028983 85.912 -129.9525
44.348036 85.959 -130.1595
44.669400 86.008 -130.3730
44.993093 86.058 -130.6029
45.319131 86.108 -130.8574
45.647532 86.156 -131.1406
45.978313 86.202 -131.4534
46.311491 86.246 -131.7941
46.647083 86.289 -132.1595
46.985107 86.332 -132.5460
47.325581 86.374 -132.9496
47.668521 86.416 -133.3650
48.013947 86.458 -133.7853
48.361876 86.497 -134.2012
48.712326 86.535 -134.6022
49.065315 86.569 -134.9776
49.420863 86.599 -135.3190
49.778987 86.626 -135.6222
50.139706 86.650 -135.8879
50.503039 86.671 -136.1219
50.869005 86.690 -136.3339
51.237623 86.708 -136.5355
51.608912 86.724 -136.7385
51.982891 86.739 -136.9533
52.359580 86.752 -137.1879
52.739000 86.764 -137.4467
53.121168 86.774 -137.7307
53.506106 86.784 -138.0375
53.893833 86.792 -138.3618
54.284370 86.801 -138.6974
54.677737 86.809 -139.0376
55.073955 86.818 -139.3775
55.473043 86.829 -139.7134
55.875024 86.840 -140.0434
56.279917 86.851 -140.3668
56.687745 86.863 -140.6837
57.098527 86.874 -140.9951
57.512287 86.886 -141.3026
57.929045 86.897 -141.6081
58.348822 86.909 -141.9134
58.771642 86.924 -142.2200
59.197525 86.942 -142.5286
59.626495 86.965 -142.8401
60.058573 86.994 -143.1550
60.493782 87.029 -143.4737
60.932145 87.072 -143.7958
61.373685 87.120 -144.1200
61.818424 87.173 -144.4441
62.266386 87.230 -144.7658
62.717593 87.289 -145.0832
63.172071 87.350 -145.3954
63.629842 87.412 -145.7024
64.090930 87.474 -146.0049
64.555359 87.536 -146.3041
65.023154 87.598 -146.6014
65.494339 87.658 -146.8981
65.968938 87.718 -147.1957
66.446976 87.775 -147.4957
66.928478 87.830 -147.7998
67.413469 87.884 -148.1096
67.901975 87.934 -148.4261
68.394021 87.983 -148.7497
68.889632 88.029 -149.0796
69.388835 88.073 -149.4143
69.891655 88.115 -149.7517
70.398118 88.155 -150.0896
70.908252 88.193 -150.4260
71.422083 88.230 -150.7598
71.939636 88.265 -151.0905
72.460941 88.298 -151.4181
72.986023 88.329 -151.7433
73.514909 88.358 -152.0668
74.047629 88.384 -152.3895
74.584208 88.407 -152.7123
75.124676 88.427 -153.0358
75.669061 88.444 -153.3598
76.217390 88.458 -153.6836
76.769692 88.468 -154.0059
77.325997 88.477 -154.3251
77.886333 88.483 -154.6402
78.450730 88.486 -154.9508
79.019216 88.489 -155.2574
79.591822 88.490 -155.5611
80.168577 88.490 -155.8631
80.749512 88.490 -156.1643
81.334656 88.490 -156.4651
81.924040 88.491 -156.7652
82.517696 88.492 -157.0641
83.115653 88.495 -157.3612
83.717943 88.499 -157.6565
84.324598 88.503 -157.9501
84.935649 88.507 -158.2427
85.551128 88.511 -158.5353
86.171066 88.514 -158.8286
86.795497 88.517 -159.1232
87.424453 88.520 -159.4193
88.057967 88.522 -159.7170
88.696071 88.523 -160.0159
89.338800 88.523 -160.3156
89.986185 88.523 -160.6154
90.638262 88.522 -160.9145
91.295065 88.521 -161.2126
91.956626 88.519 -161.5091
92.622982 88.517 -161.8040
93.294166 88.515 -162.0972
93.970214 88.512 -162.3884
94.651161 88.510 -162.6773
95.337042 88.507 -162.9635
96.027894 88.504 -163.2466
96.723752 88.500 -163.5269
97.424652 88.497 -163.8047
98.130631 88.493 -164.0809
98.841726 88.489 -164.3564
99.557974 88.486 -164.6319
100.279412 88.482 -164.9080
101.006078 88.479 -165.1850
101.738010 88.477 -165.4626
102.475245 88.475 -165.7406
103.217823 88.473 -166.0184
103.965782 88.472 -166.2952
104.719161 88.471 -166.5705
105.477999 88.470 -166.8443
106.242336 88.471 -167.1174
107.012212 88.472 -167.3911
107.787666 88.474 -167.6667
108.568740 88.477 -167.9447
109.355474 88.482 -168.2248
110.147909 88.489 -168.5061
110.946086 88.497 -168.7871
111.750047 88.507 -169.0664
112.559834 88.520 -169.3422
113.375489 88.533 -169.6130
114.197055 88.548 -169.8776
115.024574 88.563 -170.1355
115.858089 88.579 -170.3866
116.697645 88.594 -170.6313
117.543284 88.609 -170.8705
118.395051 88.624 -171.1052
119.252990 88.639 -171.3365
120.117147 88.653 -171.5659
120.987565 88.666 -171.7949
121.864291 88.678 -172.0247
122.747370 88.689 -172.2560
123.636848 88.698 -172.4889
124.532771 88.706 -172.7227
125.435187 88.713 -172.9567
126.344142 88.718 -173.1902
127.259684 88.722 -173.4224
128.181860 88.725 -173.6528
129.110718 88.726 -173.8811
130.046308 88.727 -174.1071
130.988677 88.727 -174.3314
131.937875 88.725 -174.5544
132.893951 88.723 -174.7770
133.856956 88.719 -175.0002
134.826938 88.714 -175.2245
135.803950 88.707 -175.4504
136.788041 88.700 -175.6783
137.779264 88.691 -175.9082
138.777669 88.681 -176.1400
139.783309 88.670 -176.3733
140.796237 88.658 -176.6075
141.816504 88.644 -176.8416
142.844165 88.630 -177.0744
143.879273 88.614 -177.3049
144.921881 88.597 -177.5325
145.972045 88.579 -177.7571
147.029819 88.560 -177.9790
148.095257 88.540 -178.1988
149.168417 88.520 -178.4171
150.249353 88.498 -178.6346
151.338121 88.476 -178.8517
152.434780 88.453 -179.0687
153.539385 88.430 -179.2854
154.651995 88.406 -179.5014
155.772667 88.382 -179.7159
156.901460 88.359 -179.9276
158.038432 88.335 179.8644
159.183644 88.311 179.6607
160.337154 88.288 179.4614
161.499023 88.266 179.2664
162.669312 88.243 179.0751
163.848081 88.222 178.8874
165.035392 88.201 178.7032
166.231306 88.181 178.5229
167.435887 88.161 178.3467
168.649196 88.141 178.1747
169.871298 88.121 178.0067
171.102255 88.102 177.8422
172.342133 88.083 177.6807
173.590995 88.063 177.5214
174.848907 88.044 177.3636
176.115934 88.024 177.2068
177.392143 88.005 177.0508
178.677599 87.987 176.8955
179.972371 87.968 176.7409
181.276525 87.949 176.5869
182.590129 87.930 176.4336
183.913252 87.911 176.2807
185.245964 87.891 176.1281
186.588332 87.871 175.9756
187.940428 87.849 175.8232
189.302322 87.827 175.6707
190.674085 87.803 175.5182
192.055788 87.779 175.3657
193.447503 87.753 175.2131
194.849303 87.728 175.0599
196.261262 87.701 174.9060
197.683452 87.675 174.7511
199.115948 87.648 174.5957
200.558824 87.622 174.4410
202.012156 87.595 174.2885
203.476019 87.569 174.1396
204.950490 87.543 173.9949
206.435646 87.517 173.8543
207.931564 87.492 173.7175
209.438322 87.466 173.5846
210.955998 87.441 173.4558
212.484672 87.415 173.3317
214.024424 87.390 173.2125
215.575333 87.364 173.0984
217.137481 87.338 172.9891
218.710948 87.312 172.8844
220.295818 87.286 172.7839
221.892172 87.262 172.6873
223.500094 87.238 172.5942
225.119668 87.216 172.5042
226.750978 87.196 172.4167
228.394109 87.178 172.3312
230.049147 87.163 172.2470
231.716178 87.150 172.1633
233.395289 87.139 172.0793
235.086567 87.130 171.9942
236.790102 87.122 171.9075
238.505980 87.115 171.8192
240.234293 87.108 171.7290
241.975130 87.103 171.6372
243.728581 87.097 171.5439
245.494739 87.093 171.4494
247.273695 87.088 171.3542
249.065542 87.085 171.2589
250.870374 87.081 171.1644
252.688284 87.078 171.0718
254.519367 87.074 170.9825
256.363720 87.070 170.8983
258.221437 87.066 170.8205
260.092616 87.061 170.7503
261.977354 87.055 170.6882
263.875750 87.049 170.6337
265.787903 87.041 170.5854
267.713911 87.033 170.5414
269.653877 87.024 170.4995
271.607900 87.014 170.4583
273.576083 87.005 170.4168
275.558528 86.995 170.3748
277.555338 86.986 170.3327
279.566619 86.977 170.2910
281.592474 86.969 170.2502
283.633009 86.961 170.2106
285.688331 86.955 170.1724
287.758546 86.950 170.1354
289.843763 86.945 170.0997
291.944090 86.943 170.0655
294.059638 86.941 170.0329
296.190515 86.941 170.0019
298.336833 86.941 169.9724
300.498705 86.942 169.9443
302.676243 86.943 169.9171
304.869559 86.945 169.8899
307.078770 86.946 169.8623
309.303989 86.948 169.8337
311.545334 86.950 169.8040
313.802919 86.952 169.7731
316.076865 86.955 169.7412
318.367288 86.957 169.7085
320.674309 86.959 169.6754
322.998047 86.962 169.6421
325.338624 86.964 169.6089
327.696162 86.965 169.5759
330.070783 86.966 169.5434
332.462612 86.966 169.5122
334.871773 86.964 169.4834
337.298392 86.962 169.4583
339.742595 86.958 169.4379
342.204510 86.952 169.4230
344.684265 86.945 169.4136
347.181989 86.937 169.4092
349.697813 86.928 169.4089
352.231868 86.917 169.4117
354.784285 86.906 169.4160
357.355198 86.894 169.4207
359.944741 86.881 169.4245
362.553049 86.869 169.4265
365.180258 86.856 169.4263
367.826505 86.843 169.4240
370.491927 86.829 169.4201
373.176665 86.816 169.4155
375.880856 86.802 169.4107
378.604644 86.787 169.4064
381.348169 86.773 169.4030
384.111575 86.758 169.4005
386.895006 86.743 169.3990
389.698607 86.728 169.3989
392.522524 86.713 169.4007
395.366904 86.697 169.4048
398.231895 86.682 169.4116
401.117648 86.666 169.4214
404.024312 86.649 169.4346
406.952038 86.632 169.4517
409.900981 86.614 169.4731
412.871292 86.594 169.4993
415.863128 86.574 169.5300
418.876643 86.552 169.5648
421.911996 86.529 169.6023
424.969344 86.504 169.6412
428.048847 86.478 169.6801
431.150666 86.451 169.7176
434.274961 86.422 169.7526
437.421897 86.392 169.7844
440.591636 86.360 169.8128
443.784345 86.328 169.8383
447.000189 86.294 169.8622
450.239337 86.261 169.8859
453.501956 86.227 169.9109
456.788219 86.193 169.9381
460.098294 86.159 169.9677
463.432356 86.125 169.9998
466.790578 86.092 170.0337
470.173135 86.059 170.0691
473.580203 86.027 170.1055
477.011961 85.995 170.1425
480.468586 85.964 170.1799
483.950259 85.933 170.2173
487.457163 85.903 170.2547
490.989478 85.874 170.2919
494.547390 85.846 170.3293
498.131084 85.819 170.3673
501.740748 85.793 170.4063
505.376568 85.768 170.4470
509.038735 85.745 170.4895
512.727439 85.723 170.5338
516.442874 85.703 170.5797
520.185232 85.685 170.6269
523.954708 85.670 170.6750
527.751500 85.656 170.7241
531.575805 85.645 170.7740
535.427822 85.635 170.8244
539.307753 85.629 170.8751
543.215800 85.624 170.9258
547.152165 85.622 170.9767
551.117055 85.622 171.0278
555.110677 85.624 171.0797
559.133237 85.628 171.1323
563.184947 85.634 171.1857
567.266018 85.642 171.2398
571.376661 85.651 171.2944
575.517092 85.661 171.3495
579.687526 85.672 171.4050
583.888181 85.684 171.4612
588.119275 85.697 171.5183
592.381030 85.709 171.5764
596.673667 85.722 171.6357
600.997410 85.734 171.6964
605.352485 85.745 171.7585
609.739119 85.756 171.8224
614.157540 85.766 171.8882
618.607979 85.775 171.9556
623.090667 85.783 172.0244
627.605839 85.790 172.0943
632.153730 85.797 172.1646
636.734576 85.802 172.2346
641.348617 85.806 172.3039
645.996094 85.810 172.3720
650.677248 85.812 172.4387
655.392323 85.814 172.5037
660.141566 85.815 172.5668
664.925224 85.815 172.6279
669.743546 85.814 172.6863
674.596784 85.813 172.7419
679.485191 85.810 172.7944
684.409020 85.807 172.8440
689.368530 85.802 172.8910
694.363979 85.797 172.9362
699.395626 85.790 172.9804
704.463736 85.782 173.0244
709.568570 85.772 173.0688
714.710396 85.762 173.1141
719.889483 85.750 173.1599
725.106099 85.736 173.2054
730.360516 85.721 173.2488
735.653010 85.706 173.2882
740.983855 85.688 173.3215
746.353329 85.670 173.3470
751.761713 85.650 173.3637
757.209288 85.630 173.3709
762.696339 85.607 173.3687
768.223151 85.584 173.3575
773.790013 85.558 173.3380
779.397214 85.532 173.3110
785.045047 85.503 173.2774
790.733808 85.473 173.2383
796.463791 85.441 173.1947
802.235296 85.407 173.1481
808.048623 85.372 173.0997
813.904077 85.334 173.0511
819.801961 85.294 173.0042
825.742584 85.251 172.9609
831.726255 85.207 172.9242
837.753287 85.160 172.8972
843.823992 85.111 172.8837
849.938689 85.060 172.8879
856.097695 85.008 172.9143
862.301332 84.954 172.9675
868.549922 84.899 173.0521
874.843793 84.845 173.1718
881.183272 84.792 173.3293
887.568689 84.740 173.5252
894.000378 84.693 173.7584
900.478673 84.649 174.0253
907.003913 84.612 174.3205
913.576437 84.581 174.6372
920.196588 84.558 174.9677
926.864712 84.542 175.3040
933.581156 84.534 175.6389
940.346270 84.534 175.9659
947.160407 84.541 176.2796
954.023921 84.554 176.5759
960.937172 84.574 176.8517
967.900519 84.599 177.1048
974.914325 84.628 177.3339
981.978956 84.662 177.5386
989.094780 84.699 177.7193
996.262169 84.739 177.8772
1003.481495 84.781 178.0140
1010.753136 84.825 178.1321
1018.077470 84.870 178.2336
1025.454879 84.917 178.3208
1032.885748 84.965 178.3954
1040.370463 85.014 178.4589
1047.909417 85.064 178.5120
1055.503000 85.114 178.5554
1063.151610 85.165 178.5898
1070.855645 85.216 178.6160
1078.615506 85.267 178.6353
1086.431599 85.318 178.6494
1094.304330 85.369 178.6600
1102.234110 85.419 178.6691
1110.221353 85.468 178.6781
1118.266475 85.517 178.6879
1126.369895 85.566 178.6989
1134.532035 85.615 178.7107
1142.753322 85.664 178.7224
1151.034184 85.712 178.7329
1159.375052 85.760 178.7415
1167.776361 85.807 178.7476
1176.238550 85.854 178.7514
1184.762060 85.900 178.7538
1193.347334 85.945 178.7562
1201.994821 85.990 178.7599
1210.704971 86.034 178.7659
1219.478238 86.079 178.7744
1228.315080 86.123 178.7849
1237.215957 86.169 178.7964
1246.181334 86.215 178.8073
1255.211678 86.262 178.8159
1264.307459 86.309 178.8209
1273.469152 86.357 178.8213
1282.697235 86.405 178.8165
1291.992188 86.452 178.8065
1301.354495 86.500 178.7916
1310.784647 86.547 178.7719
1320.283132 86.593 178.7477
1329.850448 86.638 178.7194
1339.487093 86.682 178.6878
1349.193569 86.725 178.6538
1358.970381 86.768 178.6189
1368.818041 86.809 178.5845
1378.737061 86.850 178.5516
1388.727958 86.890 178.5210
1398.791253 86.930 178.4932
1408.927471 86.971 178.4686
1419.137140 87.011 178.4476
1429.420793 87.052 178.4314
1439.778965 87.093 178.4215
1450.212197 87.134 178.4200
1460.721033 87.175 178.4296
1471.306019 87.218 178.4525
1481.967709 87.261 178.4898
1492.706658 87.306 178.5417
1503.523426 87.352 178.6074
1514.418576 87.399 178.6852
1525.392678 87.447 178.7734
1536.446302 87.495 178.8702
1547.580025 87.544 178.9742
1558.794428 87.592 179.0837
1570.090095 87.640 179.1973
1581.467615 87.687 179.3130
1592.927581 87.732 179.4294
1604.470591 87.775 179.5450
1616.097246 87.815 179.6593
1627.808153 87.851 179.7724
1639.603922 87.884 179.8859
1651.485168 87.913 -179.9978
1663.452510 87.939 -179.8752
1675.506573 87.960 -179.7426
1687.647984 87.979 -179.5970
1699.877377 87.996 -179.4367
1712.195390 88.011 -179.2619
1724.602663 88.026 -179.0751
1737.099845 88.042 -178.8808
1749.687587 88.059 -178.6844
1762.366544 88.076 -178.4918
1775.137379 88.095 -178.3074
1788.000756 88.113 -178.1338
1800.957346 88.130 -177.9715
1814.007826 88.147 -177.8195
1827.152874 88.161 -177.6758
1840.393177 88.174 -177.5378
1853.729425 88.184 -177.4023
1867.162312 88.191 -177.2664
1880.692540 88.196 -177.1272
1894.320813 88.198 -176.9822
1908.047843 88.198 -176.8302
1921.874344 88.196 -176.6716
1935.801038 88.193 -176.5081
1949.828650 88.189 -176.3427
1963.957912 88.184 -176.1787
1978.189561 88.178 -176.0190
1992.524338 88.170 -175.8657
2006.962991 88.162 -175.7204
2021.506272 88.152 -175.5838
2036.154940 88.141 -175.4563
2050.909758 88.128 -175.3373
2065.771495 88.113 -175.2256
2080.740927 88.097 -175.1199
2095.818833 88.081 -175.0189
2111.006001 88.064 -174.9222
2126.303220 88.046 -174.8302
2141.711290 88.029 -174.7440
2157.231013 88.013 -174.6649
2172.863198 87.997 -174.5940
2188.608660 87.982 -174.5324
2204.468221 87.968 -174.4807
2220.442706 87.955 -174.4391
2236.532950 87.942 -174.4076
2252.739789 87.930 -174.3857
2269.064070 87.918 -174.3723
2285.506644 87.907 -174.3658
2302.068367 87.895 -174.3638
2318.750104 87.885 -174.3638
2335.552723 87.875 -174.3633
2352.477101 87.866 -174.3609
2369.524119 87.859 -174.3565
2386.694668 87.854 -174.3504
2403.989641 87.852 -174.3441
2421.409941 87.853 -174.3394
2438.956476 87.858 -174.3381
2456.630160 87.866 -174.3420
2474.431915 87.878 -174.3525
2492.362668 87.893 -174.3708
2510.423356 87.911 -174.3980
2528.614918 87.933 -174.4345
2546.938304 87.959 -174.4804
2565.394469 87.987 -174.5346
2583.984375 88.017 -174.5955
2602.708991 88.050 -174.6607
2621.569293 88.086 -174.7279
2640.566265 88.125 -174.7949
2659.700897 88.167 -174.8605
2678.974186 88.211 -174.9243
2698.387137 88.260 -174.9867
2717.940763 88.312 -175.0491
2737.636082 88.368 -175.1138
2757.474121 88.427 -175.1837
2777.455915 88.490 -175.2616
2797.582506 88.556 -175.3502
2817.854942 88.624 -175.4512
2838.274281 88.693 -175.5659
2858.841586 88.764 -175.6947
2879.557931 88.834 -175.8373
2900.424394 88.904 -175.9929
2921.442065 88.973 -176.1604
2942.612039 89.039 -176.3383
2963.935418 89.103 -176.5252
2985.413316 89.164 -176.7193
3007.046852 89.221 -176.9187
3028.837153 89.274 -177.1219
3050.785356 89.323 -177.3274
3072.892604 89.366 -177.5343
3095.160050 89.404 -177.7416
3117.588856 89.436 -177.9486
3140.180190 89.462 -178.1547
3162.935230 89.482 -178.3600
3185.855163 89.495 -178.5648
3208.941182 89.501 -178.7695
3232.194493 89.500 -178.9742
3255.616307 89.492 -179.1784
3279.207844 89.475 -179.3813
3302.970336 89.451 -179.5815
3326.905021 89.419 -179.7774
3351.013146 89.379 -179.9675
3375.295969 89.331 179.8498
