* Measurement data measured by REW V5.31.3
* Source: EXCL: Headset (USB-C to 3.5mm Headphone Jack Adapter), MICROPHONE (Master Volume), 0, volume: 0.750
* Format: 256k Log Swept Sine, 1 sweep at -12.0 dBFS with no timing reference
* Dated: Apr 7, 2025 12:31:15 PM
* REW Settings:
*  C-weighting compensation: Off
*  Target level: 75.0 dB
* Note: ; 
* Measurement: HD6XX (Back) R9
* Smoothing: 1/6 octave
* Frequency Step: 96 ppo
* Start Frequency: 20.0 Hz
*
* Freq(Hz) SPL(dB) Phase(degrees)
20.187378 79.325 -96.4193
20.333664 79.359 -96.6055
20.481010 79.404 -96.8562
20.629424 79.458 -97.1654
20.778913 79.520 -97.5260
20.929486 79.587 -97.9304
21.081150 79.659 -98.3702
21.233912 79.734 -98.8371
21.387782 79.811 -99.3231
21.542767 79.892 -99.8211
21.698874 79.976 -100.3250
21.856113 80.063 -100.8303
22.014492 80.154 -101.3339
22.174018 80.250 -101.8345
22.334700 80.350 -102.3320
22.496546 80.454 -102.8273
22.659566 80.562 -103.3217
22.823766 80.671 -103.8160
22.989157 80.781 -104.3104
23.155745 80.891 -104.8032
23.323542 80.997 -105.2911
23.492554 81.097 -105.7689
23.662790 81.192 -106.2294
23.834261 81.278 -106.6646
24.006973 81.356 -107.0658
24.180938 81.424 -107.4248
24.356163 81.484 -107.7345
24.532658 81.535 -107.9902
24.710431 81.578 -108.1897
24.889493 81.615 -108.3338
25.069853 81.648 -108.4267
25.251519 81.676 -108.4750
25.434502 81.701 -108.4875
25.618811 81.723 -108.4743
25.804456 81.744 -108.4455
25.991445 81.763 -108.4110
26.179790 81.780 -108.3796
26.369500 81.795 -108.3587
26.560584 81.807 -108.3548
26.753053 81.818 -108.3734
26.946917 81.827 -108.4195
27.142185 81.834 -108.4985
27.338869 81.840 -108.6157
27.536977 81.845 -108.7767
27.736522 81.850 -108.9869
27.937512 81.854 -109.2507
28.139959 81.859 -109.5709
28.343872 81.864 -109.9482
28.549264 81.870 -110.3804
28.756143 81.878 -110.8625
28.964522 81.889 -111.3868
29.174411 81.904 -111.9433
29.385821 81.924 -112.5210
29.598763 81.952 -113.1082
29.813248 81.988 -113.6935
30.029287 82.033 -114.2667
30.246891 82.088 -114.8189
30.466073 82.152 -115.3429
30.686842 82.226 -115.8330
30.909212 82.307 -116.2853
31.133193 82.394 -116.6973
31.358797 82.486 -117.0684
31.586035 82.581 -117.4000
31.814921 82.678 -117.6957
32.045465 82.774 -117.9613
32.277680 82.871 -118.2050
32.511577 82.966 -118.4364
32.747169 83.059 -118.6658
32.984469 83.151 -118.9030
33.223488 83.240 -119.1565
33.464239 83.328 -119.4321
33.706735 83.413 -119.7328
33.950987 83.497 -120.0585
34.197010 83.580 -120.4061
34.444816 83.662 -120.7707
34.694417 83.744 -121.1462
34.945827 83.826 -121.5260
35.199059 83.910 -121.9040
35.454126 83.994 -122.2751
35.711041 84.079 -122.6356
35.969818 84.164 -122.9830
36.230470 84.249 -123.3173
36.493011 84.335 -123.6398
36.757455 84.420 -123.9542
37.023814 84.505 -124.2655
37.292104 84.590 -124.5802
37.562338 84.674 -124.9047
37.834530 84.758 -125.2449
38.108695 84.842 -125.6047
38.384846 84.924 -125.9855
38.662999 85.006 -126.3857
38.943167 85.086 -126.8012
39.225365 85.165 -127.2259
39.509608 85.242 -127.6528
39.795911 85.318 -128.0748
40.084289 85.391 -128.4863
40.374756 85.463 -128.8832
40.667328 85.532 -129.2636
40.962020 85.599 -129.6278
41.258848 85.663 -129.9782
41.557827 85.725 -130.3186
41.858972 85.785 -130.6542
42.162299 85.843 -130.9903
42.467824 85.899 -131.3316
42.775564 85.953 -131.6814
43.085533 86.005 -132.0401
43.397749 86.056 -132.4056
43.712227 86.104 -132.7729
44.028983 86.149 -133.1355
44.348036 86.192 -133.4864
44.669400 86.233 -133.8204
44.993093 86.272 -134.1347
45.319131 86.309 -134.4302
45.647532 86.343 -134.7107
45.978313 86.376 -134.9821
46.311491 86.407 -135.2511
46.647083 86.436 -135.5238
46.985107 86.464 -135.8045
47.325581 86.491 -136.0950
47.668521 86.516 -136.3945
48.013947 86.541 -136.6998
48.361876 86.565 -137.0062
48.712326 86.589 -137.3085
49.065315 86.613 -137.6025
49.420863 86.635 -137.8859
49.778987 86.657 -138.1588
50.139706 86.677 -138.4237
50.503039 86.696 -138.6843
50.869005 86.713 -138.9449
51.237623 86.728 -139.2092
51.608912 86.743 -139.4805
51.982891 86.757 -139.7612
52.359580 86.772 -140.0535
52.739000 86.788 -140.3587
53.121168 86.807 -140.6774
53.506106 86.827 -141.0089
53.893833 86.850 -141.3514
54.284370 86.874 -141.7024
54.677737 86.901 -142.0595
55.073955 86.929 -142.4213
55.473043 86.960 -142.7878
55.875024 86.994 -143.1603
56.279917 87.031 -143.5404
56.687745 87.071 -143.9287
57.098527 87.114 -144.3247
57.512287 87.161 -144.7265
57.929045 87.209 -145.1311
58.348822 87.257 -145.5350
58.771642 87.303 -145.9341
59.197525 87.346 -146.3224
59.626495 87.382 -146.6923
60.058573 87.411 -147.0358
60.493782 87.432 -147.3466
60.932145 87.448 -147.6230
61.373685 87.461 -147.8693
61.818424 87.472 -148.0945
62.266386 87.485 -148.3103
62.717593 87.501 -148.5274
63.172071 87.520 -148.7541
63.629842 87.543 -148.9955
64.090930 87.571 -149.2541
64.555359 87.603 -149.5303
65.023154 87.639 -149.8228
65.494339 87.678 -150.1296
65.968938 87.719 -150.4477
66.446976 87.762 -150.7744
66.928478 87.808 -151.1068
67.413469 87.854 -151.4422
67.901975 87.901 -151.7778
68.394021 87.947 -152.1111
68.889632 87.992 -152.4401
69.388835 88.036 -152.7632
69.891655 88.077 -153.0797
70.398118 88.116 -153.3900
70.908252 88.152 -153.6950
71.422083 88.186 -153.9961
71.939636 88.216 -154.2950
72.460941 88.243 -154.5929
72.986023 88.268 -154.8905
73.514909 88.290 -155.1882
74.047629 88.310 -155.4861
74.584208 88.328 -155.7843
75.124676 88.343 -156.0826
75.669061 88.356 -156.3807
76.217390 88.368 -156.6780
76.769692 88.378 -156.9740
77.325997 88.387 -157.2679
77.886333 88.394 -157.5596
78.450730 88.401 -157.8494
79.019216 88.406 -158.1385
79.591822 88.411 -158.4286
80.168577 88.415 -158.7213
80.749512 88.419 -159.0174
81.334656 88.423 -159.3172
81.924040 88.427 -159.6200
82.517696 88.430 -159.9245
83.115653 88.434 -160.2298
83.717943 88.438 -160.5352
84.324598 88.441 -160.8402
84.935649 88.445 -161.1449
85.551128 88.448 -161.4493
86.171066 88.451 -161.7531
86.795497 88.454 -162.0559
87.424453 88.455 -162.3574
88.057967 88.456 -162.6571
88.696071 88.456 -162.9546
89.338800 88.456 -163.2498
89.986185 88.454 -163.5426
90.638262 88.452 -163.8331
91.295065 88.450 -164.1213
91.956626 88.446 -164.4074
92.622982 88.443 -164.6913
93.294166 88.439 -164.9732
93.970214 88.435 -165.2534
94.651161 88.430 -165.5323
95.337042 88.425 -165.8108
96.027894 88.421 -166.0896
96.723752 88.416 -166.3695
97.424652 88.411 -166.6508
98.130631 88.406 -166.9337
98.841726 88.401 -167.2182
99.557974 88.396 -167.5039
100.279412 88.392 -167.7905
101.006078 88.387 -168.0776
101.738010 88.384 -168.3649
102.475245 88.381 -168.6518
103.217823 88.378 -168.9379
103.965782 88.377 -169.2231
104.719161 88.377 -169.5075
105.477999 88.379 -169.7917
106.242336 88.382 -170.0767
107.012212 88.388 -170.3631
107.787666 88.394 -170.6515
108.568740 88.403 -170.9419
109.355474 88.412 -171.2341
110.147909 88.421 -171.5279
110.946086 88.431 -171.8227
111.750047 88.440 -172.1175
112.559834 88.450 -172.4110
113.375489 88.459 -172.7019
114.197055 88.467 -172.9890
115.024574 88.476 -173.2715
115.858089 88.484 -173.5490
116.697645 88.491 -173.8218
117.543284 88.499 -174.0906
118.395051 88.507 -174.3564
119.252990 88.515 -174.6205
120.117147 88.522 -174.8838
120.987565 88.530 -175.1471
121.864291 88.537 -175.4109
122.747370 88.543 -175.6750
123.636848 88.548 -175.9389
124.532771 88.552 -176.2022
125.435187 88.554 -176.4644
126.344142 88.555 -176.7255
127.259684 88.555 -176.9856
128.181860 88.553 -177.2449
129.110718 88.549 -177.5035
130.046308 88.544 -177.7613
130.988677 88.538 -178.0182
131.937875 88.532 -178.2738
132.893951 88.525 -178.5277
133.856956 88.517 -178.7794
134.826938 88.510 -179.0284
135.803950 88.501 -179.2745
136.788041 88.492 -179.5174
137.779264 88.482 -179.7574
138.777669 88.471 -179.9945
139.783309 88.460 179.7708
140.796237 88.447 179.5382
141.816504 88.433 179.3074
142.844165 88.418 179.0781
143.879273 88.402 178.8503
144.921881 88.385 178.6238
145.972045 88.367 178.3986
147.029819 88.348 178.1742
148.095257 88.328 177.9503
149.168417 88.308 177.7263
150.249353 88.287 177.5016
151.338121 88.265 177.2763
152.434780 88.242 177.0507
153.539385 88.219 176.8255
154.651995 88.195 176.6015
155.772667 88.171 176.3797
156.901460 88.147 176.1609
158.038432 88.122 175.9455
159.183644 88.098 175.7334
160.337154 88.074 175.5242
161.499023 88.049 175.3170
162.669312 88.025 175.1113
163.848081 88.002 174.9064
165.035392 87.979 174.7022
166.231306 87.957 174.4984
167.435887 87.935 174.2950
168.649196 87.914 174.0921
169.871298 87.893 173.8898
171.102255 87.872 173.6883
172.342133 87.852 173.4874
173.590995 87.831 173.2870
174.848907 87.811 173.0873
176.115934 87.789 172.8884
177.392143 87.767 172.6911
178.677599 87.743 172.4965
179.972371 87.718 172.3060
181.276525 87.692 172.1204
182.590129 87.664 171.9401
183.913252 87.635 171.7653
185.245964 87.605 171.5956
186.588332 87.574 171.4310
187.940428 87.542 171.2716
189.302322 87.510 171.1179
190.674085 87.477 170.9701
192.055788 87.444 170.8288
193.447503 87.412 170.6940
194.849303 87.378 170.5653
196.261262 87.345 170.4418
197.683452 87.312 170.3216
199.115948 87.279 170.2023
200.558824 87.246 170.0812
202.012156 87.213 169.9560
203.476019 87.181 169.8251
204.950490 87.150 169.6883
206.435646 87.119 169.5468
207.931564 87.088 169.4029
209.438322 87.057 169.2594
210.955998 87.026 169.1192
212.484672 86.995 168.9844
214.024424 86.964 168.8563
215.575333 86.933 168.7353
217.137481 86.902 168.6212
218.710948 86.872 168.5131
220.295818 86.843 168.4102
221.892172 86.815 168.3113
223.500094 86.788 168.2153
225.119668 86.765 168.1214
226.750978 86.743 168.0291
228.394109 86.725 167.9375
230.049147 86.709 167.8459
231.716178 86.695 167.7532
233.395289 86.684 167.6584
235.086567 86.675 167.5602
236.790102 86.667 167.4576
238.505980 86.661 167.3500
240.234293 86.656 167.2378
241.975130 86.652 167.1217
243.728581 86.650 167.0032
245.494739 86.648 166.8840
247.273695 86.647 166.7660
249.065542 86.646 166.6506
250.870374 86.645 166.5388
252.688284 86.644 166.4307
254.519367 86.641 166.3258
256.363720 86.636 166.2235
258.221437 86.630 166.1232
260.092616 86.622 166.0249
261.977354 86.611 165.9293
263.875750 86.600 165.8370
265.787903 86.587 165.7484
267.713911 86.573 165.6631
269.653877 86.558 165.5803
271.607900 86.544 165.4992
273.576083 86.530 165.4198
275.558528 86.516 165.3420
277.555338 86.503 165.2662
279.566619 86.491 165.1926
281.592474 86.479 165.1217
283.633009 86.469 165.0540
285.688331 86.459 164.9899
287.758546 86.450 164.9293
289.843763 86.442 164.8720
291.944090 86.434 164.8176
294.059638 86.426 164.7657
296.190515 86.419 164.7159
298.336833 86.412 164.6682
300.498705 86.405 164.6225
302.676243 86.398 164.5785
304.869559 86.392 164.5358
307.078770 86.386 164.4941
309.303989 86.380 164.4531
311.545334 86.375 164.4127
313.802919 86.371 164.3730
316.076865 86.366 164.3339
318.367288 86.362 164.2952
320.674309 86.358 164.2564
322.998047 86.354 164.2169
325.338624 86.350 164.1760
327.696162 86.345 164.1334
330.070783 86.340 164.0888
332.462612 86.335 164.0427
334.871773 86.328 163.9958
337.298392 86.321 163.9495
339.742595 86.312 163.9050
342.204510 86.302 163.8638
344.684265 86.291 163.8266
347.181989 86.279 163.7940
349.697813 86.265 163.7661
352.231868 86.250 163.7425
354.784285 86.235 163.7222
357.355198 86.218 163.7037
359.944741 86.200 163.6856
362.553049 86.182 163.6665
365.180258 86.164 163.6461
367.826505 86.145 163.6246
370.491927 86.126 163.6024
373.176665 86.106 163.5802
375.880856 86.086 163.5590
378.604644 86.065 163.5400
381.348169 86.044 163.5246
384.111575 86.023 163.5139
386.895006 86.001 163.5086
389.698607 85.978 163.5087
392.522524 85.955 163.5138
395.366904 85.932 163.5230
398.231895 85.908 163.5354
401.117648 85.884 163.5502
404.024312 85.859 163.5667
406.952038 85.834 163.5841
409.900981 85.808 163.6023
412.871292 85.782 163.6209
415.863128 85.755 163.6401
418.876643 85.728 163.6598
421.911996 85.699 163.6801
424.969344 85.668 163.7012
428.048847 85.637 163.7230
431.150666 85.604 163.7451
434.274961 85.569 163.7672
437.421897 85.533 163.7889
440.591636 85.495 163.8100
443.784345 85.456 163.8308
447.000189 85.416 163.8516
450.239337 85.375 163.8730
453.501956 85.333 163.8956
456.788219 85.291 163.9201
460.098294 85.249 163.9471
463.432356 85.207 163.9774
466.790578 85.165 164.0111
470.173135 85.123 164.0487
473.580203 85.082 164.0898
477.011961 85.041 164.1337
480.468586 85.002 164.1794
483.950259 84.964 164.2256
487.457163 84.927 164.2714
490.989478 84.891 164.3160
494.547390 84.856 164.3591
498.131084 84.822 164.4005
501.740748 84.790 164.4406
505.376568 84.760 164.4795
509.038735 84.731 164.5177
512.727439 84.703 164.5554
516.442874 84.678 164.5928
520.185232 84.654 164.6300
523.954708 84.632 164.6669
527.751500 84.612 164.7034
531.575805 84.594 164.7394
535.427822 84.577 164.7751
539.307753 84.562 164.8109
543.215800 84.548 164.8472
547.152165 84.537 164.8848
551.117055 84.526 164.9242
555.110677 84.517 164.9658
559.133237 84.510 165.0098
563.184947 84.503 165.0567
567.266018 84.498 165.1066
571.376661 84.494 165.1596
575.517092 84.491 165.2158
579.687526 84.489 165.2754
583.888181 84.488 165.3385
588.119275 84.488 165.4050
592.381030 84.489 165.4749
596.673667 84.490 165.5477
600.997410 84.492 165.6227
605.352485 84.493 165.6991
609.739119 84.495 165.7759
614.157540 84.496 165.8524
618.607979 84.495 165.9283
623.090667 84.494 166.0038
627.605839 84.491 166.0795
632.153730 84.486 166.1561
636.734576 84.480 166.2346
641.348617 84.472 166.3161
645.996094 84.463 166.4014
650.677248 84.452 166.4911
655.392323 84.440 166.5856
660.141566 84.427 166.6847
664.925224 84.414 166.7877
669.743546 84.400 166.8933
674.596784 84.385 166.9998
679.485191 84.370 167.1054
684.409020 84.354 167.2086
689.368530 84.338 167.3079
694.363979 84.321 167.4025
699.395626 84.303 167.4919
704.463736 84.284 167.5762
709.568570 84.263 167.6555
714.710396 84.241 167.7309
719.889483 84.218 167.8035
725.106099 84.192 167.8751
730.360516 84.165 167.9476
735.653010 84.136 168.0232
740.983855 84.104 168.1040
746.353329 84.071 168.1920
751.761713 84.037 168.2882
757.209288 84.001 168.3935
762.696339 83.965 168.5073
768.223151 83.928 168.6287
773.790013 83.891 168.7558
779.397214 83.854 168.8863
785.045047 83.819 169.0174
790.733808 83.784 169.1461
796.463791 83.750 169.2692
802.235296 83.718 169.3834
808.048623 83.687 169.4857
813.904077 83.657 169.5736
819.801961 83.628 169.6455
825.742584 83.598 169.7006
831.726255 83.569 169.7392
837.753287 83.538 169.7625
843.823992 83.506 169.7727
849.938689 83.472 169.7729
856.097695 83.435 169.7670
862.301332 83.395 169.7600
868.549922 83.351 169.7577
874.843793 83.304 169.7670
881.183272 83.253 169.7956
887.568689 83.199 169.8513
894.000378 83.143 169.9419
900.478673 83.085 170.0741
907.003913 83.028 170.2530
913.576437 82.972 170.4810
920.196588 82.920 170.7576
926.864712 82.873 171.0789
933.581156 82.832 171.4380
940.346270 82.799 171.8259
947.160407 82.775 172.2321
954.023921 82.759 172.6463
960.937172 82.753 173.0591
967.900519 82.754 173.4629
974.914325 82.764 173.8517
981.978956 82.780 174.2218
989.094780 82.803 174.5709
996.262169 82.831 174.8981
1003.481495 82.864 175.2040
1010.753136 82.902 175.4894
1018.077470 82.942 175.7560
1025.454879 82.987 176.0058
1032.885748 83.034 176.2404
1040.370463 83.083 176.4616
1047.909417 83.135 176.6706
1055.503000 83.189 176.8683
1063.151610 83.244 177.0554
1070.855645 83.301 177.2324
1078.615506 83.360 177.3994
1086.431599 83.419 177.5557
1094.304330 83.480 177.7004
1102.234110 83.542 177.8324
1110.221353 83.604 177.9507
1118.266475 83.667 178.0548
1126.369895 83.729 178.1445
1134.532035 83.791 178.2203
1142.753322 83.852 178.2828
1151.034184 83.912 178.3329
1159.375052 83.970 178.3718
1167.776361 84.027 178.4005
1176.238550 84.083 178.4206
1184.762060 84.137 178.4334
1193.347334 84.189 178.4405
1201.994821 84.240 178.4433
1210.704971 84.290 178.4433
1219.478238 84.338 178.4417
1228.315080 84.385 178.4396
1237.215957 84.430 178.4383
1246.181334 84.475 178.4390
1255.211678 84.519 178.4432
1264.307459 84.561 178.4517
1273.469152 84.604 178.4651
1282.697235 84.646 178.4836
1291.992188 84.688 178.5068
1301.354495 84.729 178.5341
1310.784647 84.771 178.5646
1320.283132 84.813 178.5970
1329.850448 84.855 178.6301
1339.487093 84.897 178.6623
1349.193569 84.939 178.6925
1358.970381 84.981 178.7202
1368.818041 85.023 178.7454
1378.737061 85.065 178.7688
1388.727958 85.106 178.7916
1398.791253 85.147 178.8158
1408.927471 85.188 178.8434
1419.137140 85.229 178.8771
1429.420793 85.270 178.9188
1439.778965 85.312 178.9705
1450.212197 85.354 179.0336
1460.721033 85.398 179.1088
1471.306019 85.443 179.1958
1481.967709 85.490 179.2935
1492.706658 85.539 179.4003
1503.523426 85.589 179.5143
1514.418576 85.640 179.6341
1525.392678 85.691 179.7585
1536.446302 85.743 179.8870
1547.580025 85.794 -179.9808
1558.794428 85.844 -179.8446
1570.090095 85.892 -179.7044
1581.467615 85.939 -179.5603
1592.927581 85.983 -179.4127
1604.470591 86.025 -179.2619
1616.097246 86.064 -179.1080
1627.808153 86.100 -178.9508
1639.603922 86.132 -178.7896
1651.485168 86.162 -178.6232
1663.452510 86.188 -178.4503
1675.506573 86.210 -178.2702
1687.647984 86.231 -178.0824
1699.877377 86.249 -177.8868
1712.195390 86.265 -177.6840
1724.602663 86.280 -177.4744
1737.099845 86.294 -177.2583
1749.687587 86.306 -177.0358
1762.366544 86.318 -176.8064
1775.137379 86.329 -176.5697
1788.000756 86.339 -176.3254
1800.957346 86.350 -176.0733
1814.007826 86.360 -175.8145
1827.152874 86.371 -175.5506
1840.393177 86.382 -175.2842
1853.729425 86.394 -175.0180
1867.162312 86.406 -174.7548
1880.692540 86.417 -174.4967
1894.320813 86.428 -174.2453
1908.047843 86.437 -174.0009
1921.874344 86.445 -173.7634
1935.801038 86.452 -173.5319
1949.828650 86.456 -173.3054
1963.957912 86.459 -173.0827
1978.189561 86.460 -172.8632
1992.524338 86.460 -172.6469
2006.962991 86.459 -172.4345
2021.506272 86.456 -172.2274
2036.154940 86.453 -172.0274
2050.909758 86.450 -171.8363
2065.771495 86.446 -171.6563
2080.740927 86.442 -171.4887
2095.818833 86.438 -171.3345
2111.006001 86.434 -171.1939
2126.303220 86.429 -171.0666
2141.711290 86.424 -170.9522
2157.231013 86.419 -170.8503
2172.863198 86.414 -170.7610
2188.608660 86.409 -170.6843
2204.468221 86.405 -170.6205
2220.442706 86.400 -170.5693
2236.532950 86.395 -170.5296
2252.739789 86.390 -170.4992
2269.064070 86.385 -170.4751
2285.506644 86.379 -170.4541
2302.068367 86.374 -170.4329
2318.750104 86.368 -170.4093
2335.552723 86.364 -170.3820
2352.477101 86.361 -170.3508
2369.524119 86.361 -170.3167
2386.694668 86.363 -170.2818
2403.989641 86.369 -170.2489
2421.409941 86.378 -170.2209
2438.956476 86.390 -170.2004
2456.630160 86.405 -170.1893
2474.431915 86.424 -170.1883
2492.362668 86.446 -170.1971
2510.423356 86.470 -170.2146
2528.614918 86.497 -170.2392
2546.938304 86.526 -170.2688
2565.394469 86.559 -170.3014
2583.984375 86.594 -170.3352
2602.708991 86.632 -170.3687
2621.569293 86.673 -170.4009
2640.566265 86.718 -170.4314
2659.700897 86.766 -170.4604
2678.974186 86.819 -170.4885
2698.387137 86.875 -170.5173
2717.940763 86.935 -170.5485
2737.636082 86.999 -170.5845
2757.474121 87.067 -170.6277
2777.455915 87.138 -170.6803
2797.582506 87.212 -170.7442
2817.854942 87.288 -170.8210
2838.274281 87.366 -170.9115
2858.841586 87.445 -171.0163
2879.557931 87.524 -171.1355
2900.424394 87.603 -171.2689
2921.442065 87.680 -171.4158
2942.612039 87.757 -171.5754
2963.935418 87.830 -171.7463
2985.413316 87.901 -171.9266
3007.046852 87.968 -172.1144
3028.837153 88.030 -172.3074
3050.785356 88.088 -172.5038
3072.892604 88.141 -172.7020
3095.160050 88.189 -172.9012
3117.588856 88.232 -173.1013
3140.180190 88.269 -173.3025
3162.935230 88.300 -173.5054
3185.855163 88.324 -173.7103
3208.941182 88.342 -173.9179
3232.194493 88.353 -174.1286
3255.616307 88.357 -174.3428
3279.207844 88.354 -174.5606
3302.970336 88.343 -174.7814
3326.905021 88.324 -175.0045
3351.013146 88.298 -175.2288
3375.295969 88.264 -175.4530
