* Measurement data measured by REW V5.31.3
* Source: EXCL: Headset (USB-C to 3.5mm Headphone Jack Adapter), MICROPHONE (Master Volume), 0, volume: 0.750
* Format: 256k Log Swept Sine, 1 sweep at -12.0 dBFS with no timing reference
* Dated: Apr 7, 2025 12:09:49 PM
* REW Settings:
*  C-weighting compensation: Off
*  Target level: 75.0 dB
* Note: ; 
* Measurement: HD6XX (Forward) L6
* Smoothing: 1/6 octave
* Frequency Step: 96 ppo
* Start Frequency: 20.0 Hz
*
* Freq(Hz) SPL(dB) Phase(degrees)
20.187378 78.746 -96.1238
20.333664 78.780 -96.1573
20.481010 78.823 -96.2051
20.629424 78.876 -96.2695
20.778913 78.935 -96.3534
20.929486 78.998 -96.4597
21.081150 79.065 -96.5914
21.233912 79.132 -96.7512
21.387782 79.200 -96.9414
21.542767 79.267 -97.1637
21.698874 79.334 -97.4194
21.856113 79.401 -97.7088
22.014492 79.467 -98.0315
22.174018 79.535 -98.3862
22.334700 79.604 -98.7708
22.496546 79.675 -99.1820
22.659566 79.748 -99.6155
22.823766 79.825 -100.0660
22.989157 79.904 -100.5269
23.155745 79.985 -100.9909
23.323542 80.068 -101.4497
23.492554 80.151 -101.8946
23.662790 80.233 -102.3168
23.834261 80.311 -102.7082
24.006973 80.386 -103.0616
24.180938 80.455 -103.3714
24.356163 80.518 -103.6345
24.532658 80.573 -103.8504
24.710431 80.621 -104.0219
24.889493 80.661 -104.1553
25.069853 80.694 -104.2598
25.251519 80.720 -104.3479
25.434502 80.741 -104.4342
25.618811 80.758 -104.5342
25.804456 80.771 -104.6635
25.991445 80.782 -104.8357
26.179790 80.791 -105.0618
26.369500 80.801 -105.3483
26.560584 80.811 -105.6966
26.753053 80.824 -106.1026
26.946917 80.840 -106.5570
27.142185 80.860 -107.0462
27.338869 80.885 -107.5532
27.536977 80.917 -108.0600
27.736522 80.955 -108.5491
27.937512 81.001 -109.0054
28.139959 81.054 -109.4180
28.343872 81.113 -109.7813
28.549264 81.177 -110.0949
28.756143 81.245 -110.3637
28.964522 81.313 -110.5966
29.174411 81.381 -110.8052
29.385821 81.444 -111.0020
29.598763 81.502 -111.1987
29.813248 81.553 -111.4055
30.029287 81.595 -111.6296
30.246891 81.629 -111.8754
30.466073 81.655 -112.1443
30.686842 81.677 -112.4357
30.909212 81.696 -112.7473
31.133193 81.716 -113.0764
31.358797 81.742 -113.4201
31.586035 81.776 -113.7763
31.814921 81.821 -114.1434
32.045465 81.878 -114.5206
32.277680 81.949 -114.9070
32.511577 82.031 -115.3016
32.747169 82.124 -115.7030
32.984469 82.225 -116.1090
33.223488 82.332 -116.5174
33.464239 82.440 -116.9260
33.706735 82.549 -117.3329
33.950987 82.655 -117.7369
34.197010 82.759 -118.1374
34.444816 82.859 -118.5340
34.694417 82.956 -118.9260
34.945827 83.050 -119.3118
35.199059 83.142 -119.6889
35.454126 83.233 -120.0536
35.711041 83.325 -120.4017
35.969818 83.417 -120.7290
36.230470 83.512 -121.0319
36.493011 83.609 -121.3086
36.757455 83.707 -121.5590
37.023814 83.806 -121.7851
37.292104 83.903 -121.9902
37.562338 83.998 -122.1791
37.834530 84.089 -122.3572
38.108695 84.174 -122.5301
38.384846 84.253 -122.7037
38.662999 84.325 -122.8837
38.943167 84.391 -123.0755
39.225365 84.452 -123.2842
39.509608 84.509 -123.5138
39.795911 84.563 -123.7671
40.084289 84.615 -124.0453
40.374756 84.667 -124.3479
40.667328 84.718 -124.6730
40.962020 84.769 -125.0167
41.258848 84.819 -125.3743
41.557827 84.867 -125.7399
41.858972 84.913 -126.1069
42.162299 84.955 -126.4685
42.467824 84.992 -126.8182
42.775564 85.024 -127.1503
43.085533 85.053 -127.4615
43.397749 85.079 -127.7513
43.712227 85.104 -128.0228
44.028983 85.130 -128.2827
44.348036 85.160 -128.5410
44.669400 85.195 -128.8086
44.993093 85.235 -129.0954
45.319131 85.282 -129.4083
45.647532 85.334 -129.7496
45.978313 85.389 -130.1165
46.311491 85.447 -130.5020
46.647083 85.506 -130.8963
46.985107 85.564 -131.2893
47.325581 85.621 -131.6719
47.668521 85.675 -132.0376
48.013947 85.727 -132.3826
48.361876 85.775 -132.7057
48.712326 85.819 -133.0070
49.065315 85.859 -133.2874
49.420863 85.895 -133.5479
49.778987 85.927 -133.7894
50.139706 85.955 -134.0130
50.503039 85.981 -134.2204
50.869005 86.004 -134.4144
51.237623 86.026 -134.5995
51.608912 86.046 -134.7815
51.982891 86.065 -134.9666
52.359580 86.084 -135.1611
52.739000 86.102 -135.3697
53.121168 86.120 -135.5956
53.506106 86.138 -135.8402
53.893833 86.157 -136.1036
54.284370 86.175 -136.3849
54.677737 86.194 -136.6825
55.073955 86.213 -136.9949
55.473043 86.233 -137.3202
55.875024 86.252 -137.6568
56.279917 86.270 -138.0033
56.687745 86.288 -138.3591
57.098527 86.306 -138.7232
57.512287 86.324 -139.0944
57.929045 86.343 -139.4701
58.348822 86.364 -139.8457
58.771642 86.388 -140.2148
59.197525 86.418 -140.5703
59.626495 86.454 -140.9061
60.058573 86.497 -141.2184
60.493782 86.548 -141.5063
60.932145 86.606 -141.7721
61.373685 86.668 -142.0203
61.818424 86.734 -142.2564
62.266386 86.802 -142.4865
62.717593 86.870 -142.7161
63.172071 86.937 -142.9493
63.629842 87.004 -143.1886
64.090930 87.070 -143.4347
64.555359 87.134 -143.6873
65.023154 87.197 -143.9455
65.494339 87.259 -144.2090
65.968938 87.319 -144.4785
66.446976 87.377 -144.7551
66.928478 87.433 -145.0406
67.413469 87.487 -145.3361
67.901975 87.539 -145.6426
68.394021 87.590 -145.9602
68.889632 87.639 -146.2883
69.388835 87.686 -146.6253
69.891655 87.731 -146.9692
70.398118 87.775 -147.3171
70.908252 87.816 -147.6662
71.422083 87.855 -148.0135
71.939636 87.893 -148.3572
72.460941 87.928 -148.6958
72.986023 87.962 -149.0285
73.514909 87.994 -149.3553
74.047629 88.023 -149.6766
74.584208 88.051 -149.9931
75.124676 88.076 -150.3060
75.669061 88.099 -150.6164
76.217390 88.120 -150.9253
76.769692 88.138 -151.2336
77.325997 88.155 -151.5422
77.886333 88.170 -151.8516
78.450730 88.182 -152.1623
79.019216 88.194 -152.4740
79.591822 88.204 -152.7862
80.168577 88.213 -153.0976
80.749512 88.220 -153.4072
81.334656 88.228 -153.7142
81.924040 88.235 -154.0184
82.517696 88.241 -154.3201
83.115653 88.247 -154.6199
83.717943 88.254 -154.9187
84.324598 88.259 -155.2173
84.935649 88.265 -155.5163
85.551128 88.269 -155.8162
86.171066 88.273 -156.1173
86.795497 88.277 -156.4201
87.424453 88.279 -156.7245
88.057967 88.281 -157.0304
88.696071 88.283 -157.3372
89.338800 88.284 -157.6440
89.986185 88.286 -157.9504
90.638262 88.287 -158.2556
91.295065 88.288 -158.5597
91.956626 88.290 -158.8626
92.622982 88.291 -159.1647
93.294166 88.293 -159.4662
93.970214 88.295 -159.7676
94.651161 88.297 -160.0690
95.337042 88.299 -160.3703
96.027894 88.302 -160.6714
96.723752 88.304 -160.9721
97.424652 88.308 -161.2720
98.130631 88.311 -161.5710
98.841726 88.315 -161.8692
99.557974 88.319 -162.1669
100.279412 88.324 -162.4642
101.006078 88.329 -162.7617
101.738010 88.335 -163.0599
102.475245 88.341 -163.3589
103.217823 88.348 -163.6587
103.965782 88.355 -163.9588
104.719161 88.363 -164.2589
105.477999 88.369 -164.5587
106.242336 88.376 -164.8585
107.012212 88.382 -165.1588
107.787666 88.387 -165.4599
108.568740 88.392 -165.7618
109.355474 88.398 -166.0640
110.147909 88.405 -166.3659
110.946086 88.412 -166.6664
111.750047 88.420 -166.9641
112.559834 88.429 -167.2571
113.375489 88.439 -167.5440
114.197055 88.448 -167.8238
115.024574 88.458 -168.0970
115.858089 88.467 -168.3645
116.697645 88.476 -168.6280
117.543284 88.484 -168.8887
118.395051 88.492 -169.1477
119.252990 88.501 -169.4057
120.117147 88.509 -169.6631
120.987565 88.517 -169.9200
121.864291 88.526 -170.1765
122.747370 88.535 -170.4319
123.636848 88.543 -170.6858
124.532771 88.552 -170.9373
125.435187 88.560 -171.1860
126.344142 88.568 -171.4317
127.259684 88.575 -171.6745
128.181860 88.581 -171.9146
129.110718 88.587 -172.1526
130.046308 88.591 -172.3887
130.988677 88.595 -172.6232
131.937875 88.596 -172.8561
132.893951 88.597 -173.0876
133.856956 88.595 -173.3176
134.826938 88.592 -173.5464
135.803950 88.587 -173.7742
136.788041 88.580 -174.0013
137.779264 88.572 -174.2280
138.777669 88.562 -174.4545
139.783309 88.552 -174.6810
140.796237 88.540 -174.9073
141.816504 88.528 -175.1330
142.844165 88.516 -175.3578
143.879273 88.503 -175.5814
144.921881 88.489 -175.8038
145.972045 88.474 -176.0252
147.029819 88.458 -176.2457
148.095257 88.441 -176.4657
149.168417 88.424 -176.6855
150.249353 88.407 -176.9048
151.338121 88.389 -177.1237
152.434780 88.370 -177.3414
153.539385 88.352 -177.5574
154.651995 88.334 -177.7714
155.772667 88.315 -177.9831
156.901460 88.297 -178.1928
158.038432 88.279 -178.4007
159.183644 88.261 -178.6073
160.337154 88.243 -178.8128
161.499023 88.225 -179.0175
162.669312 88.207 -179.2215
163.848081 88.189 -179.4244
165.035392 88.172 -179.6259
166.231306 88.155 -179.8256
167.435887 88.138 179.9768
168.649196 88.121 179.7813
169.871298 88.104 179.5878
171.102255 88.087 179.3962
172.342133 88.070 179.2066
173.590995 88.054 179.0187
174.848907 88.037 178.8326
176.115934 88.021 178.6484
177.392143 88.005 178.4661
178.677599 87.989 178.2859
179.972371 87.972 178.1079
181.276525 87.955 177.9320
182.590129 87.937 177.7580
183.913252 87.918 177.5857
185.245964 87.898 177.4149
186.588332 87.877 177.2454
187.940428 87.856 177.0773
189.302322 87.833 176.9106
190.674085 87.810 176.7457
192.055788 87.786 176.5828
193.447503 87.762 176.4224
194.849303 87.737 176.2645
196.261262 87.712 176.1091
197.683452 87.686 175.9555
199.115948 87.661 175.8029
200.558824 87.637 175.6506
202.012156 87.613 175.4980
203.476019 87.589 175.3445
204.950490 87.567 175.1899
206.435646 87.544 175.0341
207.931564 87.523 174.8769
209.438322 87.501 174.7185
210.955998 87.480 174.5593
212.484672 87.459 174.4000
214.024424 87.439 174.2413
215.575333 87.419 174.0841
217.137481 87.399 173.9293
218.710948 87.380 173.7779
220.295818 87.362 173.6307
221.892172 87.344 173.4883
223.500094 87.326 173.3512
225.119668 87.310 173.2191
226.750978 87.294 173.0915
228.394109 87.279 172.9677
230.049147 87.266 172.8465
231.716178 87.254 172.7272
233.395289 87.243 172.6089
235.086567 87.234 172.4907
236.790102 87.225 172.3722
238.505980 87.218 172.2527
240.234293 87.211 172.1321
241.975130 87.204 172.0104
243.728581 87.198 171.8875
245.494739 87.192 171.7634
247.273695 87.186 171.6379
249.065542 87.180 171.5113
250.870374 87.175 171.3833
252.688284 87.169 171.2542
254.519367 87.164 171.1238
256.363720 87.158 170.9929
258.221437 87.153 170.8624
260.092616 87.147 170.7337
261.977354 87.141 170.6089
263.875750 87.134 170.4901
265.787903 87.128 170.3786
267.713911 87.121 170.2751
269.653877 87.115 170.1794
271.607900 87.108 170.0903
273.576083 87.102 170.0068
275.558528 87.095 169.9278
277.555338 87.089 169.8523
279.566619 87.082 169.7794
281.592474 87.076 169.7087
283.633009 87.069 169.6396
285.688331 87.063 169.5721
287.758546 87.058 169.5061
289.843763 87.053 169.4419
291.944090 87.048 169.3796
294.059638 87.044 169.3194
296.190515 87.040 169.2610
298.336833 87.037 169.2043
300.498705 87.034 169.1488
302.676243 87.031 169.0944
304.869559 87.029 169.0410
307.078770 87.027 168.9885
309.303989 87.025 168.9368
311.545334 87.023 168.8859
313.802919 87.022 168.8359
316.076865 87.022 168.7869
318.367288 87.022 168.7390
320.674309 87.022 168.6922
322.998047 87.023 168.6464
325.338624 87.024 168.6014
327.696162 87.025 168.5569
330.070783 87.027 168.5126
332.462612 87.027 168.4683
334.871773 87.028 168.4243
337.298392 87.028 168.3808
339.742595 87.026 168.3384
342.204510 87.024 168.2977
344.684265 87.021 168.2590
347.181989 87.017 168.2228
349.697813 87.012 168.1889
352.231868 87.005 168.1574
354.784285 86.997 168.1284
357.355198 86.986 168.1018
359.944741 86.973 168.0778
362.553049 86.959 168.0564
365.180258 86.942 168.0369
367.826505 86.924 168.0185
370.491927 86.904 168.0005
373.176665 86.884 167.9821
375.880856 86.863 167.9627
378.604644 86.843 167.9420
381.348169 86.823 167.9202
384.111575 86.803 167.8979
386.895006 86.783 167.8762
389.698607 86.763 167.8562
392.522524 86.744 167.8391
395.366904 86.724 167.8259
398.231895 86.705 167.8176
401.117648 86.684 167.8146
404.024312 86.664 167.8167
406.952038 86.642 167.8233
409.900981 86.621 167.8331
412.871292 86.598 167.8446
415.863128 86.576 167.8561
418.876643 86.552 167.8664
421.911996 86.528 167.8746
424.969344 86.504 167.8806
428.048847 86.478 167.8846
431.150666 86.451 167.8873
434.274961 86.423 167.8896
437.421897 86.394 167.8923
440.591636 86.363 167.8959
443.784345 86.332 167.9010
447.000189 86.299 167.9077
450.239337 86.265 167.9156
453.501956 86.230 167.9246
456.788219 86.195 167.9341
460.098294 86.159 167.9438
463.432356 86.124 167.9537
466.790578 86.088 167.9635
470.173135 86.053 167.9736
473.580203 86.018 167.9843
477.011961 85.983 167.9958
480.468586 85.949 168.0087
483.950259 85.915 168.0232
487.457163 85.882 168.0398
490.989478 85.850 168.0590
494.547390 85.819 168.0811
498.131084 85.789 168.1064
501.740748 85.761 168.1348
505.376568 85.734 168.1662
509.038735 85.708 168.2003
512.727439 85.684 168.2368
516.442874 85.662 168.2758
520.185232 85.643 168.3168
523.954708 85.625 168.3595
527.751500 85.610 168.4033
531.575805 85.597 168.4476
535.427822 85.587 168.4917
539.307753 85.579 168.5349
543.215800 85.573 168.5768
547.152165 85.570 168.6176
551.117055 85.569 168.6574
555.110677 85.570 168.6965
559.133237 85.573 168.7356
563.184947 85.577 168.7751
567.266018 85.583 168.8155
571.376661 85.591 168.8570
575.517092 85.600 168.8994
579.687526 85.610 168.9420
583.888181 85.621 168.9843
588.119275 85.632 169.0256
592.381030 85.643 169.0659
596.673667 85.654 169.1052
600.997410 85.665 169.1439
605.352485 85.675 169.1827
609.739119 85.685 169.2222
614.157540 85.694 169.2630
618.607979 85.702 169.3055
623.090667 85.709 169.3502
627.605839 85.715 169.3969
632.153730 85.720 169.4453
636.734576 85.724 169.4946
641.348617 85.727 169.5441
645.996094 85.728 169.5928
650.677248 85.729 169.6398
655.392323 85.728 169.6847
660.141566 85.727 169.7270
664.925224 85.724 169.7663
669.743546 85.721 169.8024
674.596784 85.716 169.8352
679.485191 85.710 169.8648
684.409020 85.704 169.8916
689.368530 85.696 169.9163
694.363979 85.688 169.9395
699.395626 85.678 169.9623
704.463736 85.667 169.9853
709.568570 85.655 170.0087
714.710396 85.643 170.0325
719.889483 85.629 170.0561
725.106099 85.615 170.0786
730.360516 85.600 170.0986
735.653010 85.584 170.1147
740.983855 85.567 170.1256
746.353329 85.550 170.1301
751.761713 85.531 170.1274
757.209288 85.510 170.1167
762.696339 85.489 170.0978
768.223151 85.465 170.0706
773.790013 85.440 170.0352
779.397214 85.413 169.9921
785.045047 85.385 169.9420
790.733808 85.354 169.8857
796.463791 85.321 169.8241
802.235296 85.286 169.7582
808.048623 85.249 169.6890
813.904077 85.210 169.6174
819.801961 85.169 169.5448
825.742584 85.125 169.4729
831.726255 85.080 169.4039
837.753287 85.032 169.3408
843.823992 84.981 169.2876
849.938689 84.927 169.2493
856.097695 84.871 169.2321
862.301332 84.812 169.2427
868.549922 84.752 169.2885
874.843793 84.691 169.3757
881.183272 84.631 169.5094
887.568689 84.573 169.6917
894.000378 84.518 169.9214
900.478673 84.469 170.1936
907.003913 84.428 170.5003
913.576437 84.394 170.8311
920.196588 84.369 171.1744
926.864712 84.354 171.5190
933.581156 84.347 171.8545
940.346270 84.349 172.1726
947.160407 84.358 172.4669
954.023921 84.374 172.7332
960.937172 84.395 172.9698
967.900519 84.422 173.1766
974.914325 84.452 173.3552
981.978956 84.485 173.5078
989.094780 84.521 173.6376
996.262169 84.559 173.7476
1003.481495 84.599 173.8405
1010.753136 84.640 173.9186
1018.077470 84.684 173.9836
1025.454879 84.729 174.0364
1032.885748 84.776 174.0772
1040.370463 84.824 174.1060
1047.909417 84.873 174.1224
1055.503000 84.924 174.1259
1063.151610 84.975 174.1168
1070.855645 85.026 174.0958
1078.615506 85.077 174.0645
1086.431599 85.128 174.0250
1094.304330 85.177 173.9793
1102.234110 85.226 173.9292
1110.221353 85.274 173.8760
1118.266475 85.322 173.8206
1126.369895 85.368 173.7630
1134.532035 85.414 173.7031
1142.753322 85.459 173.6406
1151.034184 85.503 173.5750
1159.375052 85.546 173.5065
1167.776361 85.587 173.4358
1176.238550 85.628 173.3640
1184.762060 85.667 173.2924
1193.347334 85.705 173.2224
1201.994821 85.743 173.1550
1210.704971 85.779 173.0905
1219.478238 85.816 173.0287
1228.315080 85.852 172.9690
1237.215957 85.888 172.9102
1246.181334 85.924 172.8517
1255.211678 85.960 172.7925
1264.307459 85.996 172.7327
1273.469152 86.032 172.6720
1282.697235 86.067 172.6110
1291.992188 86.103 172.5503
1301.354495 86.138 172.4903
1310.784647 86.173 172.4314
1320.283132 86.207 172.3735
1329.850448 86.241 172.3163
1339.487093 86.275 172.2592
1349.193569 86.309 172.2020
1358.970381 86.342 172.1443
1368.818041 86.375 172.0862
1378.737061 86.409 172.0280
1388.727958 86.442 171.9700
1398.791253 86.475 171.9124
1408.927471 86.509 171.8548
1419.137140 86.543 171.7968
1429.420793 86.577 171.7376
1439.778965 86.612 171.6774
1450.212197 86.647 171.6170
1460.721033 86.681 171.5588
1471.306019 86.714 171.5057
1481.967709 86.747 171.4610
1492.706658 86.780 171.4278
1503.523426 86.811 171.4087
1514.418576 86.843 171.4055
1525.392678 86.873 171.4193
1536.446302 86.903 171.4508
1547.580025 86.933 171.4997
1558.794428 86.961 171.5649
1570.090095 86.990 171.6442
1581.467615 87.018 171.7347
1592.927581 87.044 171.8329
1604.470591 87.070 171.9355
1616.097246 87.094 172.0389
1627.808153 87.117 172.1398
1639.603922 87.137 172.2354
1651.485168 87.154 172.3237
1663.452510 87.168 172.4045
1675.506573 87.178 172.4793
1687.647984 87.183 172.5515
1699.877377 87.183 172.6260
1712.195390 87.178 172.7081
1724.602663 87.169 172.8034
1737.099845 87.157 172.9172
1749.687587 87.141 173.0538
1762.366544 87.123 173.2164
1775.137379 87.104 173.4062
1788.000756 87.085 173.6222
1800.957346 87.067 173.8607
1814.007826 87.051 174.1160
1827.152874 87.038 174.3817
1840.393177 87.026 174.6513
1853.729425 87.017 174.9190
1867.162312 87.008 175.1796
1880.692540 87.000 175.4288
1894.320813 86.992 175.6633
1908.047843 86.983 175.8814
1921.874344 86.972 176.0832
1935.801038 86.958 176.2709
1949.828650 86.940 176.4492
1963.957912 86.918 176.6241
1978.189561 86.892 176.8018
1992.524338 86.862 176.9873
2006.962991 86.829 177.1840
2021.506272 86.794 177.3931
2036.154940 86.758 177.6147
2050.909758 86.721 177.8477
2065.771495 86.684 178.0901
2080.740927 86.648 178.3387
2095.818833 86.613 178.5891
2111.006001 86.581 178.8360
2126.303220 86.550 179.0745
2141.711290 86.521 179.3007
2157.231013 86.494 179.5125
2172.863198 86.468 179.7092
2188.608660 86.444 179.8912
2204.468221 86.420 -179.9402
2220.442706 86.397 -179.7837
2236.532950 86.374 -179.6373
2252.739789 86.352 -179.4993
2269.064070 86.331 -179.3688
2285.506644 86.311 -179.2451
2302.068367 86.292 -179.1280
2318.750104 86.273 -179.0173
2335.552723 86.256 -178.9123
2352.477101 86.240 -178.8118
2369.524119 86.226 -178.7145
2386.694668 86.212 -178.6187
2403.989641 86.200 -178.5228
2421.409941 86.190 -178.4254
2438.956476 86.182 -178.3245
2456.630160 86.176 -178.2188
2474.431915 86.174 -178.1077
2492.362668 86.175 -177.9917
2510.423356 86.180 -177.8725
2528.614918 86.189 -177.7518
2546.938304 86.202 -177.6315
2565.394469 86.220 -177.5127
2583.984375 86.242 -177.3957
2602.708991 86.268 -177.2801
2621.569293 86.297 -177.1647
2640.566265 86.331 -177.0483
2659.700897 86.368 -176.9301
2678.974186 86.410 -176.8098
2698.387137 86.456 -176.6875
2717.940763 86.505 -176.5639
2737.636082 86.559 -176.4394
2757.474121 86.617 -176.3148
2777.455915 86.680 -176.1909
2797.582506 86.746 -176.0695
2817.854942 86.816 -175.9531
2838.274281 86.889 -175.8447
2858.841586 86.965 -175.7471
2879.557931 87.044 -175.6628
2900.424394 87.124 -175.5931
2921.442065 87.204 -175.5382
2942.612039 87.284 -175.4974
2963.935418 87.363 -175.4692
2985.413316 87.440 -175.4520
3007.046852 87.514 -175.4440
3028.837153 87.586 -175.4439
3050.785356 87.654 -175.4502
3072.892604 87.718 -175.4617
3095.160050 87.778 -175.4776
3117.588856 87.833 -175.4968
3140.180190 87.883 -175.5184
3162.935230 87.928 -175.5418
3185.855163 87.967 -175.5670
3208.941182 88.001 -175.5951
3232.194493 88.030 -175.6275
3255.616307 88.053 -175.6661
3279.207844 88.070 -175.7122
3302.970336 88.081 -175.7669
3326.905021 88.085 -175.8299
3351.013146 88.083 -175.9007
3375.295969 88.074 -175.9778
3399.754755 88.059 -176.0595
