* Measurement data measured by REW V5.31.3
* Source: EXCL: Headset (USB-C to 3.5mm Headphone Jack Adapter), MICROPHONE (Master Volume), 0, volume: 0.750
* Format: 256k Log Swept Sine, 1 sweep at -12.0 dBFS with no timing reference
* Dated: Apr 1, 2025 10:12:24 PM
* REW Settings:
*  C-weighting compensation: Off
*  Target level: 75.0 dB
* Note: ; 
* Measurement: HD6XX L8
* Smoothing: 1/6 octave
* Frequency Step: 96 ppo
* Start Frequency: 20.0 Hz
*
* Freq(Hz) SPL(dB) Phase(degrees)
20.033247 83.889 -95.3107
20.178416 83.952 -95.6019
20.324637 84.016 -95.8732
20.471918 84.081 -96.1201
20.620266 84.149 -96.3390
20.769689 84.221 -96.5273
20.920195 84.297 -96.6845
21.071791 84.380 -96.8123
21.224486 84.469 -96.9149
21.378287 84.566 -96.9990
21.533203 84.670 -97.0729
21.689242 84.780 -97.1461
21.846411 84.897 -97.2284
22.004719 85.018 -97.3284
22.164174 85.141 -97.4531
22.324785 85.263 -97.6066
22.486559 85.384 -97.7903
22.649506 85.501 -98.0027
22.813634 85.611 -98.2396
22.978951 85.714 -98.4951
23.145466 85.810 -98.7621
23.313188 85.897 -99.0335
23.482124 85.976 -99.3032
23.652286 86.048 -99.5663
23.823680 86.114 -99.8204
23.996316 86.174 -100.0654
24.170203 86.231 -100.3031
24.345351 86.285 -100.5376
24.521767 86.336 -100.7743
24.699462 86.387 -101.0193
24.878444 86.436 -101.2787
25.058724 86.485 -101.5577
25.240310 86.532 -101.8605
25.423211 86.578 -102.1894
25.607438 86.622 -102.5451
25.793000 86.664 -102.9264
25.979907 86.702 -103.3303
26.168168 86.738 -103.7526
26.357794 86.770 -104.1877
26.548793 86.798 -104.6295
26.741176 86.823 -105.0718
26.934954 86.845 -105.5085
27.130136 86.866 -105.9348
27.326732 86.884 -106.3467
27.524753 86.903 -106.7420
27.724208 86.921 -107.1204
27.925110 86.942 -107.4829
28.127466 86.963 -107.8318
28.331290 86.987 -108.1700
28.536590 87.014 -108.5005
28.743378 87.043 -108.8256
28.951664 87.073 -109.1471
29.161460 87.106 -109.4654
29.372776 87.141 -109.7803
29.585623 87.178 -110.0912
29.800013 87.217 -110.3976
30.015956 87.259 -110.6995
30.233464 87.304 -110.9977
30.452548 87.353 -111.2943
30.673220 87.406 -111.5914
30.895490 87.464 -111.8916
31.119372 87.525 -112.1965
31.344876 87.590 -112.5072
31.572014 87.658 -112.8231
31.800797 87.730 -113.1428
32.031239 87.805 -113.4641
32.263351 87.883 -113.7850
32.497144 87.965 -114.1035
32.732632 88.050 -114.4191
32.969826 88.138 -114.7321
33.208739 88.230 -115.0436
33.449383 88.325 -115.3556
33.691771 88.421 -115.6697
33.935916 88.519 -115.9871
34.181829 88.618 -116.3081
34.429525 88.717 -116.6326
34.679015 88.816 -116.9591
34.930314 88.913 -117.2863
35.183433 89.009 -117.6123
35.438387 89.104 -117.9354
35.695188 89.196 -118.2539
35.953850 89.287 -118.5668
36.214387 89.377 -118.8736
36.476811 89.465 -119.1746
36.741137 89.553 -119.4709
37.007378 89.640 -119.7649
37.275549 89.726 -120.0594
37.545663 89.811 -120.3576
37.817734 89.896 -120.6624
38.091777 89.979 -120.9757
38.367806 90.060 -121.2983
38.645835 90.140 -121.6298
38.925879 90.217 -121.9686
39.207952 90.292 -122.3127
39.492069 90.365 -122.6607
39.778244 90.436 -123.0114
40.066494 90.506 -123.3641
40.356832 90.574 -123.7189
40.649275 90.640 -124.0756
40.943836 90.704 -124.4337
41.240532 90.767 -124.7919
41.539378 90.827 -125.1486
41.840389 90.886 -125.5013
42.143582 90.941 -125.8477
42.448972 90.995 -126.1851
42.756574 91.046 -126.5116
43.066406 91.096 -126.8254
43.378483 91.144 -127.1257
43.692822 91.190 -127.4127
44.009438 91.235 -127.6876
44.328348 91.280 -127.9528
44.649570 91.324 -128.2117
44.973119 91.367 -128.4679
45.299013 91.409 -128.7250
45.627268 91.449 -128.9855
45.957902 91.488 -129.2512
46.290932 91.524 -129.5222
46.626375 91.558 -129.7983
46.964249 91.589 -130.0784
47.304571 91.618 -130.3616
47.647360 91.645 -130.6470
47.992632 91.670 -130.9344
48.340407 91.693 -131.2240
48.690701 91.716 -131.5165
49.043534 91.737 -131.8126
49.398924 91.758 -132.1132
49.756889 91.778 -132.4185
50.117447 91.797 -132.7280
50.480619 91.815 -133.0406
50.846423 91.833 -133.3548
51.214877 91.850 -133.6682
51.586001 91.866 -133.9788
51.959814 91.883 -134.2847
52.336336 91.899 -134.5848
52.715587 91.916 -134.8789
53.097586 91.934 -135.1676
53.482353 91.953 -135.4520
53.869908 91.974 -135.7334
54.260272 91.995 -136.0129
54.653464 92.018 -136.2916
55.049506 92.042 -136.5703
55.448417 92.068 -136.8495
55.850219 92.095 -137.1304
56.254933 92.123 -137.4133
56.662579 92.153 -137.6988
57.073180 92.184 -137.9868
57.486755 92.216 -138.2769
57.903328 92.250 -138.5679
58.322919 92.284 -138.8583
58.745551 92.320 -139.1462
59.171246 92.358 -139.4296
59.600025 92.398 -139.7067
60.031911 92.439 -139.9766
60.466927 92.483 -140.2399
60.905096 92.530 -140.4979
61.346439 92.580 -140.7527
61.790981 92.632 -141.0067
62.238744 92.686 -141.2616
62.689751 92.742 -141.5192
63.144027 92.800 -141.7803
63.601595 92.858 -142.0460
64.062478 92.917 -142.3170
64.526701 92.977 -142.5938
64.994288 93.037 -142.8763
65.465264 93.096 -143.1650
65.939652 93.154 -143.4597
66.417478 93.212 -143.7604
66.898766 93.269 -144.0667
67.383542 93.324 -144.3781
67.871831 93.378 -144.6935
68.363659 93.431 -145.0124
68.859050 93.482 -145.3339
69.358031 93.531 -145.6574
69.860628 93.579 -145.9827
70.366867 93.625 -146.3094
70.876774 93.669 -146.6374
71.390376 93.711 -146.9665
71.907700 93.751 -147.2965
72.428773 93.788 -147.6271
72.953622 93.823 -147.9580
73.482274 93.855 -148.2889
74.014757 93.885 -148.6196
74.551098 93.913 -148.9500
75.091326 93.937 -149.2800
75.635469 93.959 -149.6095
76.183555 93.979 -149.9384
76.735612 93.996 -150.2662
77.291670 94.012 -150.5930
77.851757 94.025 -150.9182
78.415903 94.036 -151.2417
78.984137 94.046 -151.5635
79.556489 94.055 -151.8834
80.132988 94.063 -152.2017
80.713665 94.071 -152.5186
81.298549 94.078 -152.8341
81.887672 94.084 -153.1486
82.481064 94.090 -153.4617
83.078756 94.095 -153.7733
83.680778 94.100 -154.0826
84.287164 94.105 -154.3895
84.897943 94.109 -154.6937
85.513149 94.112 -154.9954
86.132812 94.115 -155.2949
86.756966 94.118 -155.5931
87.385643 94.121 -155.8910
88.018875 94.123 -156.1896
88.656696 94.125 -156.4899
89.299139 94.127 -156.7927
89.946238 94.129 -157.0985
90.598025 94.130 -157.4071
91.254536 94.131 -157.7178
91.915804 94.132 -158.0295
92.581864 94.132 -158.3411
93.252750 94.132 -158.6512
93.928498 94.132 -158.9591
94.609143 94.132 -159.2640
95.294719 94.131 -159.5657
95.985264 94.130 -159.8643
96.680813 94.129 -160.1598
97.381402 94.128 -160.4529
98.087068 94.127 -160.7441
98.797847 94.126 -161.0336
99.513777 94.126 -161.3220
100.234895 94.126 -161.6094
100.961238 94.127 -161.8957
101.692845 94.128 -162.1808
102.429753 94.130 -162.4647
103.172002 94.133 -162.7470
103.919628 94.136 -163.0278
104.672673 94.140 -163.3073
105.431174 94.144 -163.5854
106.195172 94.149 -163.8628
106.964706 94.154 -164.1402
107.739816 94.161 -164.4184
108.520543 94.168 -164.6981
109.306928 94.177 -164.9796
110.099011 94.186 -165.2624
110.896834 94.196 -165.5458
111.700438 94.207 -165.8289
112.509866 94.218 -166.1108
113.325158 94.231 -166.3909
114.146359 94.243 -166.6688
114.973511 94.256 -166.9444
115.806656 94.269 -167.2177
116.645839 94.281 -167.4889
117.491103 94.294 -167.7584
118.342492 94.305 -168.0265
119.200050 94.316 -168.2935
120.063823 94.326 -168.5594
120.933855 94.335 -168.8241
121.810191 94.344 -169.0873
122.692878 94.352 -169.3488
123.581962 94.359 -169.6083
124.477487 94.365 -169.8657
125.379503 94.370 -170.1211
126.288054 94.375 -170.3746
127.203189 94.379 -170.6264
128.124956 94.382 -170.8766
129.053402 94.385 -171.1251
129.988577 94.387 -171.3718
130.930527 94.387 -171.6163
131.879304 94.387 -171.8582
132.834956 94.386 -172.0970
133.797533 94.383 -172.3322
134.767085 94.379 -172.5631
135.743663 94.373 -172.7895
136.727317 94.366 -173.0112
137.718100 94.358 -173.2288
138.716062 94.348 -173.4427
139.721255 94.336 -173.6539
140.733733 94.324 -173.8634
141.753548 94.310 -174.0721
142.780753 94.295 -174.2810
143.815401 94.280 -174.4907
144.857546 94.264 -174.7016
145.907244 94.247 -174.9141
146.964548 94.229 -175.1278
148.029514 94.211 -175.3426
149.102197 94.193 -175.5580
150.182652 94.174 -175.7734
151.270938 94.156 -175.9883
152.367109 94.137 -176.2024
153.471224 94.118 -176.4152
154.583340 94.099 -176.6263
155.703515 94.080 -176.8358
156.831807 94.061 -177.0432
157.968274 94.042 -177.2485
159.112978 94.024 -177.4514
160.265976 94.005 -177.6515
161.427329 93.986 -177.8483
162.597098 93.968 -178.0411
163.775344 93.949 -178.2292
164.962128 93.931 -178.4124
166.157511 93.913 -178.5905
167.361557 93.895 -178.7638
168.574328 93.877 -178.9332
169.795887 93.860 -179.0997
171.026298 93.842 -179.2640
172.265625 93.826 -179.4270
173.513933 93.809 -179.5889
174.771286 93.792 -179.7499
176.037751 93.775 -179.9102
177.313393 93.758 179.9302
178.598279 93.741 179.7711
179.892476 93.722 179.6124
181.196051 93.704 179.4540
182.509072 93.684 179.2962
183.831608 93.664 179.1392
185.163728 93.642 178.9834
186.505500 93.620 178.8293
187.856996 93.596 178.6776
189.218285 93.572 178.5281
190.589439 93.547 178.3810
191.970529 93.522 178.2353
193.361626 93.496 178.0901
194.762804 93.471 177.9443
196.174136 93.446 177.7968
197.595694 93.421 177.6471
199.027554 93.397 177.4952
200.469790 93.373 177.3423
201.922477 93.349 177.1897
203.385690 93.325 177.0387
204.859507 93.301 176.8904
206.344003 93.277 176.7453
207.839257 93.254 176.6039
209.345346 93.230 176.4663
210.862348 93.206 176.3328
212.390344 93.181 176.2031
213.929412 93.157 176.0773
215.479633 93.134 175.9550
217.041087 93.110 175.8359
218.613856 93.087 175.7201
220.198022 93.065 175.6077
221.793668 93.045 175.4988
223.400876 93.025 175.3936
225.019731 93.007 175.2917
226.650317 92.990 175.1929
228.292718 92.975 175.0959
229.947022 92.961 175.0002
231.613312 92.948 174.9051
233.291678 92.936 174.8104
234.982206 92.925 174.7161
236.684984 92.916 174.6226
238.400101 92.907 174.5305
240.127646 92.899 174.4404
241.867710 92.893 174.3527
243.620383 92.887 174.2675
245.385757 92.882 174.1844
247.163923 92.877 174.1028
248.954975 92.873 174.0217
250.759005 92.868 173.9406
252.576108 92.865 173.8589
254.406379 92.861 173.7767
256.249912 92.857 173.6942
258.106805 92.852 173.6118
259.977153 92.848 173.5302
261.861055 92.842 173.4498
263.758608 92.837 173.3710
265.669911 92.830 173.2939
267.595065 92.823 173.2183
269.534169 92.816 173.1442
271.487325 92.809 173.0714
273.454634 92.802 173.0001
275.436199 92.795 172.9307
277.432123 92.788 172.8629
279.442511 92.782 172.7969
281.467467 92.777 172.7321
283.507096 92.772 172.6684
285.561505 92.767 172.6055
287.630801 92.763 172.5436
289.715093 92.760 172.4832
291.814488 92.757 172.4245
293.929096 92.754 172.3683
296.059027 92.751 172.3149
298.204393 92.749 172.2648
300.365305 92.747 172.2180
302.541876 92.745 172.1744
304.734219 92.743 172.1344
306.942449 92.741 172.0980
309.166680 92.740 172.0655
311.407029 92.738 172.0372
313.663613 92.736 172.0132
315.936549 92.734 171.9933
318.225955 92.732 171.9767
320.531952 92.730 171.9627
322.854659 92.728 171.9500
325.194197 92.726 171.9377
327.550688 92.723 171.9252
329.924255 92.721 171.9120
332.315022 92.717 171.8979
334.723114 92.714 171.8832
337.148655 92.710 171.8680
339.591774 92.705 171.8530
342.052596 92.699 171.8386
344.531250 92.693 171.8254
347.027865 92.687 171.8137
349.542572 92.680 171.8036
352.075502 92.672 171.7953
354.626786 92.663 171.7887
357.196558 92.653 171.7839
359.784951 92.643 171.7809
362.392101 92.631 171.7799
365.018144 92.619 171.7809
367.663216 92.605 171.7838
370.327455 92.591 171.7881
373.011000 92.577 171.7938
375.713992 92.562 171.8004
378.436570 92.547 171.8081
381.178878 92.531 171.8169
383.941057 92.516 171.8270
386.723252 92.500 171.8389
389.525608 92.485 171.8524
392.348271 92.469 171.8676
395.191389 92.453 171.8839
398.055108 92.436 171.9010
400.939580 92.419 171.9182
403.844953 92.401 171.9348
406.771380 92.382 171.9509
409.719013 92.362 171.9662
412.688006 92.341 171.9812
415.678514 92.319 171.9961
418.690692 92.296 172.0114
421.724697 92.272 172.0275
424.780688 92.246 172.0445
427.858824 92.219 172.0627
430.959265 92.191 172.0821
434.082174 92.162 172.1030
437.227712 92.131 172.1254
440.396044 92.098 172.1495
443.587336 92.065 172.1758
446.801752 92.030 172.2044
450.039462 91.995 172.2357
453.300634 91.959 172.2695
456.585437 91.922 172.3059
459.894043 91.886 172.3445
463.226625 91.849 172.3850
466.583356 91.812 172.4275
469.964411 91.776 172.4720
473.369967 91.740 172.5185
476.800201 91.706 172.5668
480.255292 91.672 172.6169
483.735420 91.639 172.6683
487.240766 91.607 172.7206
490.771513 91.576 172.7736
494.327846 91.547 172.8269
497.909949 91.518 172.8804
501.518010 91.491 172.9341
505.152216 91.465 172.9877
508.812758 91.440 173.0412
512.499825 91.416 173.0942
516.213610 91.395 173.1465
519.954306 91.375 173.1980
523.722109 91.357 173.2484
527.517216 91.341 173.2975
531.339823 91.327 173.3454
535.190130 91.315 173.3920
539.068339 91.304 173.4377
542.974650 91.296 173.4830
546.909268 91.289 173.5286
550.872398 91.284 173.5750
554.864247 91.281 173.6231
558.885022 91.279 173.6736
562.934933 91.278 173.7274
567.014192 91.279 173.7852
571.123010 91.280 173.8477
575.261603 91.283 173.9156
579.430186 91.286 173.9894
583.628976 91.290 174.0698
587.858192 91.294 174.1571
592.118055 91.299 174.2518
596.408786 91.304 174.3541
600.730610 91.310 174.4639
605.083752 91.317 174.5810
609.468438 91.323 174.7042
613.884897 91.331 174.8319
618.333360 91.339 174.9622
622.814059 91.347 175.0927
627.327226 91.355 175.2207
631.873098 91.363 175.3441
636.451911 91.370 175.4611
641.063904 91.376 175.5701
645.709317 91.382 175.6705
650.388393 91.386 175.7622
655.101375 91.388 175.8461
659.848510 91.389 175.9232
664.630044 91.388 175.9954
669.446228 91.385 176.0642
674.297311 91.381 176.1312
679.183547 91.376 176.1976
684.105191 91.369 176.2642
689.062499 91.362 176.3314
694.055730 91.353 176.3987
699.085144 91.344 176.4656
704.151003 91.334 176.5312
709.253572 91.322 176.5944
714.393116 91.310 176.6542
719.569903 91.297 176.7097
724.784203 91.282 176.7604
730.036288 91.265 176.8062
735.326432 91.246 176.8477
740.654910 91.225 176.8859
746.022001 91.200 176.9222
751.427984 91.173 176.9590
756.873141 91.143 176.9988
762.357756 91.110 177.0446
767.882114 91.074 177.0988
773.446504 91.037 177.1638
779.051217 90.998 177.2407
784.696543 90.958 177.3297
790.382778 90.919 177.4299
796.110217 90.880 177.5391
801.879160 90.842 177.6546
807.689907 90.806 177.7733
813.542761 90.771 177.8918
819.438027 90.739 178.0074
825.376013 90.708 178.1173
831.357028 90.678 178.2195
837.381383 90.649 178.3124
843.449394 90.621 178.3956
849.561376 90.592 178.4696
855.717648 90.563 178.5363
861.918531 90.532 178.5989
868.164348 90.499 178.6619
874.455424 90.465 178.7305
880.792089 90.428 178.8110
887.174671 90.390 178.9099
893.603505 90.351 179.0334
900.078924 90.311 179.1876
906.601267 90.271 179.3776
913.170874 90.234 179.6064
919.788086 90.199 179.8751
926.453250 90.170 -179.8181
933.166712 90.147 -179.4780
939.928823 90.132 -179.1119
946.739934 90.125 -178.7292
953.600402 90.127 -178.3404
960.510584 90.139 -177.9559
967.470839 90.159 -177.5852
974.481532 90.188 -177.2361
981.543027 90.223 -176.9144
988.655692 90.265 -176.6239
995.819899 90.312 -176.3667
1003.036020 90.364 -176.1433
1010.304433 90.418 -175.9529
1017.625515 90.475 -175.7936
1024.999649 90.534 -175.6625
1032.427219 90.595 -175.5562
1039.908612 90.656 -175.4711
1047.444219 90.717 -175.4037
1055.034432 90.779 -175.3510
1062.679646 90.841 -175.3109
1070.380261 90.903 -175.2819
1078.136677 90.965 -175.2634
1085.949300 91.026 -175.2547
1093.818536 91.087 -175.2555
1101.744796 91.147 -175.2653
1109.728493 91.205 -175.2829
1117.770043 91.262 -175.3069
1125.869866 91.317 -175.3354
1134.028383 91.371 -175.3668
1142.246020 91.423 -175.3997
1150.523206 91.473 -175.4330
1158.860371 91.523 -175.4668
1167.257951 91.571 -175.5011
1175.716383 91.618 -175.5364
1184.236109 91.664 -175.5729
1192.817572 91.708 -175.6100
1201.461220 91.751 -175.6470
1210.167503 91.793 -175.6822
1218.936876 91.834 -175.7139
1227.769795 91.874 -175.7407
1236.666721 91.913 -175.7617
1245.628118 91.953 -175.7772
1254.654453 91.992 -175.7885
1263.746196 92.032 -175.7968
1272.903822 92.071 -175.8035
1282.127808 92.111 -175.8094
1291.418634 92.151 -175.8146
1300.776786 92.190 -175.8190
1310.202751 92.230 -175.8222
1319.697020 92.269 -175.8239
1329.260089 92.307 -175.8236
1338.892455 92.345 -175.8209
1348.594622 92.383 -175.8154
1358.367094 92.421 -175.8063
1368.210382 92.458 -175.7929
1378.124999 92.495 -175.7743
1388.111461 92.532 -175.7502
1398.170288 92.571 -175.7209
1408.302007 92.610 -175.6870
1418.507144 92.650 -175.6492
1428.786231 92.691 -175.6079
1439.139805 92.733 -175.5626
1449.568405 92.776 -175.5117
1460.072576 92.821 -175.4539
1470.652863 92.867 -175.3873
1481.309820 92.915 -175.3110
1492.044002 92.964 -175.2251
1502.855968 93.015 -175.1304
1513.746282 93.067 -175.0289
1524.715511 93.120 -174.9232
1535.764228 93.175 -174.8161
1546.893009 93.229 -174.7102
1558.102433 93.282 -174.6071
1569.393086 93.334 -174.5071
1580.765555 93.384 -174.4104
1592.220434 93.431 -174.3162
1603.758320 93.475 -174.2238
1615.379813 93.515 -174.1324
1627.085521 93.552 -174.0411
1638.876054 93.585 -173.9491
1650.752025 93.614 -173.8552
1662.714055 93.639 -173.7584
1674.762766 93.661 -173.6575
1686.898788 93.679 -173.5510
1699.122752 93.694 -173.4369
1711.435296 93.706 -173.3137
1723.837061 93.715 -173.1797
1736.328695 93.723 -173.0345
1748.910849 93.730 -172.8784
1761.584178 93.735 -172.7131
1774.349343 93.741 -172.5410
1787.207010 93.746 -172.3651
1800.157848 93.751 -172.1879
1813.202534 93.755 -172.0117
1826.341747 93.759 -171.8380
1839.576172 93.761 -171.6673
1852.906500 93.762 -171.4993
1866.333424 93.761 -171.3327
1879.857645 93.758 -171.1652
1893.479869 93.751 -170.9942
1907.200804 93.743 -170.8174
1921.021168 93.731 -170.6331
1934.941679 93.718 -170.4409
1948.963064 93.703 -170.2415
1963.086054 93.686 -170.0360
1977.311384 93.669 -169.8260
1991.639798 93.650 -169.6131
2006.072041 93.630 -169.3994
2020.608866 93.610 -169.1874
2035.251031 93.590 -168.9801
2049.999299 93.569 -168.7804
2064.854438 93.548 -168.5905
2079.817225 93.527 -168.4116
2094.888438 93.505 -168.2444
2110.068863 93.482 -168.0891
2125.359292 93.459 -167.9447
2140.760521 93.436 -167.8104
2156.273355 93.411 -167.6841
2171.898600 93.385 -167.5636
2187.637073 93.359 -167.4462
2203.489593 93.333 -167.3301
2219.456987 93.307 -167.2141
2235.540087 93.280 -167.0975
2251.739732 93.255 -166.9799
2268.056766 93.229 -166.8607
2284.492041 93.205 -166.7388
2301.046412 93.181 -166.6130
2317.720742 93.159 -166.4822
2334.515902 93.138 -166.3450
2351.432767 93.118 -166.2007
2368.472218 93.102 -166.0491
2385.635144 93.087 -165.8903
2402.922440 93.077 -165.7252
2420.335006 93.069 -165.5544
2437.873752 93.066 -165.3791
2455.539590 93.067 -165.2003
2473.333442 93.073 -165.0195
2491.256235 93.084 -164.8386
2509.308905 93.100 -164.6594
2527.492392 93.121 -164.4833
2545.807644 93.147 -164.3110
2564.255615 93.178 -164.1427
2582.837268 93.214 -163.9783
2601.553572 93.254 -163.8174
2620.405502 93.300 -163.6593
2639.394040 93.350 -163.5032
2658.520177 93.404 -163.3484
2677.784910 93.464 -163.1945
2697.189244 93.529 -163.0413
2716.734189 93.599 -162.8895
2736.420765 93.673 -162.7400
2756.249998 93.753 -162.5945
2776.222921 93.839 -162.4557
2796.340577 93.929 -162.3268
2816.604013 94.023 -162.2115
2837.014287 94.122 -162.1135
2857.572462 94.224 -162.0355
2878.279610 94.329 -161.9800
2899.136811 94.435 -161.9482
2920.145151 94.543 -161.9414
2941.305727 94.650 -161.9597
2962.619641 94.756 -162.0032
2984.088004 94.860 -162.0715
3005.711935 94.961 -162.1636
3027.492563 95.058 -162.2777
3049.431022 95.151 -162.4115
3071.528457 95.239 -162.5627
3093.786018 95.321 -162.7292
3116.204867 95.397 -162.9092
3138.786172 95.467 -163.1008
3161.531110 95.530 -163.3030
3184.440868 95.586 -163.5147
3207.516639 95.635 -163.7355
3230.759627 95.677 -163.9652
3254.171043 95.711 -164.2042
3277.752108 95.739 -164.4528
3301.504051 95.758 -164.7114
