* Measurement data measured by REW V5.31.3
* Source: EXCL: Headset (USB-C to 3.5mm Headphone Jack Adapter), MICROPHONE (Master Volume), 0, volume: 0.750
* Format: 256k Log Swept Sine, 1 sweep at -12.0 dBFS with no timing reference
* Dated: Apr 1, 2025 10:17:06 PM
* REW Settings:
*  C-weighting compensation: Off
*  Target level: 75.0 dB
* Note: ; 
* Measurement: HD6XX R9
* Smoothing: 1/6 octave
* Frequency Step: 96 ppo
* Start Frequency: 20.0 Hz
*
* Freq(Hz) SPL(dB) Phase(degrees)
20.033247 84.671 -93.9207
20.178416 84.731 -94.1349
20.324637 84.798 -94.3242
20.471918 84.872 -94.4937
20.620266 84.954 -94.6494
20.769689 85.044 -94.7984
20.920195 85.142 -94.9479
21.071791 85.247 -95.1046
21.224486 85.358 -95.2747
21.378287 85.474 -95.4630
21.533203 85.594 -95.6726
21.689242 85.715 -95.9048
21.846411 85.836 -96.1588
22.004719 85.956 -96.4323
22.164174 86.073 -96.7214
22.324785 86.185 -97.0214
22.486559 86.293 -97.3273
22.649506 86.396 -97.6343
22.813634 86.493 -97.9387
22.978951 86.584 -98.2382
23.145466 86.670 -98.5319
23.313188 86.750 -98.8209
23.482124 86.824 -99.1073
23.652286 86.894 -99.3944
23.823680 86.958 -99.6857
23.996316 87.017 -99.9842
24.170203 87.069 -100.2919
24.345351 87.116 -100.6092
24.521767 87.157 -100.9348
24.699462 87.191 -101.2659
24.878444 87.220 -101.5983
25.058724 87.244 -101.9276
25.240310 87.264 -102.2497
25.423211 87.282 -102.5615
25.607438 87.298 -102.8619
25.793000 87.315 -103.1522
25.979907 87.334 -103.4354
26.168168 87.356 -103.7169
26.357794 87.380 -104.0028
26.548793 87.408 -104.2994
26.741176 87.439 -104.6121
26.934954 87.473 -104.9439
27.130136 87.508 -105.2958
27.326732 87.543 -105.6660
27.524753 87.578 -106.0502
27.724208 87.612 -106.4426
27.925110 87.646 -106.8365
28.127466 87.679 -107.2260
28.331290 87.712 -107.6058
28.536590 87.746 -107.9734
28.743378 87.783 -108.3282
28.951664 87.823 -108.6721
29.161460 87.866 -109.0088
29.372776 87.913 -109.3432
29.585623 87.964 -109.6803
29.800013 88.019 -110.0245
30.015956 88.077 -110.3785
30.233464 88.138 -110.7435
30.452548 88.200 -111.1187
30.673220 88.265 -111.5017
30.895490 88.330 -111.8895
31.119372 88.398 -112.2783
31.344876 88.468 -112.6648
31.572014 88.540 -113.0466
31.800797 88.615 -113.4220
32.031239 88.694 -113.7909
32.263351 88.776 -114.1537
32.497144 88.862 -114.5116
32.732632 88.951 -114.8660
32.969826 89.044 -115.2183
33.208739 89.139 -115.5693
33.449383 89.237 -115.9195
33.691771 89.336 -116.2686
33.935916 89.437 -116.6160
34.181829 89.538 -116.9610
34.429525 89.640 -117.3029
34.679015 89.743 -117.6409
34.930314 89.845 -117.9750
35.183433 89.947 -118.3053
35.438387 90.049 -118.6322
35.695188 90.150 -118.9568
35.953850 90.251 -119.2806
36.214387 90.351 -119.6050
36.476811 90.450 -119.9317
36.741137 90.547 -120.2621
37.007378 90.642 -120.5974
37.275549 90.735 -120.9379
37.545663 90.826 -121.2832
37.817734 90.913 -121.6324
38.091777 90.998 -121.9841
38.367806 91.079 -122.3365
38.645835 91.158 -122.6885
38.925879 91.234 -123.0389
39.207952 91.308 -123.3874
39.492069 91.380 -123.7340
39.778244 91.450 -124.0793
40.066494 91.519 -124.4240
40.356832 91.586 -124.7682
40.649275 91.651 -125.1127
40.943836 91.715 -125.4573
41.240532 91.778 -125.8022
41.539378 91.840 -126.1476
41.840389 91.901 -126.4933
42.143582 91.961 -126.8398
42.448972 92.021 -127.1874
42.756574 92.079 -127.5363
43.066406 92.137 -127.8865
43.378483 92.194 -128.2382
43.692822 92.249 -128.5917
44.009438 92.304 -128.9473
44.328348 92.357 -129.3051
44.649570 92.409 -129.6656
44.973119 92.460 -130.0291
45.299013 92.508 -130.3959
45.627268 92.555 -130.7660
45.957902 92.599 -131.1393
46.290932 92.641 -131.5160
46.626375 92.681 -131.8958
46.964249 92.718 -132.2787
47.304571 92.751 -132.6646
47.647360 92.782 -133.0530
47.992632 92.810 -133.4433
48.340407 92.834 -133.8340
48.690701 92.855 -134.2233
49.043534 92.873 -134.6088
49.398924 92.888 -134.9885
49.756889 92.901 -135.3608
50.117447 92.911 -135.7245
50.480619 92.921 -136.0797
50.846423 92.929 -136.4266
51.214877 92.936 -136.7663
51.586001 92.943 -137.0995
51.959814 92.949 -137.4268
52.336336 92.956 -137.7487
52.715587 92.962 -138.0651
53.097586 92.968 -138.3760
53.482353 92.974 -138.6809
53.869908 92.979 -138.9799
54.260272 92.985 -139.2730
54.653464 92.991 -139.5604
55.049506 92.997 -139.8424
55.448417 93.004 -140.1192
55.850219 93.010 -140.3907
56.254933 93.016 -140.6564
56.662579 93.023 -140.9152
57.073180 93.030 -141.1664
57.486755 93.039 -141.4089
57.903328 93.049 -141.6429
58.322919 93.062 -141.8690
58.745551 93.077 -142.0893
59.171246 93.097 -142.3071
59.600025 93.120 -142.5265
60.031911 93.148 -142.7513
60.466927 93.180 -142.9845
60.905096 93.215 -143.2275
61.346439 93.254 -143.4802
61.790981 93.295 -143.7413
62.238744 93.339 -144.0091
62.689751 93.386 -144.2819
63.144027 93.435 -144.5583
63.601595 93.487 -144.8370
64.062478 93.540 -145.1171
64.526701 93.594 -145.3975
64.994288 93.651 -145.6780
65.465264 93.708 -145.9585
65.939652 93.766 -146.2396
66.417478 93.824 -146.5220
66.898766 93.882 -146.8067
67.383542 93.940 -147.0945
67.871831 93.998 -147.3864
68.363659 94.054 -147.6827
68.859050 94.109 -147.9838
69.358031 94.162 -148.2896
69.860628 94.213 -148.5995
70.366867 94.261 -148.9131
70.876774 94.307 -149.2299
71.390376 94.350 -149.5492
71.907700 94.391 -149.8703
72.428773 94.429 -150.1928
72.953622 94.464 -150.5162
73.482274 94.497 -150.8399
74.014757 94.527 -151.1637
74.551098 94.554 -151.4872
75.091326 94.578 -151.8103
75.635469 94.601 -152.1333
76.183555 94.621 -152.4563
76.735612 94.639 -152.7797
77.291670 94.655 -153.1037
77.851757 94.670 -153.4285
78.415903 94.683 -153.7539
78.984137 94.694 -154.0801
79.556489 94.703 -154.4067
80.132988 94.712 -154.7334
80.713665 94.719 -155.0597
81.298549 94.724 -155.3853
81.887672 94.729 -155.7094
82.481064 94.733 -156.0317
83.078756 94.735 -156.3520
83.680778 94.737 -156.6702
84.287164 94.738 -156.9863
84.897943 94.739 -157.3010
85.513149 94.739 -157.6147
86.132812 94.739 -157.9282
86.756966 94.739 -158.2416
87.385643 94.739 -158.5552
88.018875 94.738 -158.8690
88.656696 94.737 -159.1825
89.299139 94.736 -159.4956
89.946238 94.735 -159.8080
90.598025 94.733 -160.1197
91.254536 94.732 -160.4306
91.915804 94.731 -160.7407
92.581864 94.730 -161.0500
93.252750 94.728 -161.3585
93.928498 94.727 -161.6658
94.609143 94.725 -161.9718
95.294719 94.722 -162.2762
95.985264 94.720 -162.5790
96.680813 94.717 -162.8799
97.381402 94.715 -163.1790
98.087068 94.712 -163.4761
98.797847 94.709 -163.7715
99.513777 94.706 -164.0649
100.234895 94.704 -164.3566
100.961238 94.702 -164.6464
101.692845 94.701 -164.9340
102.429753 94.700 -165.2192
103.172002 94.699 -165.5020
103.919628 94.700 -165.7825
104.672673 94.701 -166.0612
105.431174 94.703 -166.3384
106.195172 94.707 -166.6150
106.964706 94.711 -166.8914
107.739816 94.717 -167.1685
108.520543 94.723 -167.4467
109.306928 94.731 -167.7262
110.099011 94.739 -168.0070
110.896834 94.749 -168.2886
111.700438 94.759 -168.5706
112.509866 94.770 -168.8519
113.325158 94.781 -169.1323
114.146359 94.793 -169.4109
114.973511 94.805 -169.6874
115.806656 94.816 -169.9617
116.645839 94.828 -170.2335
117.491103 94.839 -170.5029
118.342492 94.849 -170.7695
119.200050 94.858 -171.0330
120.063823 94.867 -171.2931
120.933855 94.874 -171.5494
121.810191 94.881 -171.8018
122.692878 94.886 -172.0501
123.581962 94.891 -172.2948
124.477487 94.895 -172.5361
125.379503 94.898 -172.7748
126.288054 94.901 -173.0114
127.203189 94.903 -173.2466
128.124956 94.904 -173.4811
129.053402 94.905 -173.7152
129.988577 94.904 -173.9492
130.930527 94.903 -174.1830
131.879304 94.901 -174.4167
132.834956 94.898 -174.6501
133.797533 94.894 -174.8834
134.767085 94.888 -175.1164
135.743663 94.881 -175.3495
136.727317 94.872 -175.5827
137.718100 94.862 -175.8160
138.716062 94.851 -176.0496
139.721255 94.839 -176.2832
140.733733 94.825 -176.5166
141.753548 94.810 -176.7496
142.780753 94.795 -176.9816
143.815401 94.778 -177.2122
144.857546 94.761 -177.4409
145.907244 94.742 -177.6671
146.964548 94.723 -177.8906
148.029514 94.704 -178.1113
149.102197 94.684 -178.3292
150.182652 94.663 -178.5447
151.270938 94.643 -178.7581
152.367109 94.621 -178.9696
153.471224 94.600 -179.1796
154.583340 94.578 -179.3883
155.703515 94.557 -179.5957
156.831807 94.535 -179.8017
157.968274 94.513 179.9937
159.112978 94.492 179.7903
160.265976 94.470 179.5884
161.427329 94.449 179.3879
162.597098 94.428 179.1891
163.775344 94.407 178.9923
164.962128 94.386 178.7977
166.157511 94.365 178.6056
167.361557 94.345 178.4160
168.574328 94.324 178.2287
169.795887 94.304 178.0436
171.026298 94.284 177.8605
172.265625 94.264 177.6793
173.513933 94.244 177.4995
174.771286 94.224 177.3211
176.037751 94.204 177.1436
177.313393 94.183 176.9666
178.598279 94.163 176.7900
179.892476 94.141 176.6143
181.196051 94.120 176.4395
182.509072 94.097 176.2663
183.831608 94.074 176.0950
185.163728 94.050 175.9260
186.505500 94.026 175.7593
187.856996 94.001 175.5949
189.218285 93.974 175.4321
190.589439 93.948 175.2701
191.970529 93.920 175.1080
193.361626 93.892 174.9446
194.762804 93.863 174.7794
196.174136 93.834 174.6122
197.595694 93.804 174.4440
199.027554 93.774 174.2759
200.469790 93.743 174.1100
201.922477 93.712 173.9480
203.385690 93.681 173.7916
204.859507 93.649 173.6418
206.344003 93.617 173.4992
207.839257 93.584 173.3641
209.345346 93.552 173.2363
210.862348 93.519 173.1154
212.390344 93.487 173.0007
213.929412 93.455 172.8917
215.479633 93.424 172.7881
217.041087 93.394 172.6893
218.613856 93.365 172.5957
220.198022 93.338 172.5072
221.793668 93.312 172.4241
223.400876 93.289 172.3463
225.019731 93.267 172.2734
226.650317 93.247 172.2050
228.292718 93.229 172.1401
229.947022 93.213 172.0779
231.613312 93.199 172.0173
233.291678 93.187 171.9571
234.982206 93.176 171.8961
236.684984 93.168 171.8333
238.400101 93.160 171.7677
240.127646 93.154 171.6989
241.867710 93.149 171.6270
243.620383 93.144 171.5521
245.385757 93.140 171.4749
247.163923 93.136 171.3956
248.954975 93.132 171.3147
250.759005 93.127 171.2324
252.576108 93.123 171.1489
254.406379 93.118 171.0647
256.249912 93.113 170.9802
258.106805 93.107 170.8962
259.977153 93.101 170.8135
261.861055 93.095 170.7325
263.758608 93.089 170.6541
265.669911 93.083 170.5782
267.595065 93.076 170.5051
269.534169 93.069 170.4348
271.487325 93.062 170.3671
273.454634 93.055 170.3017
275.436199 93.048 170.2385
277.432123 93.040 170.1770
279.442511 93.033 170.1169
281.467467 93.025 170.0582
283.507096 93.018 170.0007
285.561505 93.011 169.9446
287.630801 93.005 169.8903
289.715093 92.998 169.8383
291.814488 92.993 169.7889
293.929096 92.987 169.7426
296.059027 92.982 169.6993
298.204393 92.978 169.6588
300.365305 92.974 169.6206
302.541876 92.970 169.5841
304.734219 92.966 169.5490
306.942449 92.963 169.5150
309.166680 92.961 169.4822
311.407029 92.958 169.4507
313.663613 92.957 169.4208
315.936549 92.955 169.3928
318.225955 92.954 169.3671
320.531952 92.953 169.3436
322.854659 92.952 169.3225
325.194197 92.950 169.3034
327.550688 92.949 169.2859
329.924255 92.947 169.2697
332.315022 92.945 169.2544
334.723114 92.942 169.2398
337.148655 92.939 169.2258
339.591774 92.934 169.2123
342.052596 92.929 169.1992
344.531250 92.923 169.1865
347.027865 92.915 169.1743
349.542572 92.907 169.1627
352.075502 92.897 169.1522
354.626786 92.886 169.1428
357.196558 92.873 169.1349
359.784951 92.860 169.1284
362.392101 92.846 169.1233
365.018144 92.831 169.1196
367.663216 92.815 169.1174
370.327455 92.799 169.1165
373.011000 92.782 169.1171
375.713992 92.765 169.1193
378.436570 92.747 169.1233
381.178878 92.730 169.1292
383.941057 92.712 169.1371
386.723252 92.693 169.1473
389.525608 92.675 169.1598
392.348271 92.656 169.1743
395.191389 92.637 169.1906
398.055108 92.618 169.2080
400.939580 92.599 169.2262
403.844953 92.579 169.2448
406.771380 92.558 169.2635
409.719013 92.537 169.2826
412.688006 92.515 169.3022
415.678514 92.492 169.3225
418.690692 92.468 169.3440
421.724697 92.443 169.3668
424.780688 92.416 169.3911
427.858824 92.388 169.4170
430.959265 92.359 169.4448
434.082174 92.328 169.4745
437.227712 92.295 169.5063
440.396044 92.261 169.5400
443.587336 92.226 169.5758
446.801752 92.189 169.6134
450.039462 92.151 169.6528
453.300634 92.112 169.6938
456.585437 92.073 169.7365
459.894043 92.033 169.7808
463.226625 91.994 169.8269
466.583356 91.956 169.8751
469.964411 91.918 169.9255
473.369967 91.881 169.9781
476.800201 91.845 170.0327
480.255292 91.811 170.0888
483.735420 91.777 170.1458
487.240766 91.746 170.2029
490.771513 91.715 170.2596
494.327846 91.686 170.3151
497.909949 91.658 170.3693
501.518010 91.632 170.4221
505.152216 91.607 170.4738
508.812758 91.584 170.5246
512.499825 91.562 170.5753
516.213610 91.541 170.6263
519.954306 91.522 170.6777
523.722109 91.505 170.7293
527.517216 91.489 170.7807
531.339823 91.475 170.8314
535.190130 91.463 170.8809
539.068339 91.453 170.9290
542.974650 91.445 170.9757
546.909268 91.438 171.0210
550.872398 91.433 171.0652
554.864247 91.430 171.1089
558.885022 91.428 171.1527
562.934933 91.428 171.1975
567.014192 91.430 171.2439
571.123010 91.433 171.2928
575.261603 91.437 171.3449
579.430186 91.442 171.4007
583.628976 91.448 171.4606
587.858192 91.454 171.5250
592.118055 91.461 171.5941
596.408786 91.467 171.6681
600.730610 91.473 171.7469
605.083752 91.479 171.8306
609.468438 91.485 171.9186
613.884897 91.490 172.0103
618.333360 91.494 172.1047
622.814059 91.498 172.2009
627.327226 91.501 172.2977
631.873098 91.503 172.3944
636.451911 91.504 172.4905
641.063904 91.504 172.5857
645.709317 91.504 172.6797
650.388393 91.502 172.7729
655.101375 91.499 172.8652
659.848510 91.496 172.9568
664.630044 91.491 173.0474
669.446228 91.487 173.1365
674.297311 91.481 173.2233
679.183547 91.476 173.3068
684.105191 91.470 173.3856
689.062499 91.463 173.4590
694.055730 91.456 173.5260
699.085144 91.448 173.5865
704.151003 91.439 173.6404
709.253572 91.428 173.6883
714.393116 91.416 173.7307
719.569903 91.401 173.7686
724.784203 91.385 173.8030
730.036288 91.367 173.8354
735.326432 91.346 173.8673
740.654910 91.322 173.9001
746.022001 91.296 173.9354
751.427984 91.267 173.9741
756.873141 91.237 174.0176
762.357756 91.204 174.0668
767.882114 91.169 174.1224
773.446504 91.134 174.1850
779.051217 91.097 174.2548
784.696543 91.060 174.3315
790.382778 91.022 174.4149
796.110217 90.986 174.5041
801.879160 90.950 174.5975
807.689907 90.915 174.6929
813.542761 90.882 174.7874
819.438027 90.850 174.8774
825.376013 90.820 174.9594
831.357028 90.790 175.0304
837.381383 90.762 175.0881
843.449394 90.733 175.1321
849.561376 90.704 175.1634
855.717648 90.673 175.1846
861.918531 90.641 175.2001
868.164348 90.606 175.2157
874.455424 90.568 175.2381
880.792089 90.528 175.2749
887.174671 90.485 175.3341
893.603505 90.441 175.4231
900.078924 90.396 175.5485
906.601267 90.351 175.7144
913.170874 90.310 175.9222
919.788086 90.272 176.1699
926.453250 90.240 176.4514
933.166712 90.215 176.7582
939.928823 90.198 177.0801
946.739934 90.189 177.4068
953.600402 90.188 177.7288
960.510584 90.194 178.0383
967.470839 90.207 178.3300
974.481532 90.226 178.6005
981.543027 90.250 178.8485
988.655692 90.278 179.0740
995.819899 90.310 179.2780
1003.036020 90.346 179.4623
1010.304433 90.384 179.6287
1017.625515 90.424 179.7792
1024.999649 90.467 179.9153
1032.427219 90.512 -179.9611
1039.908612 90.558 -179.8490
1047.444219 90.606 -179.7474
1055.034432 90.655 -179.6556
1062.679646 90.705 -179.5731
1070.380261 90.756 -179.4996
1078.136677 90.808 -179.4345
1085.949300 90.860 -179.3776
1093.818536 90.912 -179.3286
1101.744796 90.964 -179.2872
1109.728493 91.015 -179.2528
1117.770043 91.066 -179.2249
1125.869866 91.117 -179.2025
1134.028383 91.166 -179.1849
1142.246020 91.214 -179.1711
1150.523206 91.261 -179.1601
1158.860371 91.306 -179.1508
1167.257951 91.350 -179.1420
1175.716383 91.393 -179.1323
1184.236109 91.435 -179.1205
1192.817572 91.475 -179.1050
1201.461220 91.515 -179.0845
1210.167503 91.554 -179.0580
1218.936876 91.594 -179.0256
1227.769795 91.633 -178.9879
1236.666721 91.674 -178.9459
1245.628118 91.714 -178.9012
1254.654453 91.756 -178.8551
1263.746196 91.798 -178.8084
1272.903822 91.841 -178.7620
1282.127808 91.884 -178.7167
1291.418634 91.928 -178.6736
1300.776786 91.972 -178.6333
1310.202751 92.016 -178.5963
1319.697020 92.059 -178.5625
1329.260089 92.103 -178.5315
1338.892455 92.146 -178.5026
1348.594622 92.188 -178.4749
1358.367094 92.230 -178.4468
1368.210382 92.272 -178.4169
1378.124999 92.314 -178.3838
1388.111461 92.357 -178.3466
1398.170288 92.400 -178.3051
1408.302007 92.444 -178.2595
1418.507144 92.490 -178.2103
1428.786231 92.538 -178.1581
1439.139805 92.587 -178.1039
1449.568405 92.639 -178.0486
1460.072576 92.692 -177.9927
1470.652863 92.747 -177.9370
1481.309820 92.804 -177.8823
1492.044002 92.862 -177.8295
1502.855968 92.921 -177.7794
1513.746282 92.980 -177.7328
1524.715511 93.039 -177.6902
1535.764228 93.096 -177.6511
1546.893009 93.152 -177.6149
1558.102433 93.206 -177.5802
1569.393086 93.256 -177.5450
1580.765555 93.303 -177.5069
1592.220434 93.346 -177.4637
1603.758320 93.385 -177.4135
1615.379813 93.421 -177.3552
1627.085521 93.453 -177.2884
1638.876054 93.482 -177.2133
1650.752025 93.507 -177.1305
1662.714055 93.530 -177.0405
1674.762766 93.549 -176.9438
1686.898788 93.566 -176.8406
1699.122752 93.580 -176.7306
1711.435296 93.592 -176.6136
1723.837061 93.602 -176.4894
1736.328695 93.611 -176.3579
1748.910849 93.618 -176.2197
1761.584178 93.625 -176.0757
1774.349343 93.631 -175.9274
1787.207010 93.637 -175.7767
1800.157848 93.643 -175.6265
1813.202534 93.648 -175.4795
1826.341747 93.652 -175.3380
1839.576172 93.655 -175.2037
1852.906500 93.656 -175.0768
1866.333424 93.654 -174.9560
1879.857645 93.649 -174.8389
1893.479869 93.641 -174.7218
1907.200804 93.629 -174.6008
1921.021168 93.612 -174.4719
1934.941679 93.593 -174.3314
1948.963064 93.569 -174.1764
1963.086054 93.544 -174.0049
1977.311384 93.516 -173.8163
1991.639798 93.487 -173.6120
2006.072041 93.458 -173.3947
2020.608866 93.429 -173.1689
2035.251031 93.401 -172.9402
2049.999299 93.374 -172.7144
2064.854438 93.348 -172.4968
2079.817225 93.323 -172.2915
2094.888438 93.299 -172.1010
2110.068863 93.274 -171.9254
2125.359292 93.249 -171.7633
2140.760521 93.222 -171.6116
2156.273355 93.196 -171.4666
2171.898600 93.168 -171.3241
2187.637073 93.140 -171.1808
2203.489593 93.112 -171.0339
2219.456987 93.085 -170.8818
2235.540087 93.060 -170.7241
2251.739732 93.036 -170.5613
2268.056766 93.014 -170.3943
2284.492041 92.995 -170.2247
2301.046412 92.978 -170.0541
2317.720742 92.965 -169.8842
2334.515902 92.956 -169.7169
2351.432767 92.950 -169.5543
2368.472218 92.948 -169.3986
2385.635144 92.950 -169.2521
2402.922440 92.956 -169.1168
2420.335006 92.965 -168.9939
2437.873752 92.978 -168.8836
2455.539590 92.995 -168.7855
2473.333442 93.015 -168.6978
2491.256235 93.038 -168.6187
2509.308905 93.064 -168.5459
2527.492392 93.094 -168.4781
2545.807644 93.128 -168.4149
2564.255615 93.167 -168.3571
2582.837268 93.210 -168.3060
2601.553572 93.257 -168.2638
2620.405502 93.309 -168.2318
2639.394040 93.365 -168.2105
2658.520177 93.424 -168.1998
2677.784910 93.487 -168.1990
2697.189244 93.554 -168.2072
2716.734189 93.624 -168.2243
2736.420765 93.698 -168.2512
2756.249998 93.775 -168.2894
2776.222921 93.855 -168.3411
2796.340577 93.938 -168.4081
2816.604013 94.023 -168.4922
2837.014287 94.109 -168.5941
2857.572462 94.196 -168.7141
2878.279610 94.283 -168.8514
2899.136811 94.370 -169.0051
2920.145151 94.455 -169.1743
2941.305727 94.539 -169.3583
2962.619641 94.621 -169.5570
2984.088004 94.700 -169.7701
3005.711935 94.775 -169.9976
3027.492563 94.845 -170.2388
3049.431022 94.911 -170.4924
3071.528457 94.970 -170.7564
3093.786018 95.023 -171.0284
3116.204867 95.068 -171.3059
3138.786172 95.106 -171.5861
3161.531110 95.137 -171.8669
3184.440868 95.160 -172.1466
3207.516639 95.175 -172.4237
3230.759627 95.182 -172.6976
3254.171043 95.181 -172.9679
3277.752108 95.172 -173.2344
3301.504051 95.156 -173.4971
3325.428110 95.132 -173.7556
