* Measurement data measured by REW V5.31.3
* Source: EXCL: Headset (USB-C to 3.5mm Headphone Jack Adapter), MICROPHONE (Master Volume), 0, volume: 0.750
* Format: 256k Log Swept Sine, 1 sweep at -12.0 dBFS with no timing reference
* Dated: Apr 7, 2025 5:19:03 PM
* REW Settings:
*  C-weighting compensation: Off
*  Target level: 75.0 dB
* Note: ; 
* Measurement: HD 6XX (Soulwit) R3
* Smoothing: 1/6 octave
* Frequency Step: 96 ppo
* Start Frequency: 20.0 Hz
*
* Freq(Hz) SPL(dB) Phase(degrees)
20.187378 76.827 -100.5475
20.333664 76.869 -100.6170
20.481010 76.926 -100.7135
20.629424 76.997 -100.8386
20.778913 77.080 -100.9944
20.929486 77.174 -101.1826
21.081150 77.277 -101.4042
21.233912 77.385 -101.6591
21.387782 77.498 -101.9450
21.542767 77.612 -102.2575
21.698874 77.725 -102.5897
21.856113 77.834 -102.9326
22.014492 77.939 -103.2755
22.174018 78.039 -103.6071
22.334700 78.132 -103.9164
22.496546 78.219 -104.1943
22.659566 78.301 -104.4347
22.823766 78.379 -104.6356
22.989157 78.454 -104.7998
23.155745 78.527 -104.9351
23.323542 78.599 -105.0537
23.492554 78.670 -105.1709
23.662790 78.741 -105.3034
23.834261 78.809 -105.4668
24.006973 78.874 -105.6742
24.180938 78.934 -105.9338
24.356163 78.986 -106.2484
24.532658 79.030 -106.6150
24.710431 79.063 -107.0255
24.889493 79.087 -107.4679
25.069853 79.101 -107.9283
25.251519 79.107 -108.3922
25.434502 79.107 -108.8472
25.618811 79.103 -109.2841
25.804456 79.099 -109.6980
25.991445 79.098 -110.0888
26.179790 79.102 -110.4609
26.369500 79.112 -110.8215
26.560584 79.130 -111.1792
26.753053 79.155 -111.5422
26.946917 79.187 -111.9161
27.142185 79.223 -112.3035
27.338869 79.263 -112.7032
27.536977 79.305 -113.1108
27.736522 79.346 -113.5196
27.937512 79.387 -113.9224
28.139959 79.427 -114.3123
28.343872 79.466 -114.6845
28.549264 79.504 -115.0368
28.756143 79.541 -115.3695
28.964522 79.578 -115.6853
29.174411 79.616 -115.9885
29.385821 79.653 -116.2836
29.598763 79.690 -116.5750
29.813248 79.727 -116.8660
30.029287 79.764 -117.1587
30.246891 79.801 -117.4544
30.466073 79.839 -117.7536
30.686842 79.879 -118.0574
30.909212 79.922 -118.3669
31.133193 79.967 -118.6842
31.358797 80.017 -119.0115
31.586035 80.070 -119.3511
31.814921 80.128 -119.7045
32.045465 80.191 -120.0717
32.277680 80.258 -120.4514
32.511577 80.328 -120.8409
32.747169 80.404 -121.2365
32.984469 80.483 -121.6342
33.223488 80.568 -122.0307
33.464239 80.658 -122.4236
33.706735 80.753 -122.8118
33.950987 80.853 -123.1949
34.197010 80.957 -123.5735
34.444816 81.065 -123.9477
34.694417 81.174 -124.3171
34.945827 81.284 -124.6806
35.199059 81.393 -125.0364
35.454126 81.500 -125.3825
35.711041 81.604 -125.7173
35.969818 81.705 -126.0406
36.230470 81.802 -126.3531
36.493011 81.895 -126.6575
36.757455 81.984 -126.9575
37.023814 82.070 -127.2575
37.292104 82.153 -127.5618
37.562338 82.233 -127.8740
37.834530 82.309 -128.1965
38.108695 82.383 -128.5304
38.384846 82.454 -128.8751
38.662999 82.522 -129.2291
38.943167 82.587 -129.5899
39.225365 82.649 -129.9548
39.509608 82.709 -130.3210
39.795911 82.765 -130.6857
40.084289 82.819 -131.0468
40.374756 82.870 -131.4023
40.667328 82.920 -131.7507
40.962020 82.968 -132.0909
41.258848 83.016 -132.4219
41.557827 83.064 -132.7429
41.858972 83.113 -133.0534
42.162299 83.163 -133.3526
42.467824 83.214 -133.6400
42.775564 83.266 -133.9148
43.085533 83.318 -134.1768
43.397749 83.370 -134.4266
43.712227 83.422 -134.6658
44.028983 83.472 -134.8983
44.348036 83.521 -135.1293
44.669400 83.569 -135.3653
44.993093 83.613 -135.6128
45.319131 83.655 -135.8771
45.647532 83.694 -136.1607
45.978313 83.730 -136.4635
46.311491 83.762 -136.7822
46.647083 83.790 -137.1120
46.985107 83.816 -137.4472
47.325581 83.839 -137.7825
47.668521 83.859 -138.1136
48.013947 83.878 -138.4376
48.361876 83.895 -138.7530
48.712326 83.911 -139.0594
49.065315 83.927 -139.3573
49.420863 83.942 -139.6483
49.778987 83.957 -139.9345
50.139706 83.973 -140.2178
50.503039 83.989 -140.4997
50.869005 84.006 -140.7806
51.237623 84.023 -141.0601
51.608912 84.040 -141.3371
51.982891 84.058 -141.6105
52.359580 84.076 -141.8795
52.739000 84.095 -142.1445
53.121168 84.115 -142.4065
53.506106 84.136 -142.6675
53.893833 84.158 -142.9298
54.284370 84.181 -143.1956
54.677737 84.204 -143.4669
55.073955 84.229 -143.7447
55.473043 84.254 -144.0299
55.875024 84.281 -144.3225
56.279917 84.309 -144.6219
56.687745 84.340 -144.9267
57.098527 84.374 -145.2352
57.512287 84.409 -145.5452
57.929045 84.447 -145.8555
58.348822 84.487 -146.1663
58.771642 84.526 -146.4792
59.197525 84.565 -146.7966
59.626495 84.602 -147.1205
60.058573 84.636 -147.4510
60.493782 84.668 -147.7863
60.932145 84.696 -148.1234
61.373685 84.724 -148.4590
61.818424 84.751 -148.7911
62.266386 84.779 -149.1186
62.717593 84.809 -149.4414
63.172071 84.842 -149.7599
63.629842 84.877 -150.0749
64.090930 84.915 -150.3872
64.555359 84.954 -150.6978
65.023154 84.996 -151.0075
65.494339 85.039 -151.3170
65.968938 85.083 -151.6269
66.446976 85.127 -151.9375
66.928478 85.173 -152.2495
67.413469 85.218 -152.5631
67.901975 85.264 -152.8786
68.394021 85.310 -153.1961
68.889632 85.355 -153.5153
69.388835 85.400 -153.8353
69.891655 85.442 -154.1553
70.398118 85.483 -154.4738
70.908252 85.522 -154.7900
71.422083 85.558 -155.1033
71.939636 85.590 -155.4138
72.460941 85.620 -155.7221
72.986023 85.648 -156.0295
73.514909 85.672 -156.3376
74.047629 85.694 -156.6480
74.584208 85.713 -156.9619
75.124676 85.729 -157.2804
75.669061 85.742 -157.6041
76.217390 85.753 -157.9330
76.769692 85.762 -158.2666
77.325997 85.769 -158.6038
77.886333 85.775 -158.9433
78.450730 85.778 -159.2834
79.019216 85.781 -159.6225
79.591822 85.783 -159.9593
80.168577 85.783 -160.2926
80.749512 85.784 -160.6214
81.334656 85.783 -160.9451
81.924040 85.782 -161.2637
82.517696 85.781 -161.5772
83.115653 85.780 -161.8861
83.717943 85.778 -162.1913
84.324598 85.777 -162.4936
84.935649 85.774 -162.7938
85.551128 85.772 -163.0923
86.171066 85.768 -163.3894
86.795497 85.764 -163.6855
87.424453 85.760 -163.9811
88.057967 85.756 -164.2768
88.696071 85.751 -164.5736
89.338800 85.746 -164.8721
89.986185 85.741 -165.1726
90.638262 85.736 -165.4751
91.295065 85.730 -165.7790
91.956626 85.723 -166.0836
92.622982 85.716 -166.3881
93.294166 85.708 -166.6917
93.970214 85.700 -166.9939
94.651161 85.692 -167.2940
95.337042 85.684 -167.5916
96.027894 85.676 -167.8859
96.723752 85.668 -168.1764
97.424652 85.660 -168.4623
98.130631 85.654 -168.7435
98.841726 85.647 -169.0197
99.557974 85.642 -169.2910
100.279412 85.637 -169.5576
101.006078 85.633 -169.8201
101.738010 85.629 -170.0795
102.475245 85.626 -170.3376
103.217823 85.624 -170.5966
103.965782 85.623 -170.8587
104.719161 85.622 -171.1260
105.477999 85.622 -171.3997
106.242336 85.623 -171.6800
107.012212 85.625 -171.9661
107.787666 85.627 -172.2565
108.568740 85.630 -172.5491
109.355474 85.634 -172.8419
110.147909 85.639 -173.1329
110.946086 85.644 -173.4205
111.750047 85.650 -173.7033
112.559834 85.656 -173.9804
113.375489 85.662 -174.2515
114.197055 85.667 -174.5167
115.024574 85.673 -174.7760
115.858089 85.677 -175.0298
116.697645 85.682 -175.2784
117.543284 85.686 -175.5225
118.395051 85.690 -175.7628
119.252990 85.694 -176.0002
120.117147 85.697 -176.2358
120.987565 85.700 -176.4706
121.864291 85.703 -176.7059
122.747370 85.705 -176.9424
123.636848 85.706 -177.1811
124.532771 85.707 -177.4223
125.435187 85.707 -177.6661
126.344142 85.706 -177.9121
127.259684 85.704 -178.1593
128.181860 85.702 -178.4065
129.110718 85.698 -178.6526
130.046308 85.694 -178.8969
130.988677 85.688 -179.1392
131.937875 85.681 -179.3800
132.893951 85.673 -179.6198
133.856956 85.663 -179.8592
134.826938 85.652 179.9016
135.803950 85.640 179.6628
136.788041 85.627 179.4254
137.779264 85.613 179.1899
138.777669 85.598 178.9573
139.783309 85.583 178.7279
140.796237 85.566 178.5018
141.816504 85.549 178.2787
142.844165 85.531 178.0583
143.879273 85.512 177.8406
144.921881 85.493 177.6257
145.972045 85.472 177.4141
147.029819 85.451 177.2065
148.095257 85.428 177.0032
149.168417 85.405 176.8047
150.249353 85.381 176.6111
151.338121 85.356 176.4219
152.434780 85.331 176.2367
153.539385 85.305 176.0547
154.651995 85.279 175.8753
155.772667 85.252 175.6977
156.901460 85.226 175.5211
158.038432 85.200 175.3444
159.183644 85.175 175.1669
160.337154 85.151 174.9880
161.499023 85.127 174.8076
162.669312 85.104 174.6259
163.848081 85.082 174.4439
165.035392 85.061 174.2625
166.231306 85.040 174.0826
167.435887 85.020 173.9047
168.649196 84.999 173.7288
169.871298 84.979 173.5548
171.102255 84.958 173.3820
172.342133 84.937 173.2099
173.590995 84.916 173.0378
174.848907 84.895 172.8653
176.115934 84.874 172.6921
177.392143 84.852 172.5182
178.677599 84.829 172.3438
179.972371 84.806 172.1688
181.276525 84.782 171.9938
182.590129 84.757 171.8192
183.913252 84.732 171.6456
185.245964 84.706 171.4735
186.588332 84.680 171.3029
187.940428 84.653 171.1339
189.302322 84.625 170.9659
190.674085 84.597 170.7986
192.055788 84.569 170.6317
193.447503 84.540 170.4653
194.849303 84.511 170.3000
196.261262 84.481 170.1368
197.683452 84.451 169.9764
199.115948 84.421 169.8196
200.558824 84.390 169.6666
202.012156 84.359 169.5174
203.476019 84.328 169.3723
204.950490 84.297 169.2317
206.435646 84.267 169.0959
207.931564 84.237 168.9658
209.438322 84.208 168.8417
210.955998 84.180 168.7239
212.484672 84.153 168.6123
214.024424 84.127 168.5068
215.575333 84.101 168.4072
217.137481 84.075 168.3133
218.710948 84.050 168.2250
220.295818 84.026 168.1420
221.892172 84.003 168.0635
223.500094 83.980 167.9889
225.119668 83.958 167.9171
226.750978 83.937 167.8469
228.394109 83.918 167.7776
230.049147 83.899 167.7083
231.716178 83.881 167.6385
233.395289 83.864 167.5675
235.086567 83.849 167.4951
236.790102 83.835 167.4213
238.505980 83.823 167.3459
240.234293 83.812 167.2691
241.975130 83.802 167.1909
243.728581 83.794 167.1114
245.494739 83.787 167.0303
247.273695 83.780 166.9475
249.065542 83.775 166.8629
250.870374 83.770 166.7762
252.688284 83.765 166.6873
254.519367 83.761 166.5956
256.363720 83.757 166.5013
258.221437 83.753 166.4047
260.092616 83.748 166.3067
261.977354 83.743 166.2086
263.875750 83.738 166.1116
265.787903 83.731 166.0168
267.713911 83.724 165.9248
269.653877 83.716 165.8356
271.607900 83.707 165.7488
273.576083 83.698 165.6636
275.558528 83.688 165.5792
277.555338 83.678 165.4951
279.566619 83.668 165.4109
281.592474 83.658 165.3269
283.633009 83.648 165.2438
285.688331 83.638 165.1624
287.758546 83.628 165.0836
289.843763 83.618 165.0083
291.944090 83.609 164.9368
294.059638 83.600 164.8691
296.190515 83.592 164.8049
298.336833 83.584 164.7441
300.498705 83.577 164.6866
302.676243 83.571 164.6327
304.869559 83.566 164.5826
307.078770 83.562 164.5369
309.303989 83.557 164.4956
311.545334 83.553 164.4588
313.802919 83.550 164.4261
316.076865 83.546 164.3970
318.367288 83.542 164.3708
320.674309 83.538 164.3466
322.998047 83.535 164.3235
325.338624 83.531 164.3007
327.696162 83.526 164.2778
330.070783 83.522 164.2547
332.462612 83.516 164.2315
334.871773 83.511 164.2079
337.298392 83.505 164.1834
339.742595 83.498 164.1572
342.204510 83.491 164.1281
344.684265 83.482 164.0956
347.181989 83.473 164.0594
349.697813 83.463 164.0197
352.231868 83.452 163.9778
354.784285 83.439 163.9355
357.355198 83.425 163.8954
359.944741 83.411 163.8602
362.553049 83.395 163.8325
365.180258 83.379 163.8141
367.826505 83.362 163.8056
370.491927 83.345 163.8060
373.176665 83.328 163.8132
375.880856 83.310 163.8246
378.604644 83.291 163.8381
381.348169 83.272 163.8522
384.111575 83.251 163.8665
386.895006 83.229 163.8806
389.698607 83.206 163.8943
392.522524 83.182 163.9077
395.366904 83.158 163.9205
398.231895 83.133 163.9326
401.117648 83.108 163.9439
404.024312 83.082 163.9545
406.952038 83.056 163.9640
409.900981 83.029 163.9723
412.871292 83.002 163.9790
415.863128 82.975 163.9841
418.876643 82.947 163.9875
421.911996 82.917 163.9891
424.969344 82.887 163.9895
428.048847 82.855 163.9891
431.150666 82.822 163.9887
434.274961 82.787 163.9894
437.421897 82.751 163.9924
440.591636 82.713 163.9986
443.784345 82.674 164.0088
447.000189 82.634 164.0235
450.239337 82.592 164.0428
453.501956 82.551 164.0668
456.788219 82.508 164.0952
460.098294 82.466 164.1274
463.432356 82.424 164.1630
466.790578 82.382 164.2010
470.173135 82.342 164.2404
473.580203 82.302 164.2801
477.011961 82.264 164.3192
480.468586 82.228 164.3571
483.950259 82.193 164.3934
487.457163 82.158 164.4283
490.989478 82.125 164.4622
494.547390 82.093 164.4959
498.131084 82.062 164.5304
501.740748 82.032 164.5665
505.376568 82.003 164.6048
509.038735 81.975 164.6453
512.727439 81.948 164.6876
516.442874 81.922 164.7310
520.185232 81.898 164.7745
523.954708 81.876 164.8173
527.751500 81.855 164.8590
531.575805 81.837 164.8994
535.427822 81.820 164.9387
539.307753 81.806 164.9778
543.215800 81.793 165.0175
547.152165 81.783 165.0585
551.117055 81.775 165.1014
555.110677 81.768 165.1470
559.133237 81.764 165.1954
563.184947 81.761 165.2470
567.266018 81.759 165.3023
571.376661 81.758 165.3615
575.517092 81.759 165.4246
579.687526 81.760 165.4919
583.888181 81.762 165.5631
588.119275 81.765 165.6381
592.381030 81.769 165.7164
596.673667 81.773 165.7975
600.997410 81.777 165.8805
605.352485 81.782 165.9644
609.739119 81.786 166.0479
614.157540 81.790 166.1302
618.607979 81.793 166.2105
623.090667 81.795 166.2888
627.605839 81.796 166.3655
632.153730 81.796 166.4411
636.734576 81.794 166.5163
641.348617 81.791 166.5916
645.996094 81.788 166.6671
650.677248 81.783 166.7428
655.392323 81.777 166.8182
660.141566 81.771 166.8928
664.925224 81.764 166.9655
669.743546 81.757 167.0355
674.596784 81.749 167.1021
679.485191 81.740 167.1650
684.409020 81.730 167.2245
689.368530 81.718 167.2814
694.363979 81.705 167.3370
699.395626 81.691 167.3926
704.463736 81.676 167.4495
709.568570 81.659 167.5085
714.710396 81.641 167.5696
719.889483 81.623 167.6323
725.106099 81.604 167.6959
730.360516 81.584 167.7592
735.653010 81.563 167.8214
740.983855 81.541 167.8814
746.353329 81.519 167.9387
751.761713 81.497 167.9927
757.209288 81.474 168.0428
762.696339 81.450 168.0881
768.223151 81.425 168.1276
773.790013 81.400 168.1604
779.397214 81.375 168.1855
785.045047 81.349 168.2020
790.733808 81.323 168.2093
796.463791 81.296 168.2062
802.235296 81.269 168.1917
808.048623 81.242 168.1644
813.904077 81.214 168.1231
819.801961 81.185 168.0669
825.742584 81.155 167.9958
831.726255 81.122 167.9109
837.753287 81.087 167.8151
843.823992 81.049 167.7125
849.938689 81.006 167.6089
856.097695 80.960 167.5118
862.301332 80.908 167.4293
868.549922 80.853 167.3708
874.843793 80.793 167.3456
881.183272 80.730 167.3629
887.568689 80.665 167.4303
894.000378 80.601 167.5532
900.478673 80.539 167.7337
907.003913 80.481 167.9697
913.576437 80.429 168.2550
920.196588 80.386 168.5794
926.864712 80.353 168.9299
933.581156 80.330 169.2921
940.346270 80.317 169.6519
947.160407 80.315 169.9967
954.023921 80.322 170.3166
960.937172 80.336 170.6041
967.900519 80.358 170.8550
974.914325 80.385 171.0671
981.978956 80.417 171.2406
989.094780 80.452 171.3769
996.262169 80.489 171.4786
1003.481495 80.529 171.5490
1010.753136 80.569 171.5914
1018.077470 80.610 171.6100
1025.454879 80.651 171.6089
1032.885748 80.691 171.5919
1040.370463 80.732 171.5626
1047.909417 80.772 171.5240
1055.503000 80.811 171.4788
1063.151610 80.849 171.4290
1070.855645 80.887 171.3767
1078.615506 80.923 171.3234
1086.431599 80.959 171.2704
1094.304330 80.994 171.2184
1102.234110 81.028 171.1675
1110.221353 81.062 171.1176
1118.266475 81.096 171.0683
1126.369895 81.128 171.0189
1134.532035 81.161 170.9690
1142.753322 81.192 170.9177
1151.034184 81.223 170.8643
1159.375052 81.254 170.8082
1167.776361 81.283 170.7486
1176.238550 81.312 170.6850
1184.762060 81.339 170.6175
1193.347334 81.365 170.5463
1201.994821 81.390 170.4724
1210.704971 81.413 170.3971
1219.478238 81.434 170.3218
1228.315080 81.454 170.2481
1237.215957 81.473 170.1776
1246.181334 81.490 170.1113
1255.211678 81.507 170.0499
1264.307459 81.522 169.9940
1273.469152 81.536 169.9437
1282.697235 81.550 169.8993
1291.992188 81.563 169.8607
1301.354495 81.576 169.8279
1310.784647 81.587 169.8012
1320.283132 81.598 169.7805
1329.850448 81.609 169.7657
1339.487093 81.619 169.7566
1349.193569 81.628 169.7532
1358.970381 81.637 169.7556
1368.818041 81.645 169.7641
1378.737061 81.652 169.7792
1388.727958 81.660 169.8018
1398.791253 81.667 169.8328
1408.927471 81.675 169.8730
1419.137140 81.683 169.9234
1429.420793 81.692 169.9844
1439.778965 81.702 170.0562
1450.212197 81.713 170.1386
1460.721033 81.725 170.2315
1471.306019 81.738 170.3350
1481.967709 81.752 170.4495
1492.706658 81.767 170.5758
1503.523426 81.782 170.7148
1514.418576 81.798 170.8669
1525.392678 81.813 171.0328
1536.446302 81.828 171.2128
1547.580025 81.842 171.4071
1558.794428 81.855 171.6165
1570.090095 81.867 171.8417
1581.467615 81.877 172.0836
1592.927581 81.885 172.3428
1604.470591 81.892 172.6198
1616.097246 81.897 172.9139
1627.808153 81.900 173.2236
1639.603922 81.903 173.5459
1651.485168 81.904 173.8777
1663.452510 81.903 174.2158
1675.506573 81.902 174.5576
1687.647984 81.898 174.9021
1699.877377 81.893 175.2498
1712.195390 81.886 175.6027
1724.602663 81.876 175.9643
1737.099845 81.865 176.3383
1749.687587 81.853 176.7280
1762.366544 81.841 177.1354
1775.137379 81.828 177.5608
1788.000756 81.818 178.0020
1800.957346 81.808 178.4550
1814.007826 81.801 178.9144
1827.152874 81.796 179.3748
1840.393177 81.792 179.8311
1853.729425 81.790 -179.7207
1867.162312 81.788 -179.2834
1880.692540 81.785 -178.8578
1894.320813 81.781 -178.4427
1908.047843 81.775 -178.0355
1921.874344 81.767 -177.6327
1935.801038 81.757 -177.2304
1949.828650 81.745 -176.8252
1963.957912 81.730 -176.4151
1978.189561 81.715 -176.0000
1992.524338 81.699 -175.5814
2006.962991 81.683 -175.1624
2021.506272 81.666 -174.7469
2036.154940 81.650 -174.3383
2050.909758 81.634 -173.9396
2065.771495 81.618 -173.5521
2080.740927 81.601 -173.1756
2095.818833 81.583 -172.8088
2111.006001 81.566 -172.4491
2126.303220 81.547 -172.0938
2141.711290 81.529 -171.7401
2157.231013 81.511 -171.3858
2172.863198 81.494 -171.0295
2188.608660 81.478 -170.6707
2204.468221 81.464 -170.3097
2220.442706 81.453 -169.9472
2236.532950 81.444 -169.5846
2252.739789 81.438 -169.2235
2269.064070 81.436 -168.8656
2285.506644 81.437 -168.5126
2302.068367 81.441 -168.1658
2318.750104 81.449 -167.8264
2335.552723 81.461 -167.4953
2352.477101 81.476 -167.1726
2369.524119 81.495 -166.8582
2386.694668 81.519 -166.5517
2403.989641 81.546 -166.2529
2421.409941 81.578 -165.9620
2438.956476 81.616 -165.6801
2456.630160 81.658 -165.4091
2474.431915 81.707 -165.1516
2492.362668 81.761 -164.9106
2510.423356 81.822 -164.6895
2528.614918 81.888 -164.4909
2546.938304 81.959 -164.3173
2565.394469 82.035 -164.1704
2583.984375 82.116 -164.0513
2602.708991 82.201 -163.9604
2621.569293 82.289 -163.8971
2640.566265 82.380 -163.8605
2659.700897 82.473 -163.8488
2678.974186 82.568 -163.8603
2698.387137 82.665 -163.8931
2717.940763 82.764 -163.9454
2737.636082 82.863 -164.0157
2757.474121 82.964 -164.1025
2777.455915 83.066 -164.2050
2797.582506 83.168 -164.3229
2817.854942 83.271 -164.4564
2838.274281 83.374 -164.6061
2858.841586 83.476 -164.7725
2879.557931 83.578 -164.9555
2900.424394 83.677 -165.1543
2921.442065 83.774 -165.3677
2942.612039 83.868 -165.5939
2963.935418 83.959 -165.8309
2985.413316 84.045 -166.0767
3007.046852 84.126 -166.3293
3028.837153 84.203 -166.5865
3050.785356 84.273 -166.8465
3072.892604 84.338 -167.1072
3095.160050 84.396 -167.3666
3117.588856 84.447 -167.6232
3140.180190 84.492 -167.8756
3162.935230 84.529 -168.1230
3185.855163 84.560 -168.3651
3208.941182 84.583 -168.6016
3232.194493 84.599 -168.8326
3255.616307 84.608 -169.0582
3279.207844 84.609 -169.2783
3302.970336 84.604 -169.4930
3326.905021 84.591 -169.7022
3351.013146 84.571 -169.9059
3375.295969 84.544 -170.1037
3399.754755 84.511 -170.2954
