* Measurement data measured by REW V5.31.3
* Source: EXCL: Headset (USB-C to 3.5mm Headphone Jack Adapter), MICROPHONE (Master Volume), 0, volume: 0.750
* Format: 256k Log Swept Sine, 1 sweep at -12.0 dBFS with no timing reference
* Dated: Apr 7, 2025 5:27:11 PM
* REW Settings:
*  C-weighting compensation: Off
*  Target level: 75.0 dB
* Note: ; 
* Measurement: HD 6XX (Geekeria) L3
* Smoothing: 1/6 octave
* Frequency Step: 96 ppo
* Start Frequency: 20.0 Hz
*
* Freq(Hz) SPL(dB) Phase(degrees)
20.187378 76.083 -102.8046
20.333664 76.108 -102.9495
20.481010 76.143 -103.1398
20.629424 76.186 -103.3653
20.778913 76.239 -103.6152
20.929486 76.299 -103.8791
21.081150 76.368 -104.1483
21.233912 76.445 -104.4160
21.387782 76.529 -104.6776
21.542767 76.620 -104.9307
21.698874 76.717 -105.1745
21.856113 76.818 -105.4098
22.014492 76.922 -105.6377
22.174018 77.027 -105.8597
22.334700 77.132 -106.0767
22.496546 77.234 -106.2892
22.659566 77.333 -106.4971
22.823766 77.426 -106.6998
22.989157 77.513 -106.8967
23.155745 77.594 -107.0877
23.323542 77.668 -107.2736
23.492554 77.734 -107.4566
23.662790 77.795 -107.6406
23.834261 77.849 -107.8310
24.006973 77.899 -108.0347
24.180938 77.945 -108.2594
24.356163 77.987 -108.5125
24.532658 78.027 -108.8009
24.710431 78.064 -109.1294
24.889493 78.099 -109.5004
25.069853 78.132 -109.9133
25.251519 78.163 -110.3645
25.434502 78.193 -110.8472
25.618811 78.221 -111.3525
25.804456 78.249 -111.8698
25.991445 78.276 -112.3879
26.179790 78.304 -112.8960
26.369500 78.333 -113.3844
26.560584 78.362 -113.8457
26.753053 78.394 -114.2746
26.946917 78.427 -114.6687
27.142185 78.462 -115.0283
27.338869 78.498 -115.3557
27.536977 78.536 -115.6551
27.736522 78.574 -115.9319
27.937512 78.612 -116.1918
28.139959 78.650 -116.4406
28.343872 78.686 -116.6834
28.549264 78.722 -116.9244
28.756143 78.757 -117.1670
28.964522 78.791 -117.4132
29.174411 78.826 -117.6642
29.385821 78.862 -117.9207
29.598763 78.899 -118.1828
29.813248 78.940 -118.4505
30.029287 78.984 -118.7242
30.246891 79.033 -119.0044
30.466073 79.087 -119.2922
30.686842 79.145 -119.5888
30.909212 79.208 -119.8959
31.133193 79.275 -120.2148
31.358797 79.345 -120.5463
31.586035 79.417 -120.8911
31.814921 79.491 -121.2489
32.045465 79.567 -121.6190
32.277680 79.644 -122.0001
32.511577 79.722 -122.3904
32.747169 79.801 -122.7883
32.984469 79.882 -123.1917
33.223488 79.966 -123.5983
33.464239 80.053 -124.0061
33.706735 80.144 -124.4128
33.950987 80.238 -124.8161
34.197010 80.336 -125.2139
34.444816 80.436 -125.6044
34.694417 80.540 -125.9865
34.945827 80.646 -126.3595
35.199059 80.752 -126.7236
35.454126 80.860 -127.0797
35.711041 80.966 -127.4289
35.969818 81.070 -127.7724
36.230470 81.173 -128.1111
36.493011 81.272 -128.4455
36.757455 81.368 -128.7752
37.023814 81.461 -129.0996
37.292104 81.551 -129.4173
37.562338 81.637 -129.7271
37.834530 81.721 -130.0280
38.108695 81.802 -130.3198
38.384846 81.881 -130.6032
38.662999 81.958 -130.8808
38.943167 82.034 -131.1566
39.225365 82.108 -131.4365
39.509608 82.180 -131.7272
39.795911 82.251 -132.0358
40.084289 82.319 -132.3681
40.374756 82.384 -132.7278
40.667328 82.446 -133.1145
40.962020 82.504 -133.5242
41.258848 82.558 -133.9485
41.557827 82.609 -134.3760
41.858972 82.656 -134.7944
42.162299 82.700 -135.1921
42.467824 82.743 -135.5606
42.775564 82.784 -135.8961
43.085533 82.825 -136.2001
43.397749 82.866 -136.4798
43.712227 82.907 -136.7460
44.028983 82.947 -137.0123
44.348036 82.987 -137.2919
44.669400 83.027 -137.5958
44.993093 83.065 -137.9309
45.319131 83.103 -138.2986
45.647532 83.139 -138.6951
45.978313 83.174 -139.1114
46.311491 83.208 -139.5358
46.647083 83.241 -139.9557
46.985107 83.273 -140.3598
47.325581 83.304 -140.7408
47.668521 83.335 -141.0958
48.013947 83.364 -141.4269
48.361876 83.393 -141.7396
48.712326 83.420 -142.0410
49.065315 83.446 -142.3377
49.420863 83.468 -142.6335
49.778987 83.487 -142.9294
50.139706 83.504 -143.2240
50.503039 83.517 -143.5148
50.869005 83.527 -143.7999
51.237623 83.536 -144.0796
51.608912 83.543 -144.3563
51.982891 83.548 -144.6341
52.359580 83.553 -144.9170
52.739000 83.556 -145.2079
53.121168 83.558 -145.5073
53.506106 83.559 -145.8134
53.893833 83.559 -146.1226
54.284370 83.558 -146.4303
54.677737 83.557 -146.7320
55.073955 83.556 -147.0237
55.473043 83.556 -147.3022
55.875024 83.555 -147.5650
56.279917 83.556 -147.8105
56.687745 83.556 -148.0380
57.098527 83.558 -148.2482
57.512287 83.560 -148.4433
57.929045 83.564 -148.6279
58.348822 83.571 -148.8084
58.771642 83.582 -148.9942
59.197525 83.599 -149.1963
59.626495 83.624 -149.4263
60.058573 83.656 -149.6938
60.493782 83.696 -150.0041
60.932145 83.743 -150.3558
61.373685 83.796 -150.7421
61.818424 83.854 -151.1519
62.266386 83.914 -151.5736
62.717593 83.976 -151.9970
63.172071 84.039 -152.4151
63.629842 84.102 -152.8242
64.090930 84.166 -153.2232
64.555359 84.229 -153.6126
65.023154 84.292 -153.9941
65.494339 84.355 -154.3698
65.968938 84.417 -154.7415
66.446976 84.478 -155.1107
66.928478 84.537 -155.4784
67.413469 84.594 -155.8446
67.901975 84.649 -156.2093
68.394021 84.702 -156.5719
68.889632 84.752 -156.9317
69.388835 84.799 -157.2880
69.891655 84.843 -157.6404
70.398118 84.884 -157.9886
70.908252 84.922 -158.3330
71.422083 84.957 -158.6743
71.939636 84.990 -159.0137
72.460941 85.020 -159.3519
72.986023 85.047 -159.6896
73.514909 85.073 -160.0271
74.047629 85.096 -160.3646
74.584208 85.116 -160.7025
75.124676 85.134 -161.0410
75.669061 85.149 -161.3801
76.217390 85.161 -161.7197
76.769692 85.172 -162.0592
77.325997 85.180 -162.3980
77.886333 85.187 -162.7358
78.450730 85.192 -163.0721
79.019216 85.196 -163.4069
79.591822 85.200 -163.7401
80.168577 85.203 -164.0721
80.749512 85.205 -164.4035
81.334656 85.208 -164.7352
81.924040 85.210 -165.0686
82.517696 85.212 -165.4046
83.115653 85.215 -165.7439
83.717943 85.217 -166.0865
84.324598 85.219 -166.4321
84.935649 85.220 -166.7798
85.551128 85.221 -167.1282
86.171066 85.220 -167.4759
86.795497 85.219 -167.8211
87.424453 85.216 -168.1616
88.057967 85.213 -168.4960
88.696071 85.209 -168.8234
89.338800 85.204 -169.1440
89.986185 85.200 -169.4592
90.638262 85.195 -169.7708
91.295065 85.191 -170.0807
91.956626 85.187 -170.3905
92.622982 85.183 -170.7012
93.294166 85.179 -171.0133
93.970214 85.175 -171.3267
94.651161 85.171 -171.6412
95.337042 85.166 -171.9568
96.027894 85.162 -172.2732
96.723752 85.157 -172.5903
97.424652 85.152 -172.9078
98.130631 85.148 -173.2254
98.841726 85.144 -173.5425
99.557974 85.141 -173.8585
100.279412 85.138 -174.1731
101.006078 85.136 -174.4859
101.738010 85.134 -174.7968
102.475245 85.133 -175.1056
103.217823 85.133 -175.4126
103.965782 85.134 -175.7182
104.719161 85.136 -176.0232
105.477999 85.140 -176.3285
106.242336 85.144 -176.6345
107.012212 85.149 -176.9411
107.787666 85.155 -177.2479
108.568740 85.162 -177.5536
109.355474 85.170 -177.8570
110.147909 85.179 -178.1572
110.946086 85.189 -178.4533
111.750047 85.199 -178.7452
112.559834 85.210 -179.0330
113.375489 85.222 -179.3177
114.197055 85.234 -179.6005
115.024574 85.246 -179.8833
115.858089 85.258 179.8324
116.697645 85.269 179.5451
117.543284 85.279 179.2537
118.395051 85.289 178.9574
119.252990 85.298 178.6556
120.117147 85.307 178.3489
120.987565 85.315 178.0386
121.864291 85.322 177.7268
122.747370 85.329 177.4163
123.636848 85.335 177.1096
124.532771 85.341 176.8084
125.435187 85.346 176.5137
126.344142 85.351 176.2252
127.259684 85.354 175.9422
128.181860 85.357 175.6633
129.110718 85.359 175.3875
130.046308 85.359 175.1133
130.988677 85.358 174.8398
131.937875 85.356 174.5665
132.893951 85.353 174.2929
133.856956 85.348 174.0190
134.826938 85.342 173.7449
135.803950 85.335 173.4712
136.788041 85.326 173.1982
137.779264 85.317 172.9267
138.777669 85.307 172.6570
139.783309 85.296 172.3892
140.796237 85.284 172.1234
141.816504 85.270 171.8594
142.844165 85.256 171.5969
143.879273 85.241 171.3354
144.921881 85.225 171.0744
145.972045 85.208 170.8135
147.029819 85.190 170.5524
148.095257 85.172 170.2910
149.168417 85.153 170.0294
150.249353 85.133 169.7676
151.338121 85.113 169.5061
152.434780 85.092 169.2450
153.539385 85.072 168.9847
154.651995 85.051 168.7251
155.772667 85.030 168.4662
156.901460 85.008 168.2078
158.038432 84.987 167.9497
159.183644 84.965 167.6921
160.337154 84.944 167.4353
161.499023 84.922 167.1796
162.669312 84.900 166.9252
163.848081 84.879 166.6724
165.035392 84.858 166.4211
166.231306 84.836 166.1713
167.435887 84.816 165.9229
168.649196 84.795 165.6762
169.871298 84.775 165.4313
171.102255 84.756 165.1882
172.342133 84.737 164.9467
173.590995 84.718 164.7062
174.848907 84.700 164.4661
176.115934 84.683 164.2256
177.392143 84.665 163.9841
178.677599 84.648 163.7419
179.972371 84.630 163.4997
181.276525 84.611 163.2585
182.590129 84.591 163.0193
183.913252 84.570 162.7829
185.245964 84.549 162.5496
186.588332 84.526 162.3195
187.940428 84.502 162.0923
189.302322 84.478 161.8676
190.674085 84.452 161.6447
192.055788 84.426 161.4234
193.447503 84.399 161.2030
194.849303 84.372 160.9834
196.261262 84.344 160.7645
197.683452 84.316 160.5464
199.115948 84.287 160.3295
200.558824 84.258 160.1143
202.012156 84.229 159.9017
203.476019 84.199 159.6920
204.950490 84.170 159.4858
206.435646 84.141 159.2831
207.931564 84.113 159.0840
209.438322 84.084 158.8886
210.955998 84.057 158.6968
212.484672 84.031 158.5082
214.024424 84.005 158.3227
215.575333 83.981 158.1397
217.137481 83.957 157.9589
218.710948 83.935 157.7799
220.295818 83.913 157.6022
221.892172 83.893 157.4255
223.500094 83.874 157.2492
225.119668 83.856 157.0728
226.750978 83.839 156.8958
228.394109 83.823 156.7182
230.049147 83.807 156.5409
231.716178 83.793 156.3647
233.395289 83.779 156.1906
235.086567 83.766 156.0188
236.790102 83.753 155.8491
238.505980 83.741 155.6805
240.234293 83.731 155.5121
241.975130 83.721 155.3427
243.728581 83.711 155.1714
245.494739 83.702 154.9979
247.273695 83.694 154.8217
249.065542 83.686 154.6430
250.870374 83.678 154.4617
252.688284 83.670 154.2781
254.519367 83.661 154.0927
256.363720 83.653 153.9059
258.221437 83.644 153.7186
260.092616 83.636 153.5316
261.977354 83.627 153.3464
263.875750 83.619 153.1642
265.787903 83.610 152.9866
267.713911 83.602 152.8148
269.653877 83.593 152.6493
271.607900 83.584 152.4908
273.576083 83.575 152.3391
275.558528 83.566 152.1939
277.555338 83.557 152.0545
279.566619 83.548 151.9197
281.592474 83.538 151.7882
283.633009 83.529 151.6584
285.688331 83.520 151.5290
287.758546 83.511 151.3990
289.843763 83.503 151.2678
291.944090 83.495 151.1356
294.059638 83.488 151.0027
296.190515 83.482 150.8696
298.336833 83.476 150.7366
300.498705 83.471 150.6039
302.676243 83.467 150.4718
304.869559 83.463 150.3406
307.078770 83.460 150.2108
309.303989 83.458 150.0825
311.545334 83.456 149.9561
313.802919 83.454 149.8315
316.076865 83.452 149.7087
318.367288 83.451 149.5875
320.674309 83.450 149.4674
322.998047 83.449 149.3482
325.338624 83.449 149.2294
327.696162 83.448 149.1111
330.070783 83.447 148.9930
332.462612 83.445 148.8752
334.871773 83.443 148.7577
337.298392 83.441 148.6402
339.742595 83.437 148.5227
342.204510 83.431 148.4052
344.684265 83.425 148.2880
347.181989 83.417 148.1712
349.697813 83.407 148.0557
352.231868 83.396 147.9421
354.784285 83.384 147.8311
357.355198 83.370 147.7233
359.944741 83.355 147.6186
362.553049 83.339 147.5165
365.180258 83.321 147.4163
367.826505 83.304 147.3170
370.491927 83.286 147.2176
373.176665 83.267 147.1173
375.880856 83.248 147.0157
378.604644 83.229 146.9128
381.348169 83.210 146.8087
384.111575 83.191 146.7042
386.895006 83.172 146.5997
389.698607 83.152 146.4957
392.522524 83.133 146.3920
395.366904 83.113 146.2886
398.231895 83.093 146.1850
401.117648 83.072 146.0811
404.024312 83.051 145.9767
406.952038 83.030 145.8724
409.900981 83.008 145.7687
412.871292 82.985 145.6663
415.863128 82.961 145.5659
418.876643 82.936 145.4677
421.911996 82.909 145.3719
424.969344 82.882 145.2786
428.048847 82.853 145.1873
431.150666 82.822 145.0978
434.274961 82.790 145.0099
437.421897 82.757 144.9232
440.591636 82.722 144.8376
443.784345 82.686 144.7527
447.000189 82.648 144.6682
450.239337 82.610 144.5840
453.501956 82.571 144.5000
456.788219 82.532 144.4162
460.098294 82.492 144.3325
463.432356 82.453 144.2487
466.790578 82.414 144.1647
470.173135 82.376 144.0804
473.580203 82.338 143.9955
477.011961 82.301 143.9103
480.468586 82.265 143.8250
483.950259 82.230 143.7398
487.457163 82.196 143.6550
490.989478 82.163 143.5709
494.547390 82.131 143.4879
498.131084 82.100 143.4062
501.740748 82.069 143.3261
505.376568 82.040 143.2479
509.038735 82.012 143.1716
512.727439 81.986 143.0971
516.442874 81.961 143.0241
520.185232 81.938 142.9524
523.954708 81.917 142.8816
527.751500 81.897 142.8112
531.575805 81.881 142.7408
535.427822 81.866 142.6703
539.307753 81.855 142.5993
543.215800 81.846 142.5276
547.152165 81.839 142.4550
551.117055 81.834 142.3815
555.110677 81.832 142.3069
559.133237 81.832 142.2315
563.184947 81.833 142.1552
567.266018 81.836 142.0779
571.376661 81.840 141.9997
575.517092 81.846 141.9202
579.687526 81.852 141.8392
583.888181 81.859 141.7567
588.119275 81.867 141.6722
592.381030 81.875 141.5860
596.673667 81.883 141.4980
600.997410 81.890 141.4083
605.352485 81.897 141.3172
609.739119 81.903 141.2250
614.157540 81.908 141.1322
618.607979 81.912 141.0389
623.090667 81.915 140.9454
627.605839 81.917 140.8517
632.153730 81.917 140.7577
636.734576 81.916 140.6630
641.348617 81.914 140.5672
645.996094 81.911 140.4699
650.677248 81.907 140.3706
655.392323 81.901 140.2686
660.141566 81.895 140.1635
664.925224 81.888 140.0545
669.743546 81.879 139.9412
674.596784 81.870 139.8231
679.485191 81.859 139.6999
684.409020 81.846 139.5714
689.368530 81.832 139.4373
694.363979 81.817 139.2975
699.395626 81.800 139.1519
704.463736 81.781 139.0004
709.568570 81.760 138.8435
714.710396 81.736 138.6818
719.889483 81.711 138.5162
725.106099 81.682 138.3478
730.360516 81.651 138.1778
735.653010 81.618 138.0072
740.983855 81.581 137.8375
746.353329 81.541 137.6700
751.761713 81.498 137.5067
757.209288 81.451 137.3497
762.696339 81.401 137.2016
768.223151 81.348 137.0649
773.790013 81.292 136.9426
779.397214 81.233 136.8374
785.045047 81.171 136.7518
790.733808 81.108 136.6884
796.463791 81.044 136.6490
802.235296 80.980 136.6354
808.048623 80.917 136.6487
813.904077 80.855 136.6891
819.801961 80.796 136.7555
825.742584 80.741 136.8452
831.726255 80.690 136.9541
837.753287 80.645 137.0766
843.823992 80.606 137.2060
849.938689 80.572 137.3349
856.097695 80.545 137.4560
862.301332 80.524 137.5626
868.549922 80.508 137.6494
874.843793 80.496 137.7125
881.183272 80.488 137.7501
887.568689 80.481 137.7617
894.000378 80.477 137.7483
900.478673 80.474 137.7115
907.003913 80.471 137.6539
913.576437 80.468 137.5785
920.196588 80.466 137.4883
926.864712 80.464 137.3864
933.581156 80.462 137.2755
940.346270 80.460 137.1576
947.160407 80.460 137.0341
954.023921 80.460 136.9053
960.937172 80.462 136.7715
967.900519 80.464 136.6323
974.914325 80.469 136.4877
981.978956 80.474 136.3377
989.094780 80.481 136.1826
996.262169 80.489 136.0229
1003.481495 80.498 135.8599
1010.753136 80.508 135.6949
1018.077470 80.519 135.5299
1025.454879 80.531 135.3668
1032.885748 80.544 135.2075
1040.370463 80.558 135.0531
1047.909417 80.574 134.9039
1055.503000 80.591 134.7592
1063.151610 80.610 134.6174
1070.855645 80.631 134.4763
1078.615506 80.654 134.3337
1086.431599 80.678 134.1874
1094.304330 80.703 134.0354
1102.234110 80.728 133.8766
1110.221353 80.752 133.7105
1118.266475 80.776 133.5377
1126.369895 80.799 133.3593
1134.532035 80.820 133.1769
1142.753322 80.839 132.9926
1151.034184 80.856 132.8084
1159.375052 80.870 132.6264
1167.776361 80.883 132.4481
1176.238550 80.893 132.2753
1184.762060 80.902 132.1091
1193.347334 80.908 131.9512
1201.994821 80.913 131.8033
1210.704971 80.916 131.6672
1219.478238 80.918 131.5453
1228.315080 80.919 131.4401
1237.215957 80.921 131.3531
1246.181334 80.922 131.2855
1255.211678 80.925 131.2366
1264.307459 80.929 131.2047
1273.469152 80.936 131.1873
1282.697235 80.944 131.1810
1291.992188 80.955 131.1826
1301.354495 80.968 131.1892
1310.784647 80.982 131.1982
1320.283132 80.999 131.2075
1329.850448 81.017 131.2158
1339.487093 81.036 131.2220
1349.193569 81.057 131.2257
1358.970381 81.079 131.2262
1368.818041 81.102 131.2228
1378.737061 81.127 131.2147
1388.727958 81.152 131.2012
1398.791253 81.179 131.1826
1408.927471 81.206 131.1595
1419.137140 81.235 131.1336
1429.420793 81.264 131.1068
1439.778965 81.295 131.0804
1450.212197 81.327 131.0551
1460.721033 81.360 131.0308
1471.306019 81.394 131.0075
1481.967709 81.429 130.9854
1492.706658 81.465 130.9650
1503.523426 81.500 130.9471
1514.418576 81.536 130.9325
1525.392678 81.572 130.9214
1536.446302 81.606 130.9139
1547.580025 81.640 130.9096
1558.794428 81.671 130.9088
1570.090095 81.700 130.9119
1581.467615 81.726 130.9203
1592.927581 81.749 130.9357
1604.470591 81.769 130.9599
1616.097246 81.786 130.9945
1627.808153 81.799 131.0403
1639.603922 81.809 131.0973
1651.485168 81.817 131.1642
1663.452510 81.823 131.2395
1675.506573 81.827 131.3210
1687.647984 81.829 131.4066
1699.877377 81.829 131.4944
1712.195390 81.827 131.5829
1724.602663 81.823 131.6714
1737.099845 81.817 131.7596
1749.687587 81.809 131.8481
1762.366544 81.799 131.9383
1775.137379 81.786 132.0328
1788.000756 81.771 132.1350
1800.957346 81.753 132.2490
1814.007826 81.733 132.3783
1827.152874 81.711 132.5262
1840.393177 81.687 132.6949
1853.729425 81.663 132.8853
1867.162312 81.638 133.0967
1880.692540 81.615 133.3262
1894.320813 81.592 133.5692
1908.047843 81.570 133.8200
1921.874344 81.549 134.0725
1935.801038 81.530 134.3214
1949.828650 81.510 134.5626
1963.957912 81.491 134.7930
1978.189561 81.471 135.0105
1992.524338 81.450 135.2133
2006.962991 81.428 135.4004
2021.506272 81.404 135.5724
2036.154940 81.377 135.7323
2050.909758 81.347 135.8845
2065.771495 81.315 136.0347
2080.740927 81.280 136.1883
2095.818833 81.243 136.3494
2111.006001 81.205 136.5204
2126.303220 81.167 136.7026
2141.711290 81.130 136.8962
2157.231013 81.094 137.1004
2172.863198 81.061 137.3135
2188.608660 81.031 137.5324
2204.468221 81.004 137.7527
2220.442706 80.982 137.9696
2236.532950 80.963 138.1784
2252.739789 80.949 138.3751
2269.064070 80.939 138.5566
2285.506644 80.933 138.7207
2302.068367 80.930 138.8658
2318.750104 80.930 138.9913
2335.552723 80.932 139.0977
2352.477101 80.937 139.1868
2369.524119 80.944 139.2604
2386.694668 80.953 139.3204
2403.989641 80.965 139.3674
2421.409941 80.979 139.4017
2438.956476 80.996 139.4228
2456.630160 81.017 139.4296
2474.431915 81.040 139.4202
2492.362668 81.066 139.3931
2510.423356 81.094 139.3470
2528.614918 81.125 139.2827
2546.938304 81.156 139.2027
2565.394469 81.188 139.1118
2583.984375 81.220 139.0155
2602.708991 81.254 138.9196
2621.569293 81.288 138.8291
2640.566265 81.324 138.7479
2659.700897 81.362 138.6778
2678.974186 81.403 138.6193
2698.387137 81.447 138.5710
2717.940763 81.496 138.5307
2737.636082 81.548 138.4956
2757.474121 81.605 138.4625
2777.455915 81.665 138.4282
2797.582506 81.729 138.3893
2817.854942 81.796 138.3425
2838.274281 81.865 138.2853
2858.841586 81.936 138.2159
2879.557931 82.007 138.1335
2900.424394 82.079 138.0387
2921.442065 82.149 137.9334
2942.612039 82.218 137.8204
2963.935418 82.284 137.7025
2985.413316 82.348 137.5825
3007.046852 82.409 137.4619
3028.837153 82.467 137.3416
3050.785356 82.521 137.2208
3072.892604 82.572 137.0987
3095.160050 82.619 136.9739
3117.588856 82.661 136.8454
3140.180190 82.697 136.7129
3162.935230 82.728 136.5765
3185.855163 82.752 136.4368
3208.941182 82.769 136.2943
3232.194493 82.780 136.1495
3255.616307 82.782 136.0036
3279.207844 82.778 135.8585
3302.970336 82.765 135.7170
3326.905021 82.744 135.5818
3351.013146 82.716 135.4555
3375.295969 82.681 135.3401
3399.754755 82.639 135.2365
3424.390779 82.592 135.1448
3449.205326 82.539 135.0648
3474.199690 82.481 134.9960
3499.375173 82.419 134.9381
