* Measurement data measured by REW V5.31.3
* Source: EXCL: Headset (USB-C to 3.5mm Headphone Jack Adapter), MICROPHONE (Master Volume), 0, volume: 0.750
* Format: 256k Log Swept Sine, 1 sweep at -12.0 dBFS with no timing reference
* Dated: Apr 7, 2025 5:27:50 PM
* REW Settings:
*  C-weighting compensation: Off
*  Target level: 75.0 dB
* Note: ; 
* Measurement: HD 6XX (Geekeria) L5
* Smoothing: 1/6 octave
* Frequency Step: 96 ppo
* Start Frequency: 20.0 Hz
*
* Freq(Hz) SPL(dB) Phase(degrees)
20.187378 76.875 -99.5034
20.333664 76.916 -99.6543
20.481010 76.972 -99.8582
20.629424 77.039 -100.1116
20.778913 77.116 -100.4096
20.929486 77.201 -100.7465
21.081150 77.292 -101.1158
21.233912 77.387 -101.5109
21.387782 77.486 -101.9254
21.542767 77.586 -102.3537
21.698874 77.687 -102.7910
21.856113 77.788 -103.2341
22.014492 77.888 -103.6807
22.174018 77.986 -104.1296
22.334700 78.082 -104.5803
22.496546 78.173 -105.0327
22.659566 78.259 -105.4863
22.823766 78.339 -105.9403
22.989157 78.412 -106.3929
23.155745 78.479 -106.8414
23.323542 78.538 -107.2820
23.492554 78.591 -107.7107
23.662790 78.638 -108.1230
23.834261 78.681 -108.5151
24.006973 78.721 -108.8842
24.180938 78.759 -109.2289
24.356163 78.799 -109.5501
24.532658 78.842 -109.8506
24.710431 78.888 -110.1353
24.889493 78.938 -110.4101
25.069853 78.993 -110.6821
25.251519 79.052 -110.9576
25.434502 79.114 -111.2420
25.618811 79.176 -111.5388
25.804456 79.238 -111.8493
25.991445 79.296 -112.1727
26.179790 79.350 -112.5063
26.369500 79.399 -112.8462
26.560584 79.440 -113.1882
26.753053 79.475 -113.5286
26.946917 79.504 -113.8651
27.142185 79.527 -114.1969
27.338869 79.545 -114.5252
27.536977 79.560 -114.8526
27.736522 79.572 -115.1825
27.937512 79.584 -115.5183
28.139959 79.594 -115.8623
28.343872 79.605 -116.2150
28.549264 79.616 -116.5745
28.756143 79.628 -116.9368
28.964522 79.642 -117.2961
29.174411 79.657 -117.6457
29.385821 79.674 -117.9796
29.598763 79.695 -118.2934
29.813248 79.719 -118.5854
30.029287 79.749 -118.8568
30.246891 79.784 -119.1117
30.466073 79.823 -119.3562
30.686842 79.868 -119.5973
30.909212 79.918 -119.8417
31.133193 79.970 -120.0950
31.358797 80.026 -120.3604
31.586035 80.084 -120.6393
31.814921 80.144 -120.9308
32.045465 80.205 -121.2331
32.277680 80.270 -121.5432
32.511577 80.336 -121.8584
32.747169 80.406 -122.1759
32.984469 80.480 -122.4936
33.223488 80.558 -122.8093
33.464239 80.639 -123.1215
33.706735 80.725 -123.4288
33.950987 80.814 -123.7301
34.197010 80.906 -124.0251
34.444816 81.001 -124.3139
34.694417 81.097 -124.5975
34.945827 81.195 -124.8773
35.199059 81.292 -125.1552
35.454126 81.388 -125.4329
35.711041 81.483 -125.7119
35.969818 81.575 -125.9933
36.230470 81.664 -126.2782
36.493011 81.751 -126.5677
36.757455 81.835 -126.8637
37.023814 81.918 -127.1688
37.292104 82.000 -127.4861
37.562338 82.081 -127.8189
37.834530 82.163 -128.1698
38.108695 82.245 -128.5405
38.384846 82.328 -128.9306
38.662999 82.412 -129.3383
38.943167 82.496 -129.7601
39.225365 82.581 -130.1914
39.509608 82.664 -130.6266
39.795911 82.746 -131.0597
40.084289 82.825 -131.4843
40.374756 82.901 -131.8941
40.667328 82.971 -132.2831
40.962020 83.037 -132.6470
41.258848 83.096 -132.9832
41.557827 83.150 -133.2920
41.858972 83.198 -133.5766
42.162299 83.241 -133.8428
42.467824 83.279 -134.0976
42.775564 83.314 -134.3484
43.085533 83.344 -134.6008
43.397749 83.372 -134.8587
43.712227 83.397 -135.1232
44.028983 83.422 -135.3937
44.348036 83.446 -135.6679
44.669400 83.471 -135.9428
44.993093 83.497 -136.2157
45.319131 83.524 -136.4835
45.647532 83.551 -136.7439
45.978313 83.578 -136.9951
46.311491 83.604 -137.2368
46.647083 83.629 -137.4704
46.985107 83.653 -137.6993
47.325581 83.677 -137.9298
47.668521 83.701 -138.1696
48.013947 83.726 -138.4271
48.361876 83.752 -138.7094
48.712326 83.779 -139.0204
49.065315 83.807 -139.3597
49.420863 83.835 -139.7227
49.778987 83.863 -140.1009
50.139706 83.890 -140.4846
50.503039 83.915 -140.8649
50.869005 83.938 -141.2349
51.237623 83.958 -141.5916
51.608912 83.977 -141.9346
51.982891 83.993 -142.2658
52.359580 84.007 -142.5878
52.739000 84.020 -142.9035
53.121168 84.031 -143.2149
53.506106 84.041 -143.5237
53.893833 84.050 -143.8309
54.284370 84.059 -144.1369
54.677737 84.067 -144.4428
55.073955 84.076 -144.7495
55.473043 84.085 -145.0592
55.875024 84.094 -145.3740
56.279917 84.103 -145.6967
56.687745 84.112 -146.0292
57.098527 84.122 -146.3723
57.512287 84.132 -146.7245
57.929045 84.143 -147.0818
58.348822 84.155 -147.4367
58.771642 84.170 -147.7790
59.197525 84.187 -148.0972
59.626495 84.208 -148.3817
60.058573 84.233 -148.6278
60.493782 84.264 -148.8376
60.932145 84.301 -149.0200
61.373685 84.342 -149.1876
61.818424 84.387 -149.3540
62.266386 84.435 -149.5305
62.717593 84.485 -149.7245
63.172071 84.535 -149.9399
63.629842 84.587 -150.1769
64.090930 84.638 -150.4333
64.555359 84.690 -150.7054
65.023154 84.741 -150.9887
65.494339 84.792 -151.2789
65.968938 84.841 -151.5726
66.446976 84.890 -151.8673
66.928478 84.937 -152.1618
67.413469 84.984 -152.4555
67.901975 85.030 -152.7485
68.394021 85.075 -153.0411
68.889632 85.120 -153.3337
69.388835 85.164 -153.6266
69.891655 85.207 -153.9204
70.398118 85.249 -154.2158
70.908252 85.290 -154.5134
71.422083 85.328 -154.8133
71.939636 85.365 -155.1153
72.460941 85.399 -155.4188
72.986023 85.430 -155.7226
73.514909 85.458 -156.0257
74.047629 85.482 -156.3272
74.584208 85.503 -156.6266
75.124676 85.522 -156.9236
75.669061 85.538 -157.2184
76.217390 85.552 -157.5114
76.769692 85.564 -157.8030
77.325997 85.574 -158.0935
77.886333 85.583 -158.3831
78.450730 85.591 -158.6718
79.019216 85.596 -158.9597
79.591822 85.601 -159.2467
80.168577 85.603 -159.5325
80.749512 85.605 -159.8165
81.334656 85.606 -160.0981
81.924040 85.606 -160.3770
82.517696 85.606 -160.6534
83.115653 85.606 -160.9278
83.717943 85.605 -161.2012
84.324598 85.605 -161.4748
84.935649 85.605 -161.7498
85.551128 85.605 -162.0273
86.171066 85.604 -162.3079
86.795497 85.604 -162.5919
87.424453 85.602 -162.8789
88.057967 85.600 -163.1682
88.696071 85.597 -163.4588
89.338800 85.593 -163.7495
89.986185 85.589 -164.0394
90.638262 85.584 -164.3277
91.295065 85.578 -164.6143
91.956626 85.573 -164.8993
92.622982 85.568 -165.1831
93.294166 85.562 -165.4663
93.970214 85.557 -165.7493
94.651161 85.552 -166.0325
95.337042 85.548 -166.3158
96.027894 85.543 -166.5991
96.723752 85.538 -166.8823
97.424652 85.534 -167.1651
98.130631 85.530 -167.4471
98.841726 85.526 -167.7280
99.557974 85.523 -168.0075
100.279412 85.521 -168.2849
101.006078 85.519 -168.5601
101.738010 85.517 -168.8327
102.475245 85.517 -169.1030
103.217823 85.517 -169.3713
103.965782 85.517 -169.6384
104.719161 85.518 -169.9053
105.477999 85.519 -170.1732
106.242336 85.520 -170.4434
107.012212 85.523 -170.7168
107.787666 85.526 -170.9940
108.568740 85.530 -171.2749
109.355474 85.535 -171.5585
110.147909 85.541 -171.8433
110.946086 85.549 -172.1274
111.750047 85.557 -172.4091
112.559834 85.566 -172.6871
113.375489 85.576 -172.9607
114.197055 85.587 -173.2296
115.024574 85.598 -173.4938
115.858089 85.608 -173.7536
116.697645 85.619 -174.0094
117.543284 85.630 -174.2612
118.395051 85.640 -174.5089
119.252990 85.649 -174.7522
120.117147 85.658 -174.9909
120.987565 85.666 -175.2252
121.864291 85.674 -175.4559
122.747370 85.680 -175.6841
123.636848 85.686 -175.9110
124.532771 85.690 -176.1372
125.435187 85.694 -176.3632
126.344142 85.697 -176.5890
127.259684 85.699 -176.8145
128.181860 85.700 -177.0397
129.110718 85.700 -177.2650
130.046308 85.698 -177.4908
130.988677 85.696 -177.7177
131.937875 85.692 -177.9460
132.893951 85.687 -178.1761
133.856956 85.680 -178.4079
134.826938 85.672 -178.6412
135.803950 85.662 -178.8754
136.788041 85.652 -179.1103
137.779264 85.640 -179.3456
138.777669 85.627 -179.5809
139.783309 85.613 -179.8157
140.796237 85.598 179.9507
141.816504 85.582 179.7194
142.844165 85.565 179.4911
143.879273 85.547 179.2665
144.921881 85.529 179.0461
145.972045 85.509 178.8300
147.029819 85.489 178.6177
148.095257 85.468 178.4091
149.168417 85.447 178.2040
150.249353 85.425 178.0023
151.338121 85.403 177.8036
152.434780 85.380 177.6079
153.539385 85.358 177.4149
154.651995 85.335 177.2238
155.772667 85.312 177.0341
156.901460 85.289 176.8450
158.038432 85.266 176.6554
159.183644 85.243 176.4647
160.337154 85.220 176.2725
161.499023 85.198 176.0788
162.669312 85.176 175.8838
163.848081 85.154 175.6884
165.035392 85.133 175.4932
166.231306 85.112 175.2990
167.435887 85.091 175.1061
168.649196 85.071 174.9141
169.871298 85.051 174.7227
171.102255 85.032 174.5317
172.342133 85.012 174.3412
173.590995 84.993 174.1520
174.848907 84.973 173.9652
176.115934 84.954 173.7819
177.392143 84.935 173.6029
178.677599 84.915 173.4285
179.972371 84.894 173.2585
181.276525 84.873 173.0923
182.590129 84.851 172.9289
183.913252 84.828 172.7675
185.245964 84.804 172.6073
186.588332 84.780 172.4480
187.940428 84.755 172.2890
189.302322 84.729 172.1300
190.674085 84.702 171.9706
192.055788 84.675 171.8105
193.447503 84.647 171.6494
194.849303 84.618 171.4874
196.261262 84.589 171.3251
197.683452 84.559 171.1631
199.115948 84.528 171.0027
200.558824 84.497 170.8454
202.012156 84.466 170.6929
203.476019 84.436 170.5466
204.950490 84.405 170.4073
206.435646 84.376 170.2748
207.931564 84.346 170.1484
209.438322 84.318 170.0266
210.955998 84.289 169.9081
212.484672 84.262 169.7919
214.024424 84.234 169.6774
215.575333 84.207 169.5642
217.137481 84.181 169.4524
218.710948 84.155 169.3420
220.295818 84.130 169.2331
221.892172 84.106 169.1257
223.500094 84.084 169.0197
225.119668 84.062 168.9149
226.750978 84.042 168.8107
228.394109 84.024 168.7067
230.049147 84.007 168.6027
231.716178 83.991 168.4982
233.395289 83.976 168.3932
235.086567 83.963 168.2877
236.790102 83.951 168.1819
238.505980 83.939 168.0760
240.234293 83.929 167.9708
241.975130 83.919 167.8668
243.728581 83.909 167.7644
245.494739 83.901 167.6640
247.273695 83.892 167.5654
249.065542 83.884 167.4683
250.870374 83.876 167.3717
252.688284 83.869 167.2753
254.519367 83.861 167.1784
256.363720 83.853 167.0811
258.221437 83.844 166.9839
260.092616 83.835 166.8870
261.977354 83.826 166.7910
263.875750 83.816 166.6962
265.787903 83.806 166.6025
267.713911 83.796 166.5098
269.653877 83.786 166.4184
271.607900 83.776 166.3286
273.576083 83.765 166.2412
275.558528 83.754 166.1572
277.555338 83.742 166.0775
279.566619 83.730 166.0025
281.592474 83.718 165.9320
283.633009 83.707 165.8654
285.688331 83.695 165.8021
287.758546 83.685 165.7415
289.843763 83.675 165.6836
291.944090 83.667 165.6287
294.059638 83.659 165.5771
296.190515 83.654 165.5292
298.336833 83.649 165.4848
300.498705 83.645 165.4433
302.676243 83.641 165.4038
304.869559 83.639 165.3652
307.078770 83.636 165.3266
309.303989 83.634 165.2873
311.545334 83.632 165.2470
313.802919 83.630 165.2057
316.076865 83.628 165.1639
318.367288 83.626 165.1220
320.674309 83.624 165.0808
322.998047 83.621 165.0413
325.338624 83.618 165.0042
327.696162 83.614 164.9704
330.070783 83.610 164.9404
332.462612 83.605 164.9142
334.871773 83.600 164.8916
337.298392 83.594 164.8718
339.742595 83.587 164.8536
342.204510 83.580 164.8361
344.684265 83.572 164.8185
347.181989 83.562 164.8007
349.697813 83.552 164.7826
352.231868 83.541 164.7642
354.784285 83.528 164.7456
357.355198 83.514 164.7269
359.944741 83.498 164.7081
362.553049 83.482 164.6894
365.180258 83.465 164.6712
367.826505 83.447 164.6537
370.491927 83.429 164.6373
373.176665 83.410 164.6223
375.880856 83.392 164.6088
378.604644 83.373 164.5968
381.348169 83.354 164.5866
384.111575 83.335 164.5784
386.895006 83.316 164.5721
389.698607 83.296 164.5681
392.522524 83.277 164.5659
395.366904 83.257 164.5657
398.231895 83.236 164.5672
401.117648 83.215 164.5701
404.024312 83.193 164.5741
406.952038 83.171 164.5790
409.900981 83.148 164.5847
412.871292 83.124 164.5908
415.863128 83.099 164.5973
418.876643 83.072 164.6041
421.911996 83.045 164.6110
424.969344 83.016 164.6180
428.048847 82.986 164.6254
431.150666 82.954 164.6331
434.274961 82.921 164.6411
437.421897 82.886 164.6492
440.591636 82.850 164.6572
443.784345 82.812 164.6652
447.000189 82.773 164.6733
450.239337 82.733 164.6821
453.501956 82.692 164.6922
456.788219 82.651 164.7040
460.098294 82.609 164.7179
463.432356 82.568 164.7339
466.790578 82.527 164.7523
470.173135 82.486 164.7726
473.580203 82.446 164.7949
477.011961 82.407 164.8190
480.468586 82.369 164.8446
483.950259 82.332 164.8717
487.457163 82.296 164.9000
490.989478 82.261 164.9294
494.547390 82.227 164.9600
498.131084 82.195 164.9919
501.740748 82.164 165.0258
505.376568 82.134 165.0620
509.038735 82.107 165.1011
512.727439 82.081 165.1430
516.442874 82.056 165.1876
520.185232 82.034 165.2338
523.954708 82.014 165.2805
527.751500 81.997 165.3264
531.575805 81.981 165.3704
535.427822 81.968 165.4116
539.307753 81.957 165.4493
543.215800 81.948 165.4836
547.152165 81.941 165.5147
551.117055 81.937 165.5429
555.110677 81.934 165.5686
559.133237 81.934 165.5920
563.184947 81.935 165.6133
567.266018 81.938 165.6328
571.376661 81.942 165.6507
575.517092 81.947 165.6674
579.687526 81.953 165.6833
583.888181 81.959 165.6986
588.119275 81.965 165.7134
592.381030 81.971 165.7281
596.673667 81.976 165.7433
600.997410 81.980 165.7596
605.352485 81.983 165.7778
609.739119 81.985 165.7990
614.157540 81.986 165.8241
618.607979 81.985 165.8542
623.090667 81.982 165.8901
627.605839 81.979 165.9325
632.153730 81.974 165.9818
636.734576 81.968 166.0374
641.348617 81.962 166.0984
645.996094 81.956 166.1633
650.677248 81.950 166.2300
655.392323 81.944 166.2961
660.141566 81.938 166.3593
664.925224 81.932 166.4174
669.743546 81.926 166.4684
674.596784 81.920 166.5110
679.485191 81.913 166.5441
684.409020 81.905 166.5674
689.368530 81.896 166.5811
694.363979 81.885 166.5856
699.395626 81.873 166.5819
704.463736 81.858 166.5714
709.568570 81.841 166.5556
714.710396 81.821 166.5367
719.889483 81.799 166.5170
725.106099 81.773 166.4989
730.360516 81.745 166.4849
735.653010 81.715 166.4769
740.983855 81.681 166.4767
746.353329 81.645 166.4858
751.761713 81.607 166.5053
757.209288 81.567 166.5355
762.696339 81.526 166.5767
768.223151 81.483 166.6283
773.790013 81.441 166.6895
779.397214 81.398 166.7590
785.045047 81.356 166.8352
790.733808 81.315 166.9158
796.463791 81.276 166.9980
802.235296 81.238 167.0786
808.048623 81.202 167.1541
813.904077 81.169 167.2211
819.801961 81.136 167.2770
825.742584 81.106 167.3195
831.726255 81.076 167.3471
837.753287 81.047 167.3596
843.823992 81.018 167.3576
849.938689 80.989 167.3429
856.097695 80.959 167.3179
862.301332 80.928 167.2859
868.549922 80.895 167.2511
874.843793 80.860 167.2176
881.183272 80.823 167.1901
887.568689 80.785 167.1731
894.000378 80.745 167.1710
900.478673 80.705 167.1878
907.003913 80.664 167.2271
913.576437 80.625 167.2917
920.196588 80.586 167.3834
926.864712 80.551 167.5023
933.581156 80.520 167.6461
940.346270 80.495 167.8104
947.160407 80.475 167.9884
954.023921 80.462 168.1718
960.937172 80.456 168.3519
967.900519 80.456 168.5208
974.914325 80.462 168.6719
981.978956 80.474 168.8004
989.094780 80.489 168.9037
996.262169 80.508 168.9814
1003.481495 80.529 169.0346
1010.753136 80.551 169.0660
1018.077470 80.574 169.0795
1025.454879 80.598 169.0791
1032.885748 80.622 169.0692
1040.370463 80.646 169.0532
1047.909417 80.670 169.0341
1055.503000 80.695 169.0133
1063.151610 80.720 168.9916
1070.855645 80.745 168.9689
1078.615506 80.770 168.9446
1086.431599 80.796 168.9178
1094.304330 80.822 168.8878
1102.234110 80.848 168.8540
1110.221353 80.873 168.8159
1118.266475 80.897 168.7734
1126.369895 80.920 168.7271
1134.532035 80.943 168.6775
1142.753322 80.964 168.6253
1151.034184 80.983 168.5714
1159.375052 81.001 168.5167
1167.776361 81.017 168.4627
1176.238550 81.031 168.4108
1184.762060 81.043 168.3625
1193.347334 81.054 168.3202
1201.994821 81.062 168.2862
1210.704971 81.069 168.2632
1219.478238 81.074 168.2541
1228.315080 81.077 168.2613
1237.215957 81.081 168.2863
1246.181334 81.084 168.3295
1255.211678 81.087 168.3905
1264.307459 81.092 168.4675
1273.469152 81.098 168.5587
1282.697235 81.105 168.6619
1291.992188 81.113 168.7752
1301.354495 81.124 168.8972
1310.784647 81.136 169.0263
1320.283132 81.149 169.1612
1329.850448 81.164 169.3003
1339.487093 81.181 169.4423
1349.193569 81.199 169.5853
1358.970381 81.218 169.7276
1368.818041 81.239 169.8678
1378.737061 81.261 170.0046
1388.727958 81.284 170.1377
1398.791253 81.307 170.2676
1408.927471 81.332 170.3956
1419.137140 81.358 170.5230
1429.420793 81.386 170.6508
1439.778965 81.415 170.7788
1450.212197 81.446 170.9064
1460.721033 81.478 171.0326
1471.306019 81.512 171.1564
1481.967709 81.547 171.2781
1492.706658 81.583 171.3985
1503.523426 81.619 171.5189
1514.418576 81.654 171.6407
1525.392678 81.689 171.7653
1536.446302 81.722 171.8937
1547.580025 81.753 172.0272
1558.794428 81.782 172.1669
1570.090095 81.807 172.3150
1581.467615 81.829 172.4741
1592.927581 81.848 172.6472
1604.470591 81.863 172.8372
1616.097246 81.876 173.0464
1627.808153 81.885 173.2762
1639.603922 81.892 173.5266
1651.485168 81.898 173.7961
1663.452510 81.903 174.0823
1675.506573 81.907 174.3817
1687.647984 81.911 174.6903
1699.877377 81.916 175.0039
1712.195390 81.921 175.3179
1724.602663 81.927 175.6277
1737.099845 81.932 175.9291
1749.687587 81.938 176.2188
1762.366544 81.942 176.4950
1775.137379 81.945 176.7588
1788.000756 81.945 177.0132
1800.957346 81.942 177.2629
1814.007826 81.937 177.5137
1827.152874 81.928 177.7716
1840.393177 81.916 178.0422
1853.729425 81.903 178.3298
1867.162312 81.887 178.6368
1880.692540 81.871 178.9634
1894.320813 81.855 179.3077
1908.047843 81.839 179.6658
1921.874344 81.824 -179.9670
1935.801038 81.809 -179.5959
1949.828650 81.796 -179.2262
1963.957912 81.784 -178.8628
1978.189561 81.772 -178.5106
1992.524338 81.761 -178.1745
2006.962991 81.749 -177.8581
2021.506272 81.737 -177.5635
2036.154940 81.723 -177.2907
2050.909758 81.707 -177.0381
2065.771495 81.689 -176.8026
2080.740927 81.669 -176.5807
2095.818833 81.646 -176.3684
2111.006001 81.620 -176.1616
2126.303220 81.593 -175.9557
2141.711290 81.564 -175.7460
2157.231013 81.533 -175.5283
2172.863198 81.503 -175.2997
2188.608660 81.474 -175.0591
2204.468221 81.446 -174.8072
2220.442706 81.421 -174.5464
2236.532950 81.400 -174.2807
2252.739789 81.383 -174.0147
2269.064070 81.370 -173.7544
2285.506644 81.363 -173.5057
2302.068367 81.359 -173.2746
2318.750104 81.360 -173.0655
2335.552723 81.364 -172.8814
2352.477101 81.370 -172.7232
2369.524119 81.378 -172.5902
2386.694668 81.388 -172.4801
2403.989641 81.398 -172.3891
2421.409941 81.409 -172.3121
2438.956476 81.421 -172.2442
2456.630160 81.434 -172.1810
2474.431915 81.448 -172.1204
2492.362668 81.465 -172.0620
2510.423356 81.485 -172.0072
2528.614918 81.508 -171.9577
2546.938304 81.534 -171.9148
2565.394469 81.562 -171.8785
2583.984375 81.593 -171.8480
2602.708991 81.626 -171.8212
2621.569293 81.661 -171.7951
2640.566265 81.699 -171.7665
2659.700897 81.738 -171.7325
2678.974186 81.781 -171.6912
2698.387137 81.827 -171.6424
2717.940763 81.876 -171.5868
2737.636082 81.929 -171.5261
2757.474121 81.986 -171.4625
2777.455915 82.047 -171.3984
2797.582506 82.112 -171.3360
2817.854942 82.181 -171.2778
2838.274281 82.253 -171.2265
2858.841586 82.328 -171.1850
2879.557931 82.405 -171.1566
2900.424394 82.484 -171.1446
2921.442065 82.563 -171.1516
2942.612039 82.642 -171.1791
2963.935418 82.718 -171.2268
2985.413316 82.792 -171.2923
3007.046852 82.862 -171.3722
3028.837153 82.928 -171.4618
3050.785356 82.989 -171.5570
3072.892604 83.044 -171.6544
3095.160050 83.095 -171.7527
3117.588856 83.141 -171.8516
3140.180190 83.181 -171.9523
3162.935230 83.215 -172.0565
3185.855163 83.244 -172.1662
3208.941182 83.266 -172.2831
3232.194493 83.281 -172.4080
3255.616307 83.289 -172.5403
3279.207844 83.288 -172.6779
3302.970336 83.278 -172.8174
3326.905021 83.259 -172.9541
3351.013146 83.232 -173.0831
3375.295969 83.196 -173.1998
3399.754755 83.153 -173.3004
