* Measurement data measured by REW V5.31.3
* Source: EXCL: Headset (USB-C to 3.5mm Headphone Jack Adapter), MICROPHONE (Master Volume), 0, volume: 0.750
* Format: 256k Log Swept Sine, 1 sweep at -12.0 dBFS with no timing reference
* Dated: Apr 1, 2025 10:20:20 PM
* REW Settings:
*  C-weighting compensation: Off
*  Target level: 75.0 dB
* Note: ; 
* Measurement: HD6XX (Soulwit) R6
* Smoothing: 1/6 octave
* Frequency Step: 96 ppo
* Start Frequency: 20.0 Hz
*
* Freq(Hz) SPL(dB) Phase(degrees)
20.033247 85.914 -95.7180
20.178416 85.985 -96.0537
20.324637 86.056 -96.3822
20.471918 86.129 -96.6964
20.620266 86.205 -96.9917
20.769689 86.285 -97.2662
20.920195 86.371 -97.5215
21.071791 86.465 -97.7619
21.224486 86.566 -97.9943
21.378287 86.675 -98.2268
21.533203 86.791 -98.4683
21.689242 86.913 -98.7267
21.846411 87.039 -99.0087
22.004719 87.167 -99.3190
22.164174 87.296 -99.6595
22.324785 87.422 -100.0304
22.486559 87.546 -100.4293
22.649506 87.665 -100.8527
22.813634 87.777 -101.2961
22.978951 87.883 -101.7550
23.145466 87.981 -102.2247
23.313188 88.071 -102.7015
23.482124 88.154 -103.1822
23.652286 88.228 -103.6643
23.823680 88.294 -104.1458
23.996316 88.353 -104.6249
24.170203 88.405 -105.1003
24.345351 88.450 -105.5699
24.521767 88.488 -106.0322
24.699462 88.520 -106.4850
24.878444 88.548 -106.9263
25.058724 88.571 -107.3544
25.240310 88.591 -107.7679
25.423211 88.608 -108.1663
25.607438 88.624 -108.5494
25.793000 88.640 -108.9178
25.979907 88.656 -109.2732
26.168168 88.674 -109.6172
26.357794 88.692 -109.9523
26.548793 88.713 -110.2807
26.741176 88.736 -110.6053
26.934954 88.762 -110.9286
27.130136 88.790 -111.2535
27.326732 88.821 -111.5825
27.524753 88.853 -111.9177
27.724208 88.888 -112.2611
27.925110 88.923 -112.6136
28.127466 88.960 -112.9753
28.331290 88.997 -113.3451
28.536590 89.033 -113.7206
28.743378 89.070 -114.0985
28.951664 89.105 -114.4750
29.161460 89.141 -114.8463
29.372776 89.176 -115.2089
29.585623 89.213 -115.5608
29.800013 89.252 -115.9013
30.015956 89.293 -116.2316
30.233464 89.338 -116.5543
30.452548 89.387 -116.8726
30.673220 89.440 -117.1904
30.895490 89.498 -117.5107
31.119372 89.559 -117.8356
31.344876 89.625 -118.1658
31.572014 89.695 -118.5008
31.800797 89.768 -118.8391
32.031239 89.845 -119.1791
32.263351 89.926 -119.5191
32.497144 90.011 -119.8582
32.732632 90.099 -120.1962
32.969826 90.192 -120.5334
33.208739 90.287 -120.8708
33.449383 90.385 -121.2094
33.691771 90.486 -121.5494
33.935916 90.588 -121.8915
34.181829 90.692 -122.2354
34.429525 90.796 -122.5807
34.679015 90.900 -122.9274
34.930314 91.004 -123.2751
35.183433 91.106 -123.6240
35.438387 91.208 -123.9740
35.695188 91.307 -124.3246
35.953850 91.404 -124.6754
36.214387 91.499 -125.0250
36.476811 91.591 -125.3723
36.741137 91.680 -125.7161
37.007378 91.767 -126.0558
37.275549 91.851 -126.3915
37.545663 91.933 -126.7241
37.817734 92.013 -127.0554
38.091777 92.090 -127.3871
38.367806 92.165 -127.7206
38.645835 92.237 -128.0566
38.925879 92.306 -128.3951
39.207952 92.373 -128.7349
39.492069 92.437 -129.0746
39.778244 92.499 -129.4127
40.066494 92.558 -129.7481
40.356832 92.616 -130.0809
40.649275 92.674 -130.4121
40.943836 92.730 -130.7434
41.240532 92.786 -131.0773
41.539378 92.842 -131.4158
41.840389 92.896 -131.7604
42.143582 92.950 -132.1115
42.448972 93.002 -132.4681
42.756574 93.053 -132.8284
43.066406 93.103 -133.1902
43.378483 93.151 -133.5518
43.692822 93.198 -133.9119
44.009438 93.244 -134.2710
44.328348 93.289 -134.6298
44.649570 93.333 -134.9897
44.973119 93.377 -135.3514
45.299013 93.418 -135.7151
45.627268 93.459 -136.0801
45.957902 93.498 -136.4453
46.290932 93.535 -136.8101
46.626375 93.571 -137.1741
46.964249 93.605 -137.5378
47.304571 93.638 -137.9017
47.647360 93.669 -138.2656
47.992632 93.699 -138.6288
48.340407 93.727 -138.9898
48.690701 93.753 -139.3473
49.043534 93.779 -139.7002
49.398924 93.804 -140.0486
49.756889 93.829 -140.3932
50.117447 93.853 -140.7354
50.480619 93.877 -141.0762
50.846423 93.900 -141.4164
51.214877 93.924 -141.7562
51.586001 93.947 -142.0956
51.959814 93.969 -142.4348
52.336336 93.991 -142.7739
52.715587 94.012 -143.1131
53.097586 94.032 -143.4521
53.482353 94.051 -143.7903
53.869908 94.070 -144.1269
54.260272 94.088 -144.4612
54.653464 94.105 -144.7928
55.049506 94.122 -145.1223
55.448417 94.138 -145.4503
55.850219 94.155 -145.7781
56.254933 94.173 -146.1066
56.662579 94.190 -146.4365
57.073180 94.209 -146.7680
57.486755 94.228 -147.1007
57.903328 94.249 -147.4337
58.322919 94.271 -147.7656
58.745551 94.294 -148.0955
59.171246 94.321 -148.4222
59.600025 94.350 -148.7462
60.031911 94.382 -149.0682
60.466927 94.419 -149.3898
60.905096 94.458 -149.7128
61.346439 94.501 -150.0381
61.790981 94.546 -150.3663
62.238744 94.594 -150.6970
62.689751 94.643 -151.0295
63.144027 94.694 -151.3627
63.601595 94.747 -151.6960
64.062478 94.800 -152.0287
64.526701 94.853 -152.3607
64.994288 94.907 -152.6921
65.465264 94.960 -153.0236
65.939652 95.014 -153.3563
66.417478 95.067 -153.6915
66.898766 95.119 -154.0305
67.383542 95.170 -154.3740
67.871831 95.220 -154.7227
68.363659 95.268 -155.0762
68.859050 95.315 -155.4340
69.358031 95.359 -155.7949
69.860628 95.401 -156.1581
70.366867 95.442 -156.5229
70.876774 95.480 -156.8885
71.390376 95.516 -157.2543
71.907700 95.550 -157.6199
72.428773 95.582 -157.9850
72.953622 95.612 -158.3494
73.482274 95.640 -158.7130
74.014757 95.665 -159.0760
74.551098 95.688 -159.4383
75.091326 95.708 -159.7998
75.635469 95.727 -160.1605
76.183555 95.742 -160.5200
76.735612 95.756 -160.8783
77.291670 95.767 -161.2351
77.851757 95.777 -161.5903
78.415903 95.785 -161.9437
78.984137 95.791 -162.2952
79.556489 95.796 -162.6451
80.132988 95.800 -162.9935
80.713665 95.803 -163.3406
81.298549 95.806 -163.6867
81.887672 95.807 -164.0319
82.481064 95.809 -164.3762
83.078756 95.810 -164.7201
83.680778 95.810 -165.0635
84.287164 95.810 -165.4066
84.897943 95.810 -165.7491
85.513149 95.809 -166.0912
86.132812 95.808 -166.4326
86.756966 95.806 -166.7730
87.385643 95.804 -167.1126
88.018875 95.801 -167.4514
88.656696 95.799 -167.7896
89.299139 95.796 -168.1271
89.946238 95.793 -168.4641
90.598025 95.789 -168.8005
91.254536 95.786 -169.1364
91.915804 95.783 -169.4715
92.581864 95.779 -169.8059
93.252750 95.775 -170.1393
93.928498 95.772 -170.4718
94.609143 95.768 -170.8033
95.294719 95.765 -171.1339
95.985264 95.762 -171.4636
96.680813 95.759 -171.7926
97.381402 95.756 -172.1208
98.087068 95.753 -172.4484
98.797847 95.751 -172.7753
99.513777 95.748 -173.1013
100.234895 95.746 -173.4265
100.961238 95.744 -173.7509
101.692845 95.743 -174.0746
102.429753 95.742 -174.3979
103.172002 95.741 -174.7210
103.919628 95.741 -175.0440
104.672673 95.742 -175.3669
105.431174 95.744 -175.6894
106.195172 95.747 -176.0112
106.964706 95.751 -176.3322
107.739816 95.756 -176.6522
108.520543 95.762 -176.9714
109.306928 95.769 -177.2900
110.099011 95.777 -177.6079
110.896834 95.785 -177.9251
111.700438 95.795 -178.2416
112.509866 95.805 -178.5571
113.325158 95.815 -178.8715
114.146359 95.825 -179.1848
114.973511 95.835 -179.4969
115.806656 95.845 -179.8080
116.645839 95.855 179.8818
117.491103 95.864 179.5724
118.342492 95.873 179.2638
119.200050 95.882 178.9558
120.063823 95.890 178.6485
120.933855 95.898 178.3420
121.810191 95.904 178.0366
122.692878 95.910 177.7325
123.581962 95.915 177.4301
124.477487 95.920 177.1296
125.379503 95.923 176.8312
126.288054 95.926 176.5345
127.203189 95.928 176.2395
128.124956 95.929 175.9459
129.053402 95.929 175.6533
129.988577 95.928 175.3618
130.930527 95.926 175.0714
131.879304 95.923 174.7820
132.834956 95.919 174.4941
133.797533 95.914 174.2077
134.767085 95.908 173.9231
135.743663 95.900 173.6403
136.727317 95.891 173.3591
137.718100 95.881 173.0795
138.716062 95.869 172.8012
139.721255 95.856 172.5242
140.733733 95.842 172.2482
141.753548 95.826 171.9727
142.780753 95.810 171.6978
143.815401 95.792 171.4235
144.857546 95.774 171.1500
145.907244 95.755 170.8778
146.964548 95.735 170.6073
148.029514 95.714 170.3389
149.102197 95.693 170.0724
150.182652 95.672 169.8080
151.270938 95.650 169.5452
152.367109 95.628 169.2839
153.471224 95.605 169.0240
154.583340 95.583 168.7654
155.703515 95.560 168.5080
156.831807 95.537 168.2516
157.968274 95.515 167.9963
159.112978 95.493 167.7420
160.265976 95.470 167.4888
161.427329 95.448 167.2369
162.597098 95.426 166.9868
163.775344 95.405 166.7388
164.962128 95.383 166.4934
166.157511 95.361 166.2511
167.361557 95.339 166.0120
168.574328 95.317 165.7762
169.795887 95.295 165.5432
171.026298 95.273 165.3124
172.265625 95.251 165.0831
173.513933 95.229 164.8548
174.771286 95.207 164.6270
176.037751 95.185 164.3995
177.313393 95.163 164.1725
178.598279 95.141 163.9463
179.892476 95.119 163.7213
181.196051 95.096 163.4983
182.509072 95.073 163.2779
183.831608 95.049 163.0607
185.163728 95.024 162.8470
186.505500 94.999 162.6375
187.856996 94.974 162.4320
189.218285 94.948 162.2306
190.589439 94.922 162.0330
191.970529 94.896 161.8385
193.361626 94.869 161.6462
194.762804 94.842 161.4551
196.174136 94.815 161.2638
197.595694 94.787 161.0715
199.027554 94.760 160.8774
200.469790 94.732 160.6810
201.922477 94.704 160.4825
203.385690 94.676 160.2822
204.859507 94.647 160.0807
206.344003 94.619 159.8788
207.839257 94.591 159.6774
209.345346 94.564 159.4768
210.862348 94.536 159.2778
212.390344 94.509 159.0809
213.929412 94.482 158.8868
215.479633 94.456 158.6962
217.041087 94.431 158.5098
218.613856 94.406 158.3280
220.198022 94.381 158.1511
221.793668 94.358 157.9794
223.400876 94.335 157.8127
225.019731 94.313 157.6512
226.650317 94.293 157.4948
228.292718 94.274 157.3430
229.947022 94.257 157.1954
231.613312 94.241 157.0515
233.291678 94.228 156.9101
234.982206 94.216 156.7701
236.684984 94.206 156.6303
238.400101 94.198 156.4891
240.127646 94.192 156.3452
241.867710 94.187 156.1977
243.620383 94.183 156.0463
245.385757 94.179 155.8915
247.163923 94.176 155.7344
248.954975 94.174 155.5760
250.759005 94.171 155.4179
252.576108 94.169 155.2612
254.406379 94.166 155.1067
256.249912 94.162 154.9547
258.106805 94.158 154.8051
259.977153 94.154 154.6573
261.861055 94.149 154.5101
263.758608 94.143 154.3625
265.669911 94.137 154.2130
267.595065 94.131 154.0608
269.534169 94.124 153.9050
271.487325 94.117 153.7455
273.454634 94.110 153.5829
275.436199 94.103 153.4178
277.432123 94.096 153.2514
279.442511 94.089 153.0848
281.467467 94.083 152.9191
283.507096 94.077 152.7551
285.561505 94.070 152.5936
287.630801 94.064 152.4354
289.715093 94.057 152.2811
291.814488 94.050 152.1308
293.929096 94.043 151.9848
296.059027 94.037 151.8430
298.204393 94.030 151.7050
300.365305 94.025 151.5704
302.541876 94.019 151.4391
304.734219 94.014 151.3107
306.942449 94.009 151.1852
309.166680 94.005 151.0624
311.407029 94.000 150.9423
313.663613 93.997 150.8247
315.936549 93.993 150.7095
318.225955 93.989 150.5966
320.531952 93.986 150.4855
322.854659 93.983 150.3765
325.194197 93.979 150.2697
327.550688 93.976 150.1652
329.924255 93.972 150.0632
332.315022 93.968 149.9642
334.723114 93.963 149.8680
337.148655 93.958 149.7745
339.591774 93.952 149.6835
342.052596 93.945 149.5940
344.531250 93.937 149.5053
347.027865 93.928 149.4166
349.542572 93.918 149.3270
352.075502 93.907 149.2365
354.626786 93.895 149.1450
357.196558 93.882 149.0527
359.784951 93.867 148.9604
362.392101 93.852 148.8684
365.018144 93.836 148.7773
367.663216 93.820 148.6873
370.327455 93.802 148.5986
373.011000 93.785 148.5111
375.713992 93.767 148.4248
378.436570 93.749 148.3394
381.178878 93.732 148.2545
383.941057 93.714 148.1700
386.723252 93.696 148.0855
389.525608 93.678 148.0009
392.348271 93.659 147.9161
395.191389 93.641 147.8313
398.055108 93.622 147.7466
400.939580 93.603 147.6625
403.844953 93.583 147.5792
406.771380 93.562 147.4972
409.719013 93.540 147.4167
412.688006 93.518 147.3378
415.678514 93.494 147.2604
418.690692 93.469 147.1847
421.724697 93.443 147.1104
424.780688 93.416 147.0374
427.858824 93.387 146.9653
430.959265 93.357 146.8939
434.082174 93.326 146.8228
437.227712 93.293 146.7519
440.396044 93.258 146.6811
443.587336 93.222 146.6108
446.801752 93.185 146.5413
450.039462 93.147 146.4730
453.300634 93.107 146.4061
456.585437 93.068 146.3409
459.894043 93.027 146.2776
463.226625 92.987 146.2165
466.583356 92.947 146.1580
469.964411 92.908 146.1024
473.369967 92.869 146.0502
476.800201 92.831 146.0015
480.255292 92.794 145.9559
483.735420 92.759 145.9129
487.240766 92.726 145.8717
490.771513 92.693 145.8311
494.327846 92.663 145.7900
497.909949 92.634 145.7479
501.518010 92.607 145.7041
505.152216 92.581 145.6584
508.812758 92.557 145.6106
512.499825 92.535 145.5607
516.213610 92.515 145.5082
519.954306 92.497 145.4531
523.722109 92.481 145.3952
527.517216 92.466 145.3347
531.339823 92.454 145.2721
535.190130 92.443 145.2079
539.068339 92.434 145.1426
542.974650 92.427 145.0765
546.909268 92.422 145.0099
550.872398 92.418 144.9427
554.864247 92.416 144.8749
558.885022 92.416 144.8065
562.934933 92.417 144.7373
567.014192 92.419 144.6674
571.123010 92.422 144.5970
575.261603 92.426 144.5263
579.430186 92.429 144.4561
583.628976 92.433 144.3872
587.858192 92.435 144.3211
592.118055 92.437 144.2593
596.408786 92.437 144.2036
600.730610 92.437 144.1553
605.083752 92.436 144.1159
609.468438 92.434 144.0858
613.884897 92.432 144.0648
618.333360 92.430 144.0525
622.814059 92.429 144.0473
627.327226 92.428 144.0474
631.873098 92.428 144.0502
636.451911 92.429 144.0527
641.063904 92.430 144.0519
645.709317 92.431 144.0452
650.388393 92.433 144.0303
655.101375 92.433 144.0060
659.848510 92.433 143.9717
664.630044 92.432 143.9272
669.446228 92.429 143.8729
674.297311 92.425 143.8090
679.183547 92.420 143.7365
684.105191 92.412 143.6561
689.062499 92.402 143.5694
694.055730 92.389 143.4782
699.085144 92.374 143.3847
704.151003 92.356 143.2914
709.253572 92.335 143.2009
714.393116 92.312 143.1162
719.569903 92.285 143.0398
724.784203 92.257 142.9742
730.036288 92.226 142.9214
735.326432 92.194 142.8826
740.654910 92.161 142.8580
746.022001 92.127 142.8470
751.427984 92.094 142.8479
756.873141 92.060 142.8582
762.357756 92.028 142.8745
767.882114 91.997 142.8931
773.446504 91.967 142.9100
779.051217 91.938 142.9213
784.696543 91.911 142.9236
790.382778 91.885 142.9146
796.110217 91.860 142.8921
801.879160 91.836 142.8545
807.689907 91.812 142.8005
813.542761 91.789 142.7291
819.438027 91.765 142.6400
825.376013 91.740 142.5337
831.357028 91.714 142.4121
837.381383 91.686 142.2782
843.449394 91.655 142.1361
849.561376 91.622 141.9907
855.717648 91.586 141.8475
861.918531 91.546 141.7131
868.164348 91.504 141.5941
874.455424 91.459 141.4977
880.792089 91.412 141.4305
887.174671 91.365 141.3984
893.603505 91.317 141.4052
900.078924 91.272 141.4526
906.601267 91.230 141.5391
913.170874 91.194 141.6597
919.788086 91.163 141.8070
926.453250 91.140 141.9711
933.166712 91.125 142.1416
939.928823 91.118 142.3085
946.739934 91.119 142.4628
953.600402 91.127 142.5978
960.510584 91.141 142.7085
967.470839 91.161 142.7921
974.481532 91.185 142.8472
981.543027 91.213 142.8739
988.655692 91.244 142.8734
995.819899 91.278 142.8475
1003.036020 91.313 142.7984
1010.304433 91.349 142.7289
1017.625515 91.387 142.6418
1024.999649 91.425 142.5402
1032.427219 91.463 142.4269
1039.908612 91.502 142.3043
1047.444219 91.541 142.1739
1055.034432 91.580 142.0369
1062.679646 91.620 141.8942
1070.380261 91.659 141.7461
1078.136677 91.698 141.5932
1085.949300 91.737 141.4357
1093.818536 91.776 141.2741
1101.744796 91.813 141.1086
1109.728493 91.850 140.9398
1117.770043 91.886 140.7678
1125.869866 91.921 140.5931
1134.028383 91.955 140.4160
1142.246020 91.987 140.2371
1150.523206 92.017 140.0569
1158.860371 92.046 139.8762
1167.257951 92.074 139.6960
1175.716383 92.100 139.5173
1184.236109 92.125 139.3411
1192.817572 92.148 139.1685
1201.461220 92.170 139.0002
1210.167503 92.191 138.8366
1218.936876 92.211 138.6777
1227.769795 92.231 138.5233
1236.666721 92.250 138.3728
1245.628118 92.269 138.2260
1254.654453 92.287 138.0819
1263.746196 92.305 137.9403
1272.903822 92.322 137.8006
1282.127808 92.339 137.6626
1291.418634 92.355 137.5266
1300.776786 92.370 137.3930
1310.202751 92.383 137.2629
1319.697020 92.396 137.1372
1329.260089 92.407 137.0171
1338.892455 92.418 136.9037
1348.594622 92.427 136.7983
1358.367094 92.435 136.7020
1368.210382 92.443 136.6154
1378.124999 92.451 136.5389
1388.111461 92.459 136.4722
1398.170288 92.467 136.4154
1408.302007 92.476 136.3683
1418.507144 92.486 136.3314
1428.786231 92.496 136.3049
1439.139805 92.508 136.2896
1449.568405 92.521 136.2863
1460.072576 92.535 136.2956
1470.652863 92.551 136.3182
1481.309820 92.568 136.3544
1492.044002 92.587 136.4037
1502.855968 92.608 136.4653
1513.746282 92.630 136.5377
1524.715511 92.652 136.6193
1535.764228 92.675 136.7086
1546.893009 92.697 136.8046
1558.102433 92.718 136.9075
1569.393086 92.737 137.0182
1580.765555 92.754 137.1384
1592.220434 92.768 137.2703
1603.758320 92.780 137.4158
1615.379813 92.788 137.5766
1627.085521 92.795 137.7534
1638.876054 92.799 137.9455
1650.752025 92.802 138.1511
1662.714055 92.803 138.3673
1674.762766 92.803 138.5905
1686.898788 92.802 138.8174
1699.122752 92.799 139.0457
1711.435296 92.795 139.2748
1723.837061 92.789 139.5064
1736.328695 92.780 139.7438
1748.910849 92.769 139.9912
1761.584178 92.757 140.2524
1774.349343 92.744 140.5298
1787.207010 92.731 140.8240
1800.157848 92.719 141.1329
1813.202534 92.708 141.4531
1826.341747 92.698 141.7796
1839.576172 92.690 142.1072
1852.906500 92.683 142.4310
1866.333424 92.677 142.7468
1879.857645 92.671 143.0513
1893.479869 92.664 143.3420
1907.200804 92.655 143.6181
1921.021168 92.645 143.8801
1934.941679 92.630 144.1306
1948.963064 92.612 144.3735
1963.086054 92.590 144.6145
1977.311384 92.563 144.8598
1991.639798 92.531 145.1157
2006.072041 92.496 145.3877
2020.608866 92.458 145.6793
2035.251031 92.418 145.9921
2049.999299 92.378 146.3255
2064.854438 92.338 146.6770
2079.817225 92.298 147.0427
2094.888438 92.261 147.4181
2110.068863 92.226 147.7985
2125.359292 92.193 148.1796
2140.760521 92.163 148.5582
2156.273355 92.136 148.9321
2171.898600 92.110 149.3004
2187.637073 92.087 149.6637
2203.489593 92.066 150.0231
2219.456987 92.046 150.3801
2235.540087 92.029 150.7364
2251.739732 92.015 151.0931
2268.056766 92.003 151.4509
2284.492041 91.994 151.8103
2301.046412 91.988 152.1713
2317.720742 91.986 152.5339
2334.515902 91.989 152.8977
2351.432767 91.996 153.2617
2368.472218 92.008 153.6245
2385.635144 92.025 153.9834
2402.922440 92.049 154.3354
2420.335006 92.079 154.6768
2437.873752 92.116 155.0035
2455.539590 92.159 155.3118
2473.333442 92.208 155.5977
2491.256235 92.263 155.8582
2509.308905 92.324 156.0905
2527.492392 92.389 156.2936
2545.807644 92.458 156.4674
2564.255615 92.531 156.6136
2582.837268 92.607 156.7350
2601.553572 92.685 156.8348
2620.405502 92.766 156.9162
2639.394040 92.849 156.9821
2658.520177 92.935 157.0347
2677.784910 93.023 157.0753
2697.189244 93.114 157.1042
2716.734189 93.208 157.1212
2736.420765 93.303 157.1251
2756.249998 93.401 157.1149
2776.222921 93.501 157.0895
2796.340577 93.602 157.0484
2816.604013 93.704 156.9914
2837.014287 93.806 156.9183
2857.572462 93.908 156.8292
2878.279610 94.008 156.7245
2899.136811 94.107 156.6053
2920.145151 94.204 156.4732
2941.305727 94.298 156.3301
2962.619641 94.389 156.1780
2984.088004 94.476 156.0190
3005.711935 94.559 155.8546
3027.492563 94.637 155.6866
3049.431022 94.710 155.5165
3071.528457 94.777 155.3458
3093.786018 94.838 155.1765
3116.204867 94.893 155.0098
3138.786172 94.942 154.8474
3161.531110 94.984 154.6899
3184.440868 95.019 154.5377
3207.516639 95.048 154.3905
3230.759627 95.069 154.2475
3254.171043 95.083 154.1080
3277.752108 95.091 153.9717
3301.504051 95.090 153.8387
3325.428110 95.082 153.7096
3349.525533 95.067 153.5856
3373.797576 95.044 153.4681
3398.245504 95.015 153.3585
3422.870591 94.979 153.2581
3447.674123 94.937 153.1683
3472.657391 94.890 153.0902
