* Measurement data measured by REW V5.31.3
* Source: EXCL: Headset (USB-C to 3.5mm Headphone Jack Adapter), MICROPHONE (Master Volume), 0, volume: 0.750
* Format: 256k Log Swept Sine, 1 sweep at -12.0 dBFS with no timing reference
* Dated: Apr 1, 2025 10:10:22 PM
* REW Settings:
*  C-weighting compensation: Off
*  Target level: 75.0 dB
* Note: ; 
* Measurement: HD6XX L1
* Smoothing: 1/6 octave
* Frequency Step: 96 ppo
* Start Frequency: 20.0 Hz
*
* Freq(Hz) SPL(dB) Phase(degrees)
20.033247 84.199 -91.6307
20.178416 84.287 -92.0226
20.324637 84.375 -92.4089
20.471918 84.465 -92.7889
20.620266 84.555 -93.1619
20.769689 84.646 -93.5269
20.920195 84.738 -93.8829
21.071791 84.832 -94.2287
21.224486 84.926 -94.5627
21.378287 85.020 -94.8832
21.533203 85.115 -95.1885
21.689242 85.211 -95.4773
21.846411 85.306 -95.7488
22.004719 85.402 -96.0026
22.164174 85.496 -96.2394
22.324785 85.590 -96.4604
22.486559 85.683 -96.6677
22.649506 85.774 -96.8636
22.813634 85.863 -97.0509
22.978951 85.948 -97.2324
23.145466 86.030 -97.4105
23.313188 86.108 -97.5872
23.482124 86.182 -97.7642
23.652286 86.251 -97.9426
23.823680 86.316 -98.1232
23.996316 86.376 -98.3069
24.170203 86.433 -98.4950
24.345351 86.487 -98.6892
24.521767 86.539 -98.8921
24.699462 86.589 -99.1073
24.878444 86.639 -99.3391
25.058724 86.688 -99.5923
25.240310 86.738 -99.8718
25.423211 86.787 -100.1821
25.607438 86.836 -100.5264
25.793000 86.884 -100.9060
25.979907 86.931 -101.3204
26.168168 86.974 -101.7662
26.357794 87.014 -102.2379
26.548793 87.050 -102.7281
26.741176 87.082 -103.2275
26.934954 87.110 -103.7263
27.130136 87.134 -104.2152
27.326732 87.155 -104.6857
27.524753 87.175 -105.1314
27.724208 87.195 -105.5486
27.925110 87.216 -105.9364
28.127466 87.239 -106.2967
28.331290 87.266 -106.6336
28.536590 87.297 -106.9529
28.743378 87.332 -107.2606
28.951664 87.372 -107.5628
29.161460 87.415 -107.8640
29.372776 87.460 -108.1675
29.585623 87.509 -108.4745
29.800013 87.559 -108.7854
30.015956 87.610 -109.0990
30.233464 87.663 -109.4142
30.452548 87.717 -109.7295
30.673220 87.773 -110.0440
30.895490 87.831 -110.3571
31.119372 87.891 -110.6683
31.344876 87.953 -110.9774
31.572014 88.017 -111.2837
31.800797 88.084 -111.5865
32.031239 88.154 -111.8850
32.263351 88.228 -112.1785
32.497144 88.305 -112.4669
32.732632 88.385 -112.7509
32.969826 88.470 -113.0326
33.208739 88.559 -113.3151
33.449383 88.652 -113.6021
33.691771 88.749 -113.8979
33.935916 88.849 -114.2063
34.181829 88.951 -114.5299
34.429525 89.054 -114.8702
34.679015 89.158 -115.2272
34.930314 89.261 -115.5992
35.183433 89.363 -115.9841
35.438387 89.465 -116.3794
35.695188 89.565 -116.7825
35.953850 89.663 -117.1915
36.214387 89.760 -117.6056
36.476811 89.856 -118.0240
36.741137 89.950 -118.4471
37.007378 90.042 -118.8749
37.275549 90.132 -119.3072
37.545663 90.219 -119.7432
37.817734 90.303 -120.1811
38.091777 90.384 -120.6184
38.367806 90.462 -121.0516
38.645835 90.536 -121.4767
38.925879 90.606 -121.8898
39.207952 90.674 -122.2873
39.492069 90.740 -122.6669
39.778244 90.804 -123.0275
40.066494 90.867 -123.3695
40.356832 90.931 -123.6949
40.649275 90.994 -124.0067
40.943836 91.059 -124.3080
41.240532 91.124 -124.6019
41.539378 91.189 -124.8910
41.840389 91.255 -125.1771
42.143582 91.322 -125.4613
42.448972 91.389 -125.7449
42.756574 91.456 -126.0292
43.066406 91.524 -126.3159
43.378483 91.592 -126.6068
43.692822 91.659 -126.9042
44.009438 91.727 -127.2098
44.328348 91.793 -127.5245
44.649570 91.857 -127.8484
44.973119 91.919 -128.1805
45.299013 91.977 -128.5186
45.627268 92.033 -128.8600
45.957902 92.084 -129.2019
46.290932 92.132 -129.5416
46.626375 92.177 -129.8775
46.964249 92.218 -130.2089
47.304571 92.255 -130.5364
47.647360 92.289 -130.8612
47.992632 92.319 -131.1843
48.340407 92.346 -131.5060
48.690701 92.369 -131.8257
49.043534 92.387 -132.1417
49.398924 92.402 -132.4518
49.756889 92.414 -132.7539
50.117447 92.422 -133.0470
50.480619 92.429 -133.3309
50.846423 92.435 -133.6068
51.214877 92.441 -133.8767
51.586001 92.447 -134.1431
51.959814 92.454 -134.4089
52.336336 92.463 -134.6766
52.715587 92.473 -134.9481
53.097586 92.484 -135.2245
53.482353 92.497 -135.5063
53.869908 92.512 -135.7929
54.260272 92.528 -136.0830
54.653464 92.546 -136.3751
55.049506 92.565 -136.6671
55.448417 92.585 -136.9573
55.850219 92.608 -137.2441
56.254933 92.632 -137.5264
56.662579 92.658 -137.8041
57.073180 92.686 -138.0774
57.486755 92.716 -138.3481
57.903328 92.748 -138.6182
58.322919 92.782 -138.8906
58.745551 92.818 -139.1677
59.171246 92.855 -139.4509
59.600025 92.893 -139.7401
60.031911 92.931 -140.0339
60.466927 92.970 -140.3304
60.905096 93.010 -140.6276
61.346439 93.051 -140.9244
61.790981 93.093 -141.2206
62.238744 93.138 -141.5166
62.689751 93.184 -141.8130
63.144027 93.232 -142.1107
63.601595 93.283 -142.4099
64.062478 93.335 -142.7108
64.526701 93.389 -143.0137
64.994288 93.445 -143.3187
65.465264 93.501 -143.6257
65.939652 93.559 -143.9350
66.417478 93.617 -144.2468
66.898766 93.675 -144.5614
67.383542 93.733 -144.8790
67.871831 93.790 -145.2001
68.363659 93.846 -145.5244
68.859050 93.900 -145.8516
69.358031 93.952 -146.1813
69.860628 94.003 -146.5131
70.366867 94.050 -146.8466
70.876774 94.096 -147.1813
71.390376 94.139 -147.5172
71.907700 94.179 -147.8537
72.428773 94.217 -148.1906
72.953622 94.253 -148.5272
73.482274 94.285 -148.8632
74.014757 94.316 -149.1981
74.551098 94.344 -149.5317
75.091326 94.369 -149.8643
75.635469 94.393 -150.1959
76.183555 94.414 -150.5273
76.735612 94.433 -150.8588
77.291670 94.451 -151.1912
77.851757 94.467 -151.5248
78.415903 94.481 -151.8604
78.984137 94.494 -152.1978
79.556489 94.505 -152.5375
80.132988 94.515 -152.8790
80.713665 94.524 -153.2219
81.298549 94.532 -153.5656
81.887672 94.538 -153.9095
82.481064 94.544 -154.2531
83.078756 94.550 -154.5961
83.680778 94.554 -154.9381
84.287164 94.558 -155.2791
84.897943 94.562 -155.6187
85.513149 94.565 -155.9569
86.132812 94.567 -156.2935
86.756966 94.569 -156.6285
87.385643 94.570 -156.9618
88.018875 94.571 -157.2934
88.656696 94.572 -157.6230
89.299139 94.572 -157.9506
89.946238 94.572 -158.2758
90.598025 94.572 -158.5991
91.254536 94.571 -158.9207
91.915804 94.571 -159.2410
92.581864 94.570 -159.5607
93.252750 94.569 -159.8799
93.928498 94.568 -160.1987
94.609143 94.567 -160.5175
95.294719 94.566 -160.8361
95.985264 94.564 -161.1547
96.680813 94.562 -161.4734
97.381402 94.561 -161.7918
98.087068 94.560 -162.1096
98.797847 94.559 -162.4262
99.513777 94.558 -162.7407
100.234895 94.558 -163.0520
100.961238 94.559 -163.3594
101.692845 94.560 -163.6621
102.429753 94.562 -163.9601
103.172002 94.565 -164.2537
103.919628 94.568 -164.5435
104.672673 94.572 -164.8307
105.431174 94.576 -165.1164
106.195172 94.581 -165.4017
106.964706 94.587 -165.6875
107.739816 94.593 -165.9745
108.520543 94.599 -166.2628
109.306928 94.606 -166.5524
110.099011 94.613 -166.8429
110.896834 94.622 -167.1334
111.700438 94.631 -167.4230
112.509866 94.640 -167.7104
113.325158 94.650 -167.9948
114.146359 94.661 -168.2753
114.973511 94.671 -168.5517
115.806656 94.682 -168.8241
116.645839 94.692 -169.0929
117.491103 94.702 -169.3589
118.342492 94.711 -169.6227
119.200050 94.720 -169.8853
120.063823 94.727 -170.1470
120.933855 94.735 -170.4084
121.810191 94.741 -170.6699
122.692878 94.747 -170.9313
123.581962 94.753 -171.1924
124.477487 94.758 -171.4530
125.379503 94.762 -171.7126
126.288054 94.766 -171.9709
127.203189 94.769 -172.2277
128.124956 94.772 -172.4831
129.053402 94.773 -172.7374
129.988577 94.774 -172.9908
130.930527 94.773 -173.2437
131.879304 94.772 -173.4957
132.834956 94.769 -173.7468
133.797533 94.765 -173.9963
134.767085 94.760 -174.2438
135.743663 94.753 -174.4888
136.727317 94.745 -174.7311
137.718100 94.737 -174.9707
138.716062 94.727 -175.2081
139.721255 94.716 -175.4435
140.733733 94.704 -175.6772
141.753548 94.691 -175.9095
142.780753 94.677 -176.1404
143.815401 94.662 -176.3698
144.857546 94.646 -176.5975
145.907244 94.629 -176.8234
146.964548 94.610 -177.0476
148.029514 94.591 -177.2702
149.102197 94.570 -177.4915
150.182652 94.549 -177.7117
151.270938 94.527 -177.9308
152.367109 94.505 -178.1489
153.471224 94.483 -178.3656
154.583340 94.461 -178.5807
155.703515 94.439 -178.7942
156.831807 94.416 -179.0062
157.968274 94.394 -179.2167
159.112978 94.372 -179.4259
160.265976 94.350 -179.6337
161.427329 94.328 -179.8400
162.597098 94.306 179.9558
163.775344 94.285 179.7541
164.962128 94.264 179.5551
166.157511 94.243 179.3589
167.361557 94.223 179.1652
168.574328 94.202 178.9733
169.795887 94.182 178.7830
171.026298 94.162 178.5938
172.265625 94.143 178.4057
173.513933 94.123 178.2190
174.771286 94.104 178.0339
176.037751 94.084 177.8506
177.313393 94.065 177.6689
178.598279 94.045 177.4886
179.892476 94.024 177.3093
181.196051 94.003 177.1306
182.509072 93.982 176.9525
183.831608 93.960 176.7752
185.163728 93.938 176.5993
186.505500 93.916 176.4252
187.856996 93.893 176.2531
189.218285 93.870 176.0834
190.589439 93.847 175.9164
191.970529 93.824 175.7526
193.361626 93.800 175.5923
194.762804 93.776 175.4360
196.174136 93.751 175.2837
197.595694 93.726 175.1356
199.027554 93.700 174.9913
200.469790 93.674 174.8508
201.922477 93.648 174.7136
203.385690 93.621 174.5793
204.859507 93.594 174.4478
206.344003 93.567 174.3186
207.839257 93.540 174.1910
209.345346 93.512 174.0643
210.862348 93.485 173.9377
212.390344 93.457 173.8108
213.929412 93.429 173.6836
215.479633 93.402 173.5566
217.041087 93.375 173.4304
218.613856 93.349 173.3057
220.198022 93.324 173.1831
221.793668 93.300 173.0629
223.400876 93.278 172.9453
225.019731 93.257 172.8307
226.650317 93.238 172.7191
228.292718 93.220 172.6103
229.947022 93.204 172.5039
231.613312 93.189 172.3995
233.291678 93.176 172.2966
234.982206 93.164 172.1948
236.684984 93.153 172.0936
238.400101 93.142 171.9928
240.127646 93.133 171.8926
241.867710 93.124 171.7933
243.620383 93.116 171.6953
245.385757 93.108 171.5986
247.163923 93.101 171.5035
248.954975 93.095 171.4095
250.759005 93.088 171.3165
252.576108 93.082 171.2238
254.406379 93.075 171.1312
256.249912 93.068 171.0387
258.106805 93.061 170.9464
259.977153 93.053 170.8546
261.861055 93.044 170.7637
263.758608 93.036 170.6744
265.669911 93.027 170.5870
267.595065 93.018 170.5016
269.534169 93.009 170.4183
271.487325 92.999 170.3372
273.454634 92.989 170.2584
275.436199 92.979 170.1824
277.432123 92.969 170.1094
279.442511 92.959 170.0394
281.467467 92.949 169.9723
283.507096 92.939 169.9078
285.561505 92.930 169.8457
287.630801 92.921 169.7859
289.715093 92.912 169.7280
291.814488 92.904 169.6718
293.929096 92.897 169.6166
296.059027 92.890 169.5621
298.204393 92.883 169.5083
300.365305 92.878 169.4551
302.541876 92.872 169.4031
304.734219 92.868 169.3528
306.942449 92.863 169.3051
309.166680 92.859 169.2604
311.407029 92.856 169.2191
313.663613 92.853 169.1813
315.936549 92.850 169.1469
318.225955 92.847 169.1161
320.531952 92.844 169.0890
322.854659 92.841 169.0660
325.194197 92.838 169.0475
327.550688 92.834 169.0331
329.924255 92.831 169.0225
332.315022 92.827 169.0150
334.723114 92.822 169.0102
337.148655 92.817 169.0079
339.591774 92.810 169.0079
342.052596 92.803 169.0099
344.531250 92.795 169.0137
347.027865 92.785 169.0187
349.542572 92.775 169.0244
352.075502 92.763 169.0305
354.626786 92.751 169.0364
357.196558 92.737 169.0419
359.784951 92.722 169.0468
362.392101 92.706 169.0514
365.018144 92.689 169.0560
367.663216 92.671 169.0615
370.327455 92.653 169.0684
373.011000 92.634 169.0771
375.713992 92.615 169.0878
378.436570 92.596 169.1005
381.178878 92.577 169.1146
383.941057 92.557 169.1298
386.723252 92.538 169.1454
389.525608 92.519 169.1609
392.348271 92.499 169.1761
395.191389 92.480 169.1907
398.055108 92.461 169.2047
400.939580 92.441 169.2184
403.844953 92.421 169.2319
406.771380 92.401 169.2460
409.719013 92.381 169.2611
412.688006 92.360 169.2782
415.678514 92.338 169.2980
418.690692 92.314 169.3208
421.724697 92.290 169.3470
424.780688 92.264 169.3765
427.858824 92.237 169.4092
430.959265 92.208 169.4448
434.082174 92.177 169.4830
437.227712 92.146 169.5228
440.396044 92.112 169.5637
443.587336 92.078 169.6049
446.801752 92.043 169.6457
450.039462 92.006 169.6860
453.300634 91.968 169.7258
456.585437 91.930 169.7657
459.894043 91.891 169.8062
463.226625 91.852 169.8477
466.583356 91.812 169.8905
469.964411 91.774 169.9350
473.369967 91.735 169.9810
476.800201 91.698 170.0284
480.255292 91.661 170.0769
483.735420 91.626 170.1259
487.240766 91.592 170.1753
490.771513 91.559 170.2249
494.327846 91.528 170.2750
497.909949 91.498 170.3260
501.518010 91.470 170.3784
505.152216 91.443 170.4323
508.812758 91.418 170.4879
512.499825 91.395 170.5454
516.213610 91.373 170.6047
519.954306 91.353 170.6657
523.722109 91.335 170.7281
527.517216 91.319 170.7917
531.339823 91.305 170.8562
535.190130 91.293 170.9214
539.068339 91.283 170.9872
542.974650 91.274 171.0535
546.909268 91.268 171.1202
550.872398 91.263 171.1872
554.864247 91.260 171.2546
558.885022 91.259 171.3226
562.934933 91.260 171.3912
567.014192 91.262 171.4602
571.123010 91.265 171.5297
575.261603 91.270 171.5994
579.430186 91.276 171.6691
583.628976 91.282 171.7390
587.858192 91.288 171.8093
592.118055 91.295 171.8807
596.408786 91.301 171.9539
600.730610 91.306 172.0294
605.083752 91.311 172.1078
609.468438 91.315 172.1892
613.884897 91.318 172.2735
618.333360 91.321 172.3602
622.814059 91.323 172.4489
627.327226 91.324 172.5387
631.873098 91.325 172.6288
636.451911 91.325 172.7183
641.063904 91.325 172.8060
645.709317 91.324 172.8909
650.388393 91.322 172.9720
655.101375 91.319 173.0486
659.848510 91.314 173.1207
664.630044 91.308 173.1886
669.446228 91.300 173.2535
674.297311 91.290 173.3171
679.183547 91.278 173.3816
684.105191 91.264 173.4492
689.062499 91.248 173.5225
694.055730 91.231 173.6034
699.085144 91.212 173.6935
704.151003 91.192 173.7933
709.253572 91.171 173.9022
714.393116 91.150 174.0184
719.569903 91.130 174.1393
724.784203 91.109 174.2611
730.036288 91.089 174.3800
735.326432 91.069 174.4920
740.654910 91.050 174.5938
746.022001 91.029 174.6829
751.427984 91.007 174.7582
756.873141 90.983 174.8201
762.357756 90.957 174.8704
767.882114 90.928 174.9120
773.446504 90.896 174.9494
779.051217 90.861 174.9872
784.696543 90.822 175.0307
790.382778 90.780 175.0850
796.110217 90.736 175.1548
801.879160 90.690 175.2440
807.689907 90.643 175.3550
813.542761 90.596 175.4887
819.438027 90.551 175.6442
825.376013 90.508 175.8184
831.357028 90.468 176.0068
837.381383 90.431 176.2032
843.449394 90.398 176.4013
849.561376 90.370 176.5948
855.717648 90.344 176.7785
861.918531 90.321 176.9491
868.164348 90.300 177.1050
874.455424 90.280 177.2463
880.792089 90.261 177.3751
887.174671 90.241 177.4943
893.603505 90.221 177.6079
900.078924 90.200 177.7208
906.601267 90.177 177.8383
913.170874 90.154 177.9659
919.788086 90.130 178.1094
926.453250 90.106 178.2739
933.166712 90.083 178.4640
939.928823 90.062 178.6828
946.739934 90.044 178.9316
953.600402 90.031 179.2092
960.510584 90.024 179.5119
967.470839 90.024 179.8336
974.481532 90.031 -179.8335
981.543027 90.047 -179.4978
988.655692 90.070 -179.1680
995.819899 90.102 -178.8518
1003.036020 90.140 -178.5557
1010.304433 90.184 -178.2845
1017.625515 90.234 -178.0408
1024.999649 90.287 -177.8256
1032.427219 90.344 -177.6382
1039.908612 90.403 -177.4769
1047.444219 90.464 -177.3397
1055.034432 90.526 -177.2244
1062.679646 90.589 -177.1289
1070.380261 90.653 -177.0518
1078.136677 90.717 -176.9916
1085.949300 90.780 -176.9471
1093.818536 90.843 -176.9171
1101.744796 90.905 -176.9000
1109.728493 90.965 -176.8939
1117.770043 91.024 -176.8966
1125.869866 91.080 -176.9060
1134.028383 91.136 -176.9199
1142.246020 91.189 -176.9370
1150.523206 91.241 -176.9561
1158.860371 91.292 -176.9771
1167.257951 91.341 -177.0002
1175.716383 91.389 -177.0260
1184.236109 91.436 -177.0547
1192.817572 91.481 -177.0861
1201.461220 91.524 -177.1191
1210.167503 91.566 -177.1517
1218.936876 91.607 -177.1813
1227.769795 91.646 -177.2054
1236.666721 91.684 -177.2223
1245.628118 91.722 -177.2311
1254.654453 91.759 -177.2321
1263.746196 91.797 -177.2262
1272.903822 91.835 -177.2149
1282.127808 91.873 -177.1996
1291.418634 91.911 -177.1810
1300.776786 91.950 -177.1599
1310.202751 91.988 -177.1366
1319.697020 92.027 -177.1113
1329.260089 92.065 -177.0845
1338.892455 92.104 -177.0562
1348.594622 92.142 -177.0265
1358.367094 92.181 -176.9956
1368.210382 92.219 -176.9633
1378.124999 92.258 -176.9292
1388.111461 92.297 -176.8933
1398.170288 92.337 -176.8556
1408.302007 92.378 -176.8166
1418.507144 92.419 -176.7765
1428.786231 92.461 -176.7351
1439.139805 92.504 -176.6914
1449.568405 92.548 -176.6440
1460.072576 92.592 -176.5909
1470.652863 92.637 -176.5306
1481.309820 92.684 -176.4617
1492.044002 92.731 -176.3834
1502.855968 92.778 -176.2960
1513.746282 92.827 -176.2004
1524.715511 92.877 -176.0986
1535.764228 92.926 -175.9930
1546.893009 92.975 -175.8856
1558.102433 93.023 -175.7774
1569.393086 93.069 -175.6685
1580.765555 93.113 -175.5580
1592.220434 93.154 -175.4455
1603.758320 93.192 -175.3300
1615.379813 93.227 -175.2109
1627.085521 93.258 -175.0878
1638.876054 93.286 -174.9605
1650.752025 93.311 -174.8289
1662.714055 93.331 -174.6928
1674.762766 93.349 -174.5515
1686.898788 93.363 -174.4037
1699.122752 93.373 -174.2475
1711.435296 93.381 -174.0803
1723.837061 93.385 -173.8994
1736.328695 93.388 -173.7024
1748.910849 93.389 -173.4883
1761.584178 93.389 -173.2572
1774.349343 93.390 -173.0106
1787.207010 93.391 -172.7513
1800.157848 93.392 -172.4829
1813.202534 93.395 -172.2094
1826.341747 93.399 -171.9348
1839.576172 93.404 -171.6630
1852.906500 93.408 -171.3970
1866.333424 93.413 -171.1388
1879.857645 93.416 -170.8888
1893.479869 93.417 -170.6464
1907.200804 93.417 -170.4098
1921.021168 93.414 -170.1772
1934.941679 93.408 -169.9461
1948.963064 93.400 -169.7142
1963.086054 93.389 -169.4789
1977.311384 93.375 -169.2380
1991.639798 93.360 -168.9901
2006.072041 93.343 -168.7349
2020.608866 93.325 -168.4739
2035.251031 93.307 -168.2100
2049.999299 93.290 -167.9466
2064.854438 93.273 -167.6875
2079.817225 93.257 -167.4360
2094.888438 93.242 -167.1953
2110.068863 93.227 -166.9677
2125.359292 93.214 -166.7552
2140.760521 93.200 -166.5587
2156.273355 93.187 -166.3779
2171.898600 93.174 -166.2113
2187.637073 93.160 -166.0569
2203.489593 93.147 -165.9124
2219.456987 93.133 -165.7759
2235.540087 93.119 -165.6454
2251.739732 93.106 -165.5195
2268.056766 93.092 -165.3965
2284.492041 93.079 -165.2750
2301.046412 93.066 -165.1533
2317.720742 93.054 -165.0297
2334.515902 93.042 -164.9023
2351.432767 93.033 -164.7700
2368.472218 93.024 -164.6318
2385.635144 93.019 -164.4876
2402.922440 93.016 -164.3372
2420.335006 93.016 -164.1808
2437.873752 93.020 -164.0188
2455.539590 93.028 -163.8527
2473.333442 93.041 -163.6846
2491.256235 93.059 -163.5173
2509.308905 93.082 -163.3535
2527.492392 93.109 -163.1947
2545.807644 93.142 -163.0416
2564.255615 93.179 -162.8936
2582.837268 93.220 -162.7499
2601.553572 93.266 -162.6091
2620.405502 93.316 -162.4704
2639.394040 93.371 -162.3328
2658.520177 93.431 -162.1962
2677.784910 93.495 -162.0608
2697.189244 93.564 -161.9274
2716.734189 93.639 -161.7971
2736.420765 93.718 -161.6714
2756.249998 93.801 -161.5521
2776.222921 93.890 -161.4411
2796.340577 93.982 -161.3413
2816.604013 94.079 -161.2556
2837.014287 94.179 -161.1866
2857.572462 94.281 -161.1362
2878.279610 94.385 -161.1055
2899.136811 94.490 -161.0943
2920.145151 94.595 -161.1024
2941.305727 94.700 -161.1293
2962.619641 94.804 -161.1746
2984.088004 94.906 -161.2383
3005.711935 95.006 -161.3202
3027.492563 95.102 -161.4196
3049.431022 95.195 -161.5354
3071.528457 95.283 -161.6664
3093.786018 95.366 -161.8114
3116.204867 95.443 -161.9695
3138.786172 95.515 -162.1398
3161.531110 95.580 -162.3220
3184.440868 95.638 -162.5152
3207.516639 95.690 -162.7183
3230.759627 95.734 -162.9304
3254.171043 95.770 -163.1505
3277.752108 95.800 -163.3782
3301.504051 95.822 -163.6140
3325.428110 95.838 -163.8585
