* Measurement data measured by REW V5.31.3
* Source: EXCL: Headset (USB-C to 3.5mm Headphone Jack Adapter), MICROPHONE (Master Volume), 0, volume: 0.750
* Format: 256k Log Swept Sine, 1 sweep at -12.0 dBFS with no timing reference
* Dated: Apr 7, 2025 12:29:29 PM
* REW Settings:
*  C-weighting compensation: Off
*  Target level: 75.0 dB
* Note: ; 
* Measurement: HD6XX (Back) R3
* Smoothing: 1/6 octave
* Frequency Step: 96 ppo
* Start Frequency: 20.0 Hz
*
* Freq(Hz) SPL(dB) Phase(degrees)
20.187378 80.003 -97.0127
20.333664 80.040 -97.0953
20.481010 80.088 -97.2107
20.629424 80.148 -97.3617
20.778913 80.216 -97.5509
20.929486 80.290 -97.7806
21.081150 80.370 -98.0522
21.233912 80.453 -98.3662
21.387782 80.539 -98.7221
21.542767 80.625 -99.1181
21.698874 80.712 -99.5512
21.856113 80.798 -100.0175
22.014492 80.882 -100.5119
22.174018 80.965 -101.0282
22.334700 81.045 -101.5598
22.496546 81.121 -102.0991
22.659566 81.194 -102.6383
22.823766 81.263 -103.1695
22.989157 81.327 -103.6851
23.155745 81.386 -104.1784
23.323542 81.441 -104.6436
23.492554 81.490 -105.0766
23.662790 81.535 -105.4750
23.834261 81.575 -105.8383
24.006973 81.610 -106.1679
24.180938 81.642 -106.4670
24.356163 81.670 -106.7400
24.532658 81.695 -106.9924
24.710431 81.717 -107.2303
24.889493 81.738 -107.4599
25.069853 81.758 -107.6872
25.251519 81.777 -107.9180
25.434502 81.798 -108.1574
25.618811 81.819 -108.4099
25.804456 81.843 -108.6794
25.991445 81.869 -108.9688
26.179790 81.898 -109.2800
26.369500 81.931 -109.6136
26.560584 81.966 -109.9690
26.753053 82.005 -110.3436
26.946917 82.045 -110.7332
27.142185 82.087 -111.1324
27.338869 82.130 -111.5348
27.536977 82.174 -111.9337
27.736522 82.219 -112.3231
27.937512 82.265 -112.6983
28.139959 82.312 -113.0566
28.343872 82.361 -113.3977
28.549264 82.412 -113.7236
28.756143 82.465 -114.0381
28.964522 82.520 -114.3457
29.174411 82.577 -114.6512
29.385821 82.635 -114.9580
29.598763 82.693 -115.2680
29.813248 82.751 -115.5809
30.029287 82.808 -115.8948
30.246891 82.863 -116.2065
30.466073 82.918 -116.5125
30.686842 82.973 -116.8100
30.909212 83.027 -117.0974
31.133193 83.083 -117.3750
31.358797 83.141 -117.6448
31.586035 83.201 -117.9100
31.814921 83.265 -118.1748
32.045465 83.332 -118.4432
32.277680 83.403 -118.7184
32.511577 83.478 -119.0029
32.747169 83.557 -119.2974
32.984469 83.640 -119.6016
33.223488 83.727 -119.9144
33.464239 83.817 -120.2338
33.706735 83.910 -120.5576
33.950987 84.006 -120.8834
34.197010 84.104 -121.2092
34.444816 84.203 -121.5334
34.694417 84.303 -121.8549
34.945827 84.403 -122.1736
35.199059 84.502 -122.4903
35.454126 84.600 -122.8071
35.711041 84.697 -123.1270
35.969818 84.793 -123.4535
36.230470 84.887 -123.7905
36.493011 84.979 -124.1416
36.757455 85.070 -124.5093
37.023814 85.159 -124.8951
37.292104 85.245 -125.2988
37.562338 85.330 -125.7185
37.834530 85.412 -126.1511
38.108695 85.492 -126.5920
38.384846 85.570 -127.0360
38.662999 85.645 -127.4777
38.943167 85.717 -127.9114
39.225365 85.786 -128.3325
39.509608 85.852 -128.7369
39.795911 85.916 -129.1220
40.084289 85.978 -129.4867
40.374756 86.037 -129.8310
40.667328 86.094 -130.1563
40.962020 86.149 -130.4650
41.258848 86.203 -130.7605
41.557827 86.255 -131.0463
41.858972 86.305 -131.3268
42.162299 86.353 -131.6062
42.467824 86.400 -131.8885
42.775564 86.446 -132.1769
43.085533 86.490 -132.4734
43.397749 86.534 -132.7785
43.712227 86.576 -133.0907
44.028983 86.618 -133.4079
44.348036 86.660 -133.7268
44.669400 86.703 -134.0450
44.993093 86.745 -134.3609
45.319131 86.788 -134.6740
45.647532 86.831 -134.9851
45.978313 86.873 -135.2958
46.311491 86.914 -135.6078
46.647083 86.954 -135.9227
46.985107 86.991 -136.2416
47.325581 87.025 -136.5653
47.668521 87.058 -136.8938
48.013947 87.089 -137.2264
48.361876 87.118 -137.5617
48.712326 87.147 -137.8976
49.065315 87.175 -138.2319
49.420863 87.202 -138.5626
49.778987 87.230 -138.8886
50.139706 87.257 -139.2101
50.503039 87.285 -139.5281
50.869005 87.311 -139.8445
51.237623 87.337 -140.1605
51.608912 87.361 -140.4769
51.982891 87.383 -140.7929
52.359580 87.402 -141.1069
52.739000 87.418 -141.4164
53.121168 87.430 -141.7190
53.506106 87.440 -142.0128
53.893833 87.446 -142.2969
54.284370 87.451 -142.5718
54.677737 87.454 -142.8389
55.073955 87.456 -143.0997
55.473043 87.458 -143.3553
55.875024 87.460 -143.6063
56.279917 87.462 -143.8525
56.687745 87.464 -144.0936
57.098527 87.467 -144.3299
57.512287 87.471 -144.5626
57.929045 87.477 -144.7943
58.348822 87.484 -145.0292
58.771642 87.495 -145.2733
59.197525 87.511 -145.5335
59.626495 87.533 -145.8168
60.058573 87.562 -146.1280
60.493782 87.597 -146.4683
60.932145 87.639 -146.8340
61.373685 87.685 -147.2176
61.818424 87.734 -147.6098
62.266386 87.786 -148.0020
62.717593 87.838 -148.3880
63.172071 87.891 -148.7646
63.629842 87.944 -149.1306
64.090930 87.997 -149.4864
64.555359 88.050 -149.8326
65.023154 88.102 -150.1704
65.494339 88.155 -150.5011
65.968938 88.207 -150.8262
66.446976 88.259 -151.1477
66.928478 88.311 -151.4671
67.413469 88.362 -151.7864
67.901975 88.413 -152.1068
68.394021 88.462 -152.4293
68.889632 88.509 -152.7544
69.388835 88.555 -153.0818
69.891655 88.599 -153.4110
70.398118 88.639 -153.7409
70.908252 88.677 -154.0703
71.422083 88.712 -154.3983
71.939636 88.743 -154.7238
72.460941 88.772 -155.0467
72.986023 88.798 -155.3672
73.514909 88.822 -155.6863
74.047629 88.843 -156.0053
74.584208 88.862 -156.3257
75.124676 88.879 -156.6483
75.669061 88.894 -156.9737
76.217390 88.907 -157.3016
76.769692 88.918 -157.6313
77.325997 88.928 -157.9622
77.886333 88.936 -158.2932
78.450730 88.942 -158.6237
79.019216 88.947 -158.9532
79.591822 88.952 -159.2813
80.168577 88.954 -159.6080
80.749512 88.956 -159.9330
81.334656 88.957 -160.2561
81.924040 88.956 -160.5773
82.517696 88.955 -160.8965
83.115653 88.954 -161.2138
83.717943 88.952 -161.5295
84.324598 88.950 -161.8437
84.935649 88.949 -162.1566
85.551128 88.947 -162.4684
86.171066 88.946 -162.7794
86.795497 88.944 -163.0895
87.424453 88.943 -163.3990
88.057967 88.942 -163.7078
88.696071 88.940 -164.0156
89.338800 88.938 -164.3220
89.986185 88.935 -164.6268
90.638262 88.932 -164.9298
91.295065 88.928 -165.2310
91.956626 88.923 -165.5305
92.622982 88.917 -165.8285
93.294166 88.911 -166.1250
93.970214 88.904 -166.4202
94.651161 88.897 -166.7144
95.337042 88.890 -167.0076
96.027894 88.882 -167.3000
96.723752 88.875 -167.5917
97.424652 88.868 -167.8827
98.130631 88.861 -168.1732
98.841726 88.855 -168.4632
99.557974 88.850 -168.7530
100.279412 88.846 -169.0429
101.006078 88.842 -169.3334
101.738010 88.840 -169.6248
102.475245 88.838 -169.9175
103.217823 88.837 -170.2115
103.965782 88.838 -170.5062
104.719161 88.840 -170.8006
105.477999 88.843 -171.0933
106.242336 88.847 -171.3826
107.012212 88.853 -171.6674
107.787666 88.860 -171.9470
108.568740 88.868 -172.2212
109.355474 88.877 -172.4904
110.147909 88.886 -172.7553
110.946086 88.895 -173.0169
111.750047 88.904 -173.2760
112.559834 88.914 -173.5337
113.375489 88.923 -173.7911
114.197055 88.932 -174.0490
115.024574 88.940 -174.3086
115.858089 88.947 -174.5706
116.697645 88.954 -174.8356
117.543284 88.960 -175.1041
118.395051 88.965 -175.3759
119.252990 88.969 -175.6506
120.117147 88.972 -175.9274
120.987565 88.974 -176.2052
121.864291 88.975 -176.4825
122.747370 88.976 -176.7575
123.636848 88.976 -177.0289
124.532771 88.977 -177.2957
125.435187 88.977 -177.5571
126.344142 88.977 -177.8131
127.259684 88.977 -178.0640
128.181860 88.976 -178.3106
129.110718 88.976 -178.5539
130.046308 88.974 -178.7951
130.988677 88.972 -179.0348
131.937875 88.968 -179.2736
132.893951 88.964 -179.5113
133.856956 88.958 -179.7476
134.826938 88.951 -179.9820
135.803950 88.942 179.7857
136.788041 88.931 179.5556
137.779264 88.919 179.3269
138.777669 88.906 179.0990
139.783309 88.891 178.8713
140.796237 88.875 178.6434
141.816504 88.858 178.4155
142.844165 88.839 178.1879
143.879273 88.820 177.9610
144.921881 88.800 177.7350
145.972045 88.780 177.5098
147.029819 88.758 177.2854
148.095257 88.735 177.0614
149.168417 88.712 176.8374
150.249353 88.688 176.6130
151.338121 88.665 176.3884
152.434780 88.640 176.1636
153.539385 88.616 175.9392
154.651995 88.592 175.7157
155.772667 88.568 175.4937
156.901460 88.544 175.2735
158.038432 88.519 175.0555
159.183644 88.495 174.8401
160.337154 88.471 174.6273
161.499023 88.447 174.4172
162.669312 88.424 174.2100
163.848081 88.400 174.0057
165.035392 88.376 173.8043
166.231306 88.353 173.6055
167.435887 88.329 173.4090
168.649196 88.306 173.2141
169.871298 88.282 173.0206
171.102255 88.258 172.8279
172.342133 88.235 172.6359
173.590995 88.211 172.4443
174.848907 88.187 172.2532
176.115934 88.162 172.0629
177.392143 88.138 171.8736
178.677599 88.113 171.6857
179.972371 88.087 171.4993
181.276525 88.061 171.3145
182.590129 88.034 171.1313
183.913252 88.007 170.9499
185.245964 87.978 170.7709
186.588332 87.949 170.5950
187.940428 87.920 170.4235
189.302322 87.890 170.2574
190.674085 87.860 170.0978
192.055788 87.830 169.9453
193.447503 87.800 169.7997
194.849303 87.770 169.6598
196.261262 87.740 169.5240
197.683452 87.709 169.3903
199.115948 87.679 169.2565
200.558824 87.648 169.1206
202.012156 87.616 168.9812
203.476019 87.584 168.8380
204.950490 87.552 168.6918
206.435646 87.519 168.5450
207.931564 87.486 168.4002
209.438322 87.452 168.2597
210.955998 87.419 168.1256
212.484672 87.386 167.9988
214.024424 87.354 167.8798
215.575333 87.323 167.7680
217.137481 87.293 167.6630
218.710948 87.264 167.5640
220.295818 87.237 167.4705
221.892172 87.212 167.3820
223.500094 87.188 167.2979
225.119668 87.165 167.2175
226.750978 87.145 167.1400
228.394109 87.125 167.0646
230.049147 87.108 166.9902
231.716178 87.092 166.9159
233.395289 87.078 166.8403
235.086567 87.066 166.7623
236.790102 87.056 166.6810
238.505980 87.047 166.5958
240.234293 87.039 166.5068
241.975130 87.033 166.4144
243.728581 87.027 166.3196
245.494739 87.022 166.2235
247.273695 87.017 166.1272
249.065542 87.011 166.0317
250.870374 87.006 165.9379
252.688284 87.000 165.8463
254.519367 86.993 165.7571
256.363720 86.985 165.6704
258.221437 86.977 165.5860
260.092616 86.967 165.5033
261.977354 86.956 165.4217
263.875750 86.945 165.3406
265.787903 86.934 165.2600
267.713911 86.922 165.1804
269.653877 86.910 165.1021
271.607900 86.899 165.0252
273.576083 86.887 164.9492
275.558528 86.876 164.8734
277.555338 86.865 164.7977
279.566619 86.854 164.7224
281.592474 86.843 164.6481
283.633009 86.833 164.5757
285.688331 86.824 164.5063
287.758546 86.815 164.4406
289.843763 86.806 164.3787
291.944090 86.799 164.3206
294.059638 86.793 164.2656
296.190515 86.787 164.2131
298.336833 86.782 164.1620
300.498705 86.777 164.1120
302.676243 86.772 164.0630
304.869559 86.768 164.0154
307.078770 86.763 163.9694
309.303989 86.759 163.9256
311.545334 86.754 163.8844
313.802919 86.749 163.8460
316.076865 86.744 163.8107
318.367288 86.739 163.7782
320.674309 86.733 163.7484
322.998047 86.728 163.7210
325.338624 86.722 163.6954
327.696162 86.716 163.6711
330.070783 86.710 163.6473
332.462612 86.704 163.6231
334.871773 86.697 163.5977
337.298392 86.690 163.5704
339.742595 86.683 163.5410
342.204510 86.675 163.5096
344.684265 86.666 163.4768
347.181989 86.656 163.4437
349.697813 86.646 163.4114
352.231868 86.635 163.3807
354.784285 86.624 163.3520
357.355198 86.611 163.3256
359.944741 86.597 163.3018
362.553049 86.582 163.2810
365.180258 86.565 163.2634
367.826505 86.547 163.2491
370.491927 86.529 163.2382
373.176665 86.509 163.2302
375.880856 86.488 163.2243
378.604644 86.466 163.2198
381.348169 86.444 163.2159
384.111575 86.421 163.2123
386.895006 86.398 163.2092
389.698607 86.374 163.2074
392.522524 86.350 163.2078
395.366904 86.326 163.2109
398.231895 86.301 163.2171
401.117648 86.276 163.2258
404.024312 86.251 163.2366
406.952038 86.227 163.2487
409.900981 86.201 163.2617
412.871292 86.176 163.2749
415.863128 86.150 163.2881
418.876643 86.123 163.3009
421.911996 86.094 163.3132
424.969344 86.064 163.3253
428.048847 86.033 163.3372
431.150666 85.999 163.3492
434.274961 85.965 163.3611
437.421897 85.929 163.3729
440.591636 85.891 163.3847
443.784345 85.852 163.3966
447.000189 85.812 163.4091
450.239337 85.771 163.4229
453.501956 85.730 163.4390
456.788219 85.688 163.4586
460.098294 85.647 163.4825
463.432356 85.605 163.5112
466.790578 85.564 163.5445
470.173135 85.524 163.5817
473.580203 85.485 163.6219
477.011961 85.446 163.6643
480.468586 85.409 163.7079
483.950259 85.373 163.7521
487.457163 85.337 163.7964
490.989478 85.304 163.8407
494.547390 85.271 163.8850
498.131084 85.239 163.9298
501.740748 85.209 163.9755
505.376568 85.180 164.0226
509.038735 85.153 164.0714
512.727439 85.127 164.1216
516.442874 85.103 164.1728
520.185232 85.080 164.2242
523.954708 85.059 164.2749
527.751500 85.040 164.3242
531.575805 85.021 164.3715
535.427822 85.005 164.4164
539.307753 84.990 164.4592
543.215800 84.976 164.5003
547.152165 84.964 164.5411
551.117055 84.954 164.5828
555.110677 84.946 164.6264
559.133237 84.939 164.6726
563.184947 84.934 164.7218
567.266018 84.930 164.7744
571.376661 84.928 164.8307
575.517092 84.926 164.8908
579.687526 84.926 164.9550
583.888181 84.927 165.0232
588.119275 84.928 165.0952
592.381030 84.930 165.1703
596.673667 84.932 165.2481
600.997410 84.934 165.3277
605.352485 84.936 165.4084
609.739119 84.938 165.4896
614.157540 84.939 165.5713
618.607979 84.939 165.6535
623.090667 84.938 165.7369
627.605839 84.937 165.8221
632.153730 84.933 165.9100
636.734576 84.929 166.0010
641.348617 84.924 166.0955
645.996094 84.917 166.1936
650.677248 84.910 166.2951
655.392323 84.901 166.3994
660.141566 84.892 166.5059
664.925224 84.883 166.6135
669.743546 84.873 166.7208
674.596784 84.863 166.8265
679.485191 84.852 166.9294
684.409020 84.841 167.0284
689.368530 84.830 167.1227
694.363979 84.817 167.2117
699.395626 84.804 167.2955
704.463736 84.790 167.3740
709.568570 84.775 167.4477
714.710396 84.758 167.5170
719.889483 84.740 167.5832
725.106099 84.719 167.6474
730.360516 84.697 167.7115
735.653010 84.673 167.7774
740.983855 84.648 167.8467
746.353329 84.621 167.9207
751.761713 84.592 168.0000
757.209288 84.563 168.0842
762.696339 84.532 168.1727
768.223151 84.502 168.2639
773.790013 84.471 168.3560
779.397214 84.440 168.4467
785.045047 84.409 168.5338
790.733808 84.378 168.6147
796.463791 84.348 168.6873
802.235296 84.318 168.7494
808.048623 84.288 168.7998
813.904077 84.257 168.8375
819.801961 84.227 168.8623
825.742584 84.196 168.8747
831.726255 84.164 168.8757
837.753287 84.130 168.8672
843.823992 84.094 168.8516
849.938689 84.056 168.8321
856.097695 84.016 168.8124
862.301332 83.973 168.7973
868.549922 83.927 168.7920
874.843793 83.878 168.8026
881.183272 83.826 168.8356
887.568689 83.772 168.8980
894.000378 83.717 168.9965
900.478673 83.661 169.1368
907.003913 83.606 169.3232
913.576437 83.553 169.5572
920.196588 83.505 169.8370
926.864712 83.463 170.1576
933.581156 83.429 170.5110
940.346270 83.402 170.8872
947.160407 83.385 171.2750
954.023921 83.376 171.6635
960.937172 83.376 172.0431
967.900519 83.384 172.4061
974.914325 83.399 172.7474
981.978956 83.420 173.0640
989.094780 83.446 173.3550
996.262169 83.476 173.6214
1003.481495 83.510 173.8647
1010.753136 83.547 174.0875
1018.077470 83.586 174.2923
1025.454879 83.628 174.4816
1032.885748 83.671 174.6578
1040.370463 83.717 174.8228
1047.909417 83.764 174.9782
1055.503000 83.813 175.1258
1063.151610 83.863 175.2668
1070.855645 83.914 175.4023
1078.615506 83.967 175.5327
1086.431599 84.020 175.6581
1094.304330 84.074 175.7783
1102.234110 84.128 175.8927
1110.221353 84.183 176.0009
1118.266475 84.238 176.1022
1126.369895 84.294 176.1962
1134.532035 84.349 176.2819
1142.753322 84.405 176.3586
1151.034184 84.460 176.4260
1159.375052 84.514 176.4835
1167.776361 84.569 176.5313
1176.238550 84.622 176.5700
1184.762060 84.674 176.6007
1193.347334 84.724 176.6246
1201.994821 84.774 176.6434
1210.704971 84.822 176.6584
1219.478238 84.868 176.6710
1228.315080 84.913 176.6826
1237.215957 84.957 176.6953
1246.181334 85.000 176.7107
1255.211678 85.041 176.7306
1264.307459 85.082 176.7561
1273.469152 85.122 176.7880
1282.697235 85.162 176.8268
1291.992188 85.202 176.8724
1301.354495 85.243 176.9247
1310.784647 85.284 176.9830
1320.283132 85.325 177.0461
1329.850448 85.368 177.1128
1339.487093 85.411 177.1821
1349.193569 85.455 177.2533
1358.970381 85.499 177.3258
1368.818041 85.544 177.3996
1378.737061 85.590 177.4747
1388.727958 85.637 177.5512
1398.791253 85.685 177.6292
1408.927471 85.734 177.7086
1419.137140 85.785 177.7892
1429.420793 85.837 177.8704
1439.778965 85.892 177.9518
1450.212197 85.948 178.0329
1460.721033 86.006 178.1128
1471.306019 86.065 178.1906
1481.967709 86.126 178.2654
1492.706658 86.188 178.3368
1503.523426 86.251 178.4044
1514.418576 86.313 178.4684
1525.392678 86.374 178.5295
1536.446302 86.434 178.5895
1547.580025 86.492 178.6501
1558.794428 86.547 178.7137
1570.090095 86.599 178.7823
1581.467615 86.648 178.8574
1592.927581 86.694 178.9401
1604.470591 86.736 179.0308
1616.097246 86.775 179.1299
1627.808153 86.810 179.2377
1639.603922 86.841 179.3550
1651.485168 86.869 179.4828
1663.452510 86.894 179.6222
1675.506573 86.915 179.7738
1687.647984 86.935 179.9380
1699.877377 86.952 -179.8855
1712.195390 86.967 -179.6971
1724.602663 86.982 -179.4974
1737.099845 86.995 -179.2870
1749.687587 87.008 -179.0663
1762.366544 87.021 -178.8361
1775.137379 87.035 -178.5971
1788.000756 87.048 -178.3505
1800.957346 87.063 -178.0984
1814.007826 87.078 -177.8432
1827.152874 87.094 -177.5876
1840.393177 87.111 -177.3342
1853.729425 87.128 -177.0850
1867.162312 87.145 -176.8418
1880.692540 87.163 -176.6054
1894.320813 87.179 -176.3768
1908.047843 87.195 -176.1564
1921.874344 87.209 -175.9447
1935.801038 87.223 -175.7421
1949.828650 87.234 -175.5483
1963.957912 87.244 -175.3628
1978.189561 87.251 -175.1849
1992.524338 87.257 -175.0142
2006.962991 87.262 -174.8507
2021.506272 87.265 -174.6953
2036.154940 87.268 -174.5494
2050.909758 87.269 -174.4151
2065.771495 87.271 -174.2946
2080.740927 87.271 -174.1899
2095.818833 87.272 -174.1025
2111.006001 87.272 -174.0329
2126.303220 87.270 -173.9807
2141.711290 87.268 -173.9450
2157.231013 87.266 -173.9244
2172.863198 87.262 -173.9171
2188.608660 87.257 -173.9217
2204.468221 87.251 -173.9368
2220.442706 87.245 -173.9607
2236.532950 87.238 -173.9916
2252.739789 87.229 -174.0270
2269.064070 87.221 -174.0644
2285.506644 87.211 -174.1012
2302.068367 87.202 -174.1353
2318.750104 87.193 -174.1650
2335.552723 87.185 -174.1895
2352.477101 87.179 -174.2085
2369.524119 87.175 -174.2224
2386.694668 87.173 -174.2323
2403.989641 87.174 -174.2399
2421.409941 87.179 -174.2477
2438.956476 87.188 -174.2583
2456.630160 87.201 -174.2750
2474.431915 87.217 -174.3003
2492.362668 87.237 -174.3362
2510.423356 87.261 -174.3835
2528.614918 87.288 -174.4420
2546.938304 87.317 -174.5104
2565.394469 87.349 -174.5864
2583.984375 87.384 -174.6678
2602.708991 87.421 -174.7522
2621.569293 87.461 -174.8375
2640.566265 87.504 -174.9223
2659.700897 87.550 -175.0059
2678.974186 87.599 -175.0881
2698.387137 87.652 -175.1695
2717.940763 87.709 -175.2514
2737.636082 87.769 -175.3357
2757.474121 87.833 -175.4244
2777.455915 87.900 -175.5199
2797.582506 87.970 -175.6245
2817.854942 88.043 -175.7401
2838.274281 88.117 -175.8680
2858.841586 88.193 -176.0089
2879.557931 88.269 -176.1626
2900.424394 88.345 -176.3283
2921.442065 88.420 -176.5053
2942.612039 88.495 -176.6929
2963.935418 88.567 -176.8906
2985.413316 88.637 -177.0984
3007.046852 88.704 -177.3160
3028.837153 88.768 -177.5434
3050.785356 88.828 -177.7804
3072.892604 88.883 -178.0268
3095.160050 88.932 -178.2820
3117.588856 88.976 -178.5457
3140.180190 89.013 -178.8171
3162.935230 89.044 -179.0954
3185.855163 89.067 -179.3798
3208.941182 89.082 -179.6695
3232.194493 89.090 -179.9639
3255.616307 89.089 179.7378
3279.207844 89.080 179.4361
3302.970336 89.063 179.1317
3326.905021 89.037 178.8257
3351.013146 89.003 178.5194
3375.295969 88.960 178.2148
3399.754755 88.909 177.9141
