* Measurement data measured by REW V5.31.3
* Source: EXCL: Headset (USB-C to 3.5mm Headphone Jack Adapter), MICROPHONE (Master Volume), 0, volume: 0.750
* Format: 256k Log Swept Sine, 1 sweep at -12.0 dBFS with no timing reference
* Dated: Apr 7, 2025 12:14:16 PM
* REW Settings:
*  C-weighting compensation: Off
*  Target level: 75.0 dB
* Note: ; 
* Measurement: HD6XX (Back) L3
* Smoothing: 1/6 octave
* Frequency Step: 96 ppo
* Start Frequency: 20.0 Hz
*
* Freq(Hz) SPL(dB) Phase(degrees)
20.187378 79.133 -95.6172
20.333664 79.167 -95.6926
20.481010 79.213 -95.7981
20.629424 79.271 -95.9360
20.778913 79.340 -96.1090
20.929486 79.421 -96.3192
21.081150 79.512 -96.5678
21.233912 79.613 -96.8549
21.387782 79.721 -97.1789
21.542767 79.837 -97.5366
21.698874 79.959 -97.9234
21.856113 80.085 -98.3331
22.014492 80.214 -98.7589
22.174018 80.344 -99.1931
22.334700 80.473 -99.6285
22.496546 80.602 -100.0580
22.659566 80.727 -100.4760
22.823766 80.849 -100.8781
22.989157 80.965 -101.2614
23.155745 81.074 -101.6249
23.323542 81.176 -101.9694
23.492554 81.270 -102.2970
23.662790 81.355 -102.6111
23.834261 81.431 -102.9159
24.006973 81.497 -103.2160
24.180938 81.553 -103.5161
24.356163 81.600 -103.8205
24.532658 81.637 -104.1328
24.710431 81.665 -104.4555
24.889493 81.684 -104.7902
25.069853 81.697 -105.1372
25.251519 81.703 -105.4960
25.434502 81.704 -105.8647
25.618811 81.702 -106.2410
25.804456 81.698 -106.6223
25.991445 81.693 -107.0055
26.179790 81.690 -107.3881
26.369500 81.689 -107.7680
26.560584 81.692 -108.1437
26.753053 81.700 -108.5146
26.946917 81.713 -108.8810
27.142185 81.732 -109.2435
27.338869 81.757 -109.6032
27.536977 81.787 -109.9612
27.736522 81.823 -110.3181
27.937512 81.862 -110.6738
28.139959 81.904 -111.0272
28.343872 81.948 -111.3762
28.549264 81.994 -111.7177
28.756143 82.039 -112.0479
28.964522 82.085 -112.3628
29.174411 82.130 -112.6582
29.385821 82.174 -112.9309
29.598763 82.218 -113.1788
29.813248 82.262 -113.4016
30.029287 82.306 -113.6009
30.246891 82.352 -113.7803
30.466073 82.401 -113.9456
30.686842 82.453 -114.1041
30.909212 82.508 -114.2642
31.133193 82.569 -114.4348
31.358797 82.634 -114.6243
31.586035 82.704 -114.8399
31.814921 82.780 -115.0865
32.045465 82.860 -115.3670
32.277680 82.944 -115.6811
32.511577 83.033 -116.0261
32.747169 83.124 -116.3970
32.984469 83.219 -116.7872
33.223488 83.315 -117.1894
33.464239 83.414 -117.5965
33.706735 83.514 -118.0026
33.950987 83.617 -118.4039
34.197010 83.720 -118.7987
34.444816 83.825 -119.1877
34.694417 83.931 -119.5736
34.945827 84.038 -119.9602
35.199059 84.145 -120.3517
35.454126 84.252 -120.7512
35.711041 84.358 -121.1602
35.969818 84.463 -121.5779
36.230470 84.567 -122.0015
36.493011 84.669 -122.4260
36.757455 84.769 -122.8458
37.023814 84.867 -123.2548
37.292104 84.963 -123.6480
37.562338 85.057 -124.0216
37.834530 85.149 -124.3739
38.108695 85.237 -124.7049
38.384846 85.322 -125.0160
38.662999 85.403 -125.3100
38.943167 85.478 -125.5900
39.225365 85.549 -125.8596
39.509608 85.615 -126.1222
39.795911 85.677 -126.3810
40.084289 85.735 -126.6390
40.374756 85.790 -126.8985
40.667328 85.843 -127.1616
40.962020 85.895 -127.4302
41.258848 85.947 -127.7056
41.557827 86.000 -127.9888
41.858972 86.052 -128.2806
42.162299 86.103 -128.5809
42.467824 86.153 -128.8890
42.775564 86.200 -129.2039
43.085533 86.244 -129.5245
43.397749 86.285 -129.8502
43.712227 86.321 -130.1815
44.028983 86.354 -130.5201
44.348036 86.384 -130.8684
44.669400 86.411 -131.2287
44.993093 86.437 -131.6018
45.319131 86.461 -131.9864
45.647532 86.484 -132.3784
45.978313 86.507 -132.7715
46.311491 86.530 -133.1587
46.647083 86.555 -133.5340
46.985107 86.581 -133.8935
47.325581 86.609 -134.2368
47.668521 86.639 -134.5665
48.013947 86.670 -134.8874
48.361876 86.702 -135.2049
48.712326 86.735 -135.5236
49.065315 86.768 -135.8459
49.420863 86.800 -136.1713
49.778987 86.831 -136.4968
50.139706 86.861 -136.8176
50.503039 86.890 -137.1279
50.869005 86.916 -137.4226
51.237623 86.941 -137.6980
51.608912 86.963 -137.9533
51.982891 86.983 -138.1900
52.359580 87.001 -138.4127
52.739000 87.016 -138.6272
53.121168 87.029 -138.8402
53.506106 87.041 -139.0573
53.893833 87.051 -139.2823
54.284370 87.062 -139.5170
54.677737 87.073 -139.7612
55.073955 87.085 -140.0138
55.473043 87.099 -140.2732
55.875024 87.116 -140.5382
56.279917 87.137 -140.8077
56.687745 87.160 -141.0807
57.098527 87.187 -141.3559
57.512287 87.216 -141.6317
57.929045 87.247 -141.9066
58.348822 87.280 -142.1801
58.771642 87.313 -142.4530
59.197525 87.347 -142.7272
59.626495 87.381 -143.0057
60.058573 87.414 -143.2909
60.493782 87.446 -143.5849
60.932145 87.480 -143.8881
61.373685 87.514 -144.1996
61.818424 87.549 -144.5176
62.266386 87.587 -144.8397
62.717593 87.628 -145.1635
63.172071 87.671 -145.4868
63.629842 87.716 -145.8089
64.090930 87.763 -146.1296
64.555359 87.811 -146.4497
65.023154 87.861 -146.7703
65.494339 87.911 -147.0920
65.968938 87.962 -147.4150
66.446976 88.014 -147.7390
66.928478 88.066 -148.0629
67.413469 88.119 -148.3863
67.901975 88.172 -148.7088
68.394021 88.225 -149.0308
68.889632 88.277 -149.3529
69.388835 88.329 -149.6758
69.891655 88.379 -149.9998
70.398118 88.426 -150.3251
70.908252 88.471 -150.6518
71.422083 88.514 -150.9796
71.939636 88.553 -151.3077
72.460941 88.589 -151.6351
72.986023 88.622 -151.9603
73.514909 88.652 -152.2815
74.047629 88.679 -152.5974
74.584208 88.703 -152.9070
75.124676 88.725 -153.2102
75.669061 88.744 -153.5078
76.217390 88.760 -153.8009
76.769692 88.774 -154.0916
77.325997 88.786 -154.3819
77.886333 88.796 -154.6736
78.450730 88.805 -154.9684
79.019216 88.811 -155.2673
79.591822 88.817 -155.5708
80.168577 88.821 -155.8787
80.749512 88.824 -156.1904
81.334656 88.826 -156.5051
81.924040 88.827 -156.8220
82.517696 88.827 -157.1403
83.115653 88.827 -157.4597
83.717943 88.827 -157.7795
84.324598 88.827 -158.0995
84.935649 88.827 -158.4191
85.551128 88.827 -158.7377
86.171066 88.827 -159.0549
86.795497 88.827 -159.3700
87.424453 88.826 -159.6824
88.057967 88.825 -159.9918
88.696071 88.824 -160.2977
89.338800 88.822 -160.5996
89.986185 88.820 -160.8972
90.638262 88.818 -161.1899
91.295065 88.816 -161.4778
91.956626 88.813 -161.7611
92.622982 88.810 -162.0401
93.294166 88.807 -162.3153
93.970214 88.804 -162.5870
94.651161 88.801 -162.8552
95.337042 88.799 -163.1201
96.027894 88.797 -163.3817
96.723752 88.795 -163.6404
97.424652 88.793 -163.8967
98.130631 88.792 -164.1514
98.841726 88.791 -164.4049
99.557974 88.790 -164.6577
100.279412 88.789 -164.9099
101.006078 88.789 -165.1615
101.738010 88.789 -165.4128
102.475245 88.790 -165.6645
103.217823 88.791 -165.9181
103.965782 88.793 -166.1753
104.719161 88.795 -166.4380
105.477999 88.799 -166.7074
106.242336 88.803 -166.9838
107.012212 88.808 -167.2657
107.787666 88.815 -167.5510
108.568740 88.822 -167.8367
109.355474 88.830 -168.1202
110.147909 88.839 -168.3995
110.946086 88.849 -168.6734
111.750047 88.860 -168.9417
112.559834 88.871 -169.2051
113.375489 88.882 -169.4650
114.197055 88.894 -169.7229
115.024574 88.906 -169.9801
115.858089 88.918 -170.2377
116.697645 88.929 -170.4959
117.543284 88.940 -170.7553
118.395051 88.951 -171.0159
119.252990 88.961 -171.2775
120.117147 88.971 -171.5398
120.987565 88.981 -171.8020
121.864291 88.990 -172.0636
122.747370 88.998 -172.3239
123.636848 89.006 -172.5828
124.532771 89.013 -172.8404
125.435187 89.019 -173.0967
126.344142 89.024 -173.3519
127.259684 89.028 -173.6058
128.181860 89.032 -173.8581
129.110718 89.034 -174.1085
130.046308 89.035 -174.3571
130.988677 89.035 -174.6042
131.937875 89.035 -174.8502
132.893951 89.033 -175.0956
133.856956 89.030 -175.3398
134.826938 89.025 -175.5823
135.803950 89.020 -175.8221
136.788041 89.014 -176.0583
137.779264 89.007 -176.2908
138.777669 88.998 -176.5194
139.783309 88.989 -176.7446
140.796237 88.978 -176.9668
141.816504 88.966 -177.1865
142.844165 88.953 -177.4041
143.879273 88.938 -177.6200
144.921881 88.922 -177.8346
145.972045 88.905 -178.0481
147.029819 88.887 -178.2608
148.095257 88.868 -178.4728
149.168417 88.848 -178.6844
150.249353 88.828 -178.8955
151.338121 88.808 -179.1062
152.434780 88.787 -179.3160
153.539385 88.766 -179.5245
154.651995 88.745 -179.7310
155.772667 88.723 -179.9348
156.901460 88.701 179.8644
158.038432 88.679 179.6670
159.183644 88.657 179.4728
160.337154 88.635 179.2814
161.499023 88.613 179.0922
162.669312 88.592 178.9041
163.848081 88.571 178.7164
165.035392 88.551 178.5286
166.231306 88.532 178.3403
167.435887 88.513 178.1516
168.649196 88.495 177.9627
169.871298 88.476 177.7745
171.102255 88.458 177.5880
172.342133 88.440 177.4039
173.590995 88.422 177.2231
174.848907 88.403 177.0458
176.115934 88.385 176.8725
177.392143 88.366 176.7031
178.677599 88.346 176.5375
179.972371 88.327 176.3752
181.276525 88.306 176.2161
182.590129 88.285 176.0596
183.913252 88.263 175.9054
185.245964 88.240 175.7527
186.588332 88.217 175.6011
187.940428 88.193 175.4500
189.302322 88.167 175.2994
190.674085 88.142 175.1492
192.055788 88.115 174.9998
193.447503 88.088 174.8513
194.849303 88.060 174.7034
196.261262 88.032 174.5558
197.683452 88.004 174.4079
199.115948 87.975 174.2595
200.558824 87.946 174.1105
202.012156 87.917 173.9619
203.476019 87.889 173.8145
204.950490 87.860 173.6697
206.435646 87.832 173.5284
207.931564 87.804 173.3909
209.438322 87.777 173.2576
210.955998 87.750 173.1282
212.484672 87.724 173.0028
214.024424 87.698 172.8808
215.575333 87.674 172.7621
217.137481 87.650 172.6463
218.710948 87.627 172.5333
220.295818 87.605 172.4230
221.892172 87.585 172.3152
223.500094 87.566 172.2098
225.119668 87.548 172.1067
226.750978 87.532 172.0054
228.394109 87.518 171.9056
230.049147 87.504 171.8068
231.716178 87.492 171.7084
233.395289 87.481 171.6105
235.086567 87.470 171.5130
236.790102 87.461 171.4162
238.505980 87.452 171.3204
240.234293 87.444 171.2259
241.975130 87.437 171.1324
243.728581 87.431 171.0394
245.494739 87.425 170.9461
247.273695 87.420 170.8520
249.065542 87.415 170.7565
250.870374 87.410 170.6594
252.688284 87.406 170.5609
254.519367 87.402 170.4616
256.363720 87.398 170.3630
258.221437 87.394 170.2672
260.092616 87.390 170.1766
261.977354 87.386 170.0936
263.875750 87.381 170.0198
265.787903 87.375 169.9554
267.713911 87.368 169.8994
269.653877 87.359 169.8499
271.607900 87.350 169.8047
273.576083 87.340 169.7618
275.558528 87.329 169.7196
277.555338 87.319 169.6773
279.566619 87.308 169.6347
281.592474 87.298 169.5918
283.633009 87.289 169.5486
285.688331 87.280 169.5052
287.758546 87.273 169.4616
289.843763 87.268 169.4175
291.944090 87.263 169.3729
294.059638 87.260 169.3278
296.190515 87.257 169.2823
298.336833 87.255 169.2368
300.498705 87.254 169.1916
302.676243 87.253 169.1473
304.869559 87.253 169.1049
307.078770 87.253 169.0648
309.303989 87.253 169.0273
311.545334 87.254 168.9924
313.802919 87.254 168.9595
316.076865 87.256 168.9282
318.367288 87.257 168.8978
320.674309 87.258 168.8679
322.998047 87.260 168.8380
325.338624 87.261 168.8079
327.696162 87.262 168.7773
330.070783 87.262 168.7457
332.462612 87.262 168.7129
334.871773 87.261 168.6785
337.298392 87.260 168.6428
339.742595 87.258 168.6062
342.204510 87.255 168.5696
344.684265 87.251 168.5342
347.181989 87.246 168.5009
349.697813 87.239 168.4711
352.231868 87.232 168.4457
354.784285 87.222 168.4257
357.355198 87.212 168.4120
359.944741 87.199 168.4053
362.553049 87.186 168.4054
365.180258 87.171 168.4116
367.826505 87.156 168.4224
370.491927 87.140 168.4355
373.176665 87.124 168.4489
375.880856 87.108 168.4609
378.604644 87.091 168.4705
381.348169 87.075 168.4774
384.111575 87.059 168.4818
386.895006 87.043 168.4839
389.698607 87.026 168.4840
392.522524 87.009 168.4825
395.366904 86.992 168.4796
398.231895 86.974 168.4757
401.117648 86.956 168.4714
404.024312 86.938 168.4674
406.952038 86.918 168.4645
409.900981 86.898 168.4636
412.871292 86.878 168.4651
415.863128 86.857 168.4693
418.876643 86.835 168.4758
421.911996 86.812 168.4839
424.969344 86.788 168.4932
428.048847 86.763 168.5036
431.150666 86.736 168.5154
434.274961 86.707 168.5296
437.421897 86.677 168.5471
440.591636 86.646 168.5688
443.784345 86.614 168.5951
447.000189 86.580 168.6261
450.239337 86.545 168.6610
453.501956 86.509 168.6992
456.788219 86.473 168.7396
460.098294 86.436 168.7818
463.432356 86.399 168.8253
466.790578 86.362 168.8699
470.173135 86.325 168.9155
473.580203 86.288 168.9618
477.011961 86.253 169.0087
480.468586 86.218 169.0558
483.950259 86.185 169.1030
487.457163 86.153 169.1495
490.989478 86.122 169.1952
494.547390 86.093 169.2394
498.131084 86.065 169.2818
501.740748 86.039 169.3222
505.376568 86.015 169.3604
509.038735 85.992 169.3966
512.727439 85.971 169.4310
516.442874 85.952 169.4638
520.185232 85.935 169.4955
523.954708 85.919 169.5266
527.751500 85.905 169.5571
531.575805 85.893 169.5877
535.427822 85.883 169.6182
539.307753 85.874 169.6488
543.215800 85.867 169.6794
547.152165 85.862 169.7102
551.117055 85.858 169.7416
555.110677 85.856 169.7741
559.133237 85.855 169.8087
563.184947 85.856 169.8463
567.266018 85.857 169.8878
571.376661 85.860 169.9340
575.517092 85.864 169.9857
579.687526 85.869 170.0430
583.888181 85.875 170.1058
588.119275 85.882 170.1732
592.381030 85.889 170.2444
596.673667 85.897 170.3182
600.997410 85.905 170.3934
605.352485 85.913 170.4689
609.739119 85.920 170.5439
614.157540 85.928 170.6178
618.607979 85.934 170.6903
623.090667 85.940 170.7612
627.605839 85.944 170.8306
632.153730 85.948 170.8986
636.734576 85.950 170.9651
641.348617 85.951 171.0305
645.996094 85.950 171.0952
650.677248 85.948 171.1594
655.392323 85.945 171.2237
660.141566 85.941 171.2882
664.925224 85.935 171.3527
669.743546 85.929 171.4168
674.596784 85.922 171.4799
679.485191 85.914 171.5413
684.409020 85.905 171.6008
689.368530 85.896 171.6584
694.363979 85.885 171.7148
699.395626 85.873 171.7708
704.463736 85.859 171.8279
709.568570 85.844 171.8874
714.710396 85.828 171.9505
719.889483 85.810 172.0178
725.106099 85.792 172.0896
730.360516 85.772 172.1653
735.653010 85.751 172.2440
740.983855 85.730 172.3244
746.353329 85.707 172.4053
751.761713 85.684 172.4858
757.209288 85.660 172.5649
762.696339 85.635 172.6419
768.223151 85.609 172.7163
773.790013 85.583 172.7874
779.397214 85.557 172.8546
785.045047 85.530 172.9174
790.733808 85.503 172.9749
796.463791 85.476 173.0264
802.235296 85.449 173.0714
808.048623 85.422 173.1093
813.904077 85.395 173.1397
819.801961 85.368 173.1626
825.742584 85.340 173.1780
831.726255 85.311 173.1868
837.753287 85.281 173.1899
843.823992 85.250 173.1891
849.938689 85.218 173.1870
856.097695 85.184 173.1864
862.301332 85.148 173.1915
868.549922 85.111 173.2067
874.843793 85.071 173.2374
881.183272 85.029 173.2889
887.568689 84.987 173.3665
894.000378 84.944 173.4745
900.478673 84.903 173.6157
907.003913 84.863 173.7912
913.576437 84.826 173.9998
920.196588 84.794 174.2383
926.864712 84.767 174.5016
933.581156 84.747 174.7834
940.346270 84.733 175.0767
947.160407 84.727 175.3742
954.023921 84.728 175.6691
960.937172 84.736 175.9554
967.900519 84.750 176.2280
974.914325 84.771 176.4832
981.978956 84.797 176.7182
989.094780 84.827 176.9318
996.262169 84.862 177.1235
1003.481495 84.900 177.2942
1010.753136 84.941 177.4451
1018.077470 84.984 177.5780
1025.454879 85.030 177.6946
1032.885748 85.079 177.7964
1040.370463 85.129 177.8845
1047.909417 85.180 177.9597
1055.503000 85.233 178.0223
1063.151610 85.286 178.0731
1070.855645 85.340 178.1129
1078.615506 85.393 178.1434
1086.431599 85.446 178.1666
1094.304330 85.499 178.1847
1102.234110 85.550 178.1997
1110.221353 85.601 178.2131
1118.266475 85.651 178.2256
1126.369895 85.701 178.2374
1134.532035 85.750 178.2481
1142.753322 85.798 178.2574
1151.034184 85.846 178.2646
1159.375052 85.893 178.2697
1167.776361 85.939 178.2733
1176.238550 85.985 178.2762
1184.762060 86.030 178.2801
1193.347334 86.073 178.2865
1201.994821 86.117 178.2966
1210.704971 86.160 178.3106
1219.478238 86.203 178.3281
1228.315080 86.246 178.3476
1237.215957 86.290 178.3673
1246.181334 86.335 178.3854
1255.211678 86.379 178.4005
1264.307459 86.425 178.4118
1273.469152 86.470 178.4192
1282.697235 86.515 178.4230
1291.992188 86.560 178.4240
1301.354495 86.605 178.4226
1310.784647 86.650 178.4193
1320.283132 86.695 178.4141
1329.850448 86.740 178.4067
1339.487093 86.784 178.3972
1349.193569 86.828 178.3853
1358.970381 86.872 178.3717
1368.818041 86.915 178.3568
1378.737061 86.958 178.3414
1388.727958 87.001 178.3260
1398.791253 87.044 178.3111
1408.927471 87.088 178.2971
1419.137140 87.131 178.2846
1429.420793 87.175 178.2740
1439.778965 87.220 178.2667
1450.212197 87.264 178.2640
1460.721033 87.309 178.2681
1471.306019 87.355 178.2810
1481.967709 87.400 178.3044
1492.706658 87.447 178.3388
1503.523426 87.494 178.3845
1514.418576 87.542 178.4408
1525.392678 87.590 178.5071
1536.446302 87.638 178.5829
1547.580025 87.685 178.6680
1558.794428 87.731 178.7621
1570.090095 87.777 178.8649
1581.467615 87.821 178.9753
1592.927581 87.864 179.0914
1604.470591 87.905 179.2108
1616.097246 87.943 179.3306
1627.808153 87.980 179.4487
1639.603922 88.013 179.5639
1651.485168 88.043 179.6768
1663.452510 88.069 179.7896
1675.506573 88.091 179.9061
1687.647984 88.109 -179.9692
1699.877377 88.123 -179.8321
1712.195390 88.135 -179.6794
1724.602663 88.145 -179.5095
1737.099845 88.154 -179.3230
1749.687587 88.164 -179.1220
1762.366544 88.173 -178.9097
1775.137379 88.184 -178.6897
1788.000756 88.196 -178.4656
1800.957346 88.210 -178.2412
1814.007826 88.224 -178.0204
1827.152874 88.239 -177.8065
1840.393177 88.254 -177.6021
1853.729425 88.269 -177.4086
1867.162312 88.282 -177.2260
1880.692540 88.294 -177.0531
1894.320813 88.304 -176.8882
1908.047843 88.312 -176.7294
1921.874344 88.317 -176.5748
1935.801038 88.319 -176.4229
1949.828650 88.320 -176.2725
1963.957912 88.317 -176.1228
1978.189561 88.313 -175.9731
1992.524338 88.306 -175.8233
2006.962991 88.299 -175.6746
2021.506272 88.290 -175.5288
2036.154940 88.280 -175.3885
2050.909758 88.270 -175.2561
2065.771495 88.259 -175.1338
2080.740927 88.248 -175.0229
2095.818833 88.236 -174.9242
2111.006001 88.224 -174.8379
2126.303220 88.211 -174.7638
2141.711290 88.198 -174.7005
2157.231013 88.184 -174.6460
2172.863198 88.169 -174.5976
2188.608660 88.154 -174.5529
2204.468221 88.140 -174.5104
2220.442706 88.126 -174.4697
2236.532950 88.113 -174.4318
2252.739789 88.102 -174.3985
2269.064070 88.092 -174.3720
2285.506644 88.085 -174.3545
2302.068367 88.078 -174.3474
2318.750104 88.073 -174.3513
2335.552723 88.069 -174.3657
2352.477101 88.066 -174.3892
2369.524119 88.064 -174.4196
2386.694668 88.063 -174.4544
2403.989641 88.064 -174.4915
2421.409941 88.066 -174.5296
2438.956476 88.070 -174.5678
2456.630160 88.077 -174.6062
2474.431915 88.087 -174.6456
2492.362668 88.101 -174.6873
2510.423356 88.118 -174.7334
2528.614918 88.139 -174.7856
2546.938304 88.163 -174.8455
2565.394469 88.191 -174.9135
2583.984375 88.222 -174.9890
2602.708991 88.255 -175.0707
2621.569293 88.291 -175.1563
2640.566265 88.330 -175.2440
2659.700897 88.372 -175.3321
2678.974186 88.417 -175.4200
2698.387137 88.465 -175.5076
2717.940763 88.516 -175.5957
2737.636082 88.571 -175.6857
2757.474121 88.629 -175.7794
2777.455915 88.690 -175.8789
2797.582506 88.753 -175.9867
2817.854942 88.819 -176.1051
2838.274281 88.887 -176.2357
2858.841586 88.955 -176.3792
2879.557931 89.024 -176.5356
2900.424394 89.092 -176.7039
2921.442065 89.158 -176.8832
2942.612039 89.223 -177.0725
2963.935418 89.286 -177.2706
2985.413316 89.345 -177.4758
3007.046852 89.401 -177.6869
3028.837153 89.452 -177.9021
3050.785356 89.499 -178.1200
3072.892604 89.540 -178.3390
3095.160050 89.576 -178.5579
3117.588856 89.606 -178.7756
3140.180190 89.630 -178.9916
3162.935230 89.647 -179.2057
3185.855163 89.658 -179.4180
3208.941182 89.662 -179.6293
3232.194493 89.659 -179.8399
3255.616307 89.648 179.9498
3279.207844 89.630 179.7400
3302.970336 89.605 179.5314
3326.905021 89.571 179.3256
3351.013146 89.529 179.1243
3375.295969 89.479 178.9298
3399.754755 89.422 178.7443
