* Measurement data measured by REW V5.31.3
* Source: EXCL: Headset (USB-C to 3.5mm Headphone Jack Adapter), MICROPHONE (Master Volume), 0, volume: 0.750
* Format: 256k Log Swept Sine, 1 sweep at -12.0 dBFS with no timing reference
* Dated: Apr 7, 2025 12:15:15 PM
* REW Settings:
*  C-weighting compensation: Off
*  Target level: 75.0 dB
* Note: ; 
* Measurement: HD6XX (Back) L7
* Smoothing: 1/6 octave
* Frequency Step: 96 ppo
* Start Frequency: 20.0 Hz
*
* Freq(Hz) SPL(dB) Phase(degrees)
20.187378 78.845 -95.8371
20.333664 78.864 -95.9103
20.481010 78.891 -96.0065
20.629424 78.925 -96.1204
20.778913 78.967 -96.2467
20.929486 79.017 -96.3809
21.081150 79.076 -96.5195
21.233912 79.143 -96.6609
21.387782 79.220 -96.8055
21.542767 79.306 -96.9556
21.698874 79.400 -97.1151
21.856113 79.501 -97.2894
22.014492 79.609 -97.4841
22.174018 79.720 -97.7047
22.334700 79.834 -97.9560
22.496546 79.947 -98.2411
22.659566 80.058 -98.5617
22.823766 80.164 -98.9174
22.989157 80.264 -99.3061
23.155745 80.355 -99.7242
23.323542 80.438 -100.1670
23.492554 80.510 -100.6290
23.662790 80.573 -101.1046
23.834261 80.626 -101.5881
24.006973 80.669 -102.0737
24.180938 80.703 -102.5563
24.356163 80.729 -103.0307
24.532658 80.748 -103.4919
24.710431 80.761 -103.9348
24.889493 80.769 -104.3549
25.069853 80.773 -104.7476
25.251519 80.775 -105.1093
25.434502 80.777 -105.4377
25.618811 80.781 -105.7325
25.804456 80.788 -105.9962
25.991445 80.801 -106.2339
26.179790 80.822 -106.4539
26.369500 80.852 -106.6670
26.560584 80.892 -106.8856
26.753053 80.942 -107.1221
26.946917 81.002 -107.3878
27.142185 81.071 -107.6914
27.338869 81.148 -108.0377
27.536977 81.231 -108.4271
27.736522 81.317 -108.8561
27.937512 81.405 -109.3172
28.139959 81.494 -109.8007
28.343872 81.581 -110.2951
28.549264 81.667 -110.7888
28.756143 81.749 -111.2712
28.964522 81.827 -111.7327
29.174411 81.901 -112.1657
29.385821 81.969 -112.5646
29.598763 82.033 -112.9257
29.813248 82.092 -113.2471
30.029287 82.145 -113.5289
30.246891 82.195 -113.7735
30.466073 82.241 -113.9853
30.686842 82.286 -114.1715
30.909212 82.330 -114.3412
31.133193 82.376 -114.5056
31.358797 82.423 -114.6768
31.586035 82.473 -114.8663
31.814921 82.527 -115.0842
32.045465 82.584 -115.3370
32.277680 82.645 -115.6276
32.511577 82.709 -115.9542
32.747169 82.776 -116.3111
32.984469 82.845 -116.6895
33.223488 82.917 -117.0786
33.464239 82.992 -117.4676
33.706735 83.070 -117.8465
33.950987 83.151 -118.2077
34.197010 83.236 -118.5467
34.444816 83.325 -118.8620
34.694417 83.417 -119.1550
34.945827 83.512 -119.4293
35.199059 83.609 -119.6902
35.454126 83.707 -119.9436
35.711041 83.806 -120.1957
35.969818 83.904 -120.4520
36.230470 84.002 -120.7179
36.493011 84.098 -120.9978
36.757455 84.194 -121.2959
37.023814 84.288 -121.6157
37.292104 84.381 -121.9602
37.562338 84.472 -122.3315
37.834530 84.561 -122.7306
38.108695 84.647 -123.1569
38.384846 84.728 -123.6087
38.662999 84.806 -124.0829
38.943167 84.878 -124.5755
39.225365 84.947 -125.0825
39.509608 85.011 -125.6000
39.795911 85.074 -126.1244
40.084289 85.135 -126.6521
40.374756 85.196 -127.1790
40.667328 85.260 -127.6999
40.962020 85.327 -128.2084
41.258848 85.397 -128.6975
41.557827 85.471 -129.1605
41.858972 85.549 -129.5928
42.162299 85.629 -129.9928
42.467824 85.709 -130.3628
42.775564 85.787 -130.7084
43.085533 85.860 -131.0370
43.397749 85.925 -131.3564
43.712227 85.981 -131.6731
44.028983 86.027 -131.9917
44.348036 86.064 -132.3140
44.669400 86.093 -132.6405
44.993093 86.117 -132.9704
45.319131 86.139 -133.3019
45.647532 86.161 -133.6326
45.978313 86.185 -133.9590
46.311491 86.212 -134.2765
46.647083 86.241 -134.5796
46.985107 86.271 -134.8634
47.325581 86.300 -135.1249
47.668521 86.328 -135.3648
48.013947 86.354 -135.5877
48.361876 86.378 -135.8018
48.712326 86.399 -136.0173
49.065315 86.418 -136.2445
49.420863 86.435 -136.4915
49.778987 86.450 -136.7629
50.139706 86.463 -137.0591
50.503039 86.475 -137.3766
50.869005 86.486 -137.7092
51.237623 86.496 -138.0486
51.608912 86.505 -138.3867
51.982891 86.514 -138.7167
52.359580 86.524 -139.0345
52.739000 86.536 -139.3391
53.121168 86.549 -139.6325
53.506106 86.566 -139.9177
53.893833 86.586 -140.1979
54.284370 86.607 -140.4749
54.677737 86.630 -140.7484
55.073955 86.652 -141.0165
55.473043 86.675 -141.2762
55.875024 86.696 -141.5242
56.279917 86.715 -141.7575
56.687745 86.733 -141.9738
57.098527 86.749 -142.1717
57.512287 86.764 -142.3518
57.929045 86.778 -142.5170
58.348822 86.793 -142.6730
58.771642 86.809 -142.8289
59.197525 86.828 -142.9952
59.626495 86.850 -143.1822
60.058573 86.876 -143.3975
60.493782 86.907 -143.6442
60.932145 86.941 -143.9210
61.373685 86.979 -144.2229
61.818424 87.021 -144.5434
62.266386 87.066 -144.8763
62.717593 87.114 -145.2169
63.172071 87.165 -145.5620
63.629842 87.218 -145.9095
64.090930 87.273 -146.2574
64.555359 87.329 -146.6041
65.023154 87.386 -146.9477
65.494339 87.444 -147.2868
65.968938 87.503 -147.6203
66.446976 87.561 -147.9479
66.928478 87.620 -148.2696
67.413469 87.677 -148.5863
67.901975 87.734 -148.8988
68.394021 87.789 -149.2084
68.889632 87.842 -149.5161
69.388835 87.894 -149.8230
69.891655 87.943 -150.1299
70.398118 87.990 -150.4373
70.908252 88.034 -150.7456
71.422083 88.075 -151.0548
71.939636 88.112 -151.3647
72.460941 88.146 -151.6751
72.986023 88.176 -151.9855
73.514909 88.203 -152.2957
74.047629 88.227 -152.6056
74.584208 88.249 -152.9153
75.124676 88.268 -153.2248
75.669061 88.284 -153.5343
76.217390 88.299 -153.8439
76.769692 88.312 -154.1536
77.325997 88.323 -154.4639
77.886333 88.332 -154.7747
78.450730 88.341 -155.0866
79.019216 88.348 -155.3997
79.591822 88.353 -155.7146
80.168577 88.358 -156.0315
80.749512 88.361 -156.3505
81.334656 88.363 -156.6712
81.924040 88.364 -156.9931
82.517696 88.364 -157.3153
83.115653 88.363 -157.6370
83.717943 88.361 -157.9576
84.324598 88.359 -158.2765
84.935649 88.357 -158.5934
85.551128 88.354 -158.9079
86.171066 88.352 -159.2202
86.795497 88.350 -159.5306
87.424453 88.348 -159.8400
88.057967 88.347 -160.1492
88.696071 88.345 -160.4588
89.338800 88.343 -160.7691
89.986185 88.341 -161.0793
90.638262 88.340 -161.3879
91.295065 88.338 -161.6928
91.956626 88.336 -161.9920
92.622982 88.335 -162.2843
93.294166 88.333 -162.5694
93.970214 88.331 -162.8480
94.651161 88.329 -163.1216
95.337042 88.327 -163.3919
96.027894 88.325 -163.6604
96.723752 88.323 -163.9284
97.424652 88.321 -164.1966
98.130631 88.319 -164.4654
98.841726 88.318 -164.7346
99.557974 88.318 -165.0043
100.279412 88.319 -165.2740
101.006078 88.321 -165.5435
101.738010 88.324 -165.8127
102.475245 88.328 -166.0817
103.217823 88.332 -166.3504
103.965782 88.336 -166.6187
104.719161 88.341 -166.8854
105.477999 88.345 -167.1491
106.242336 88.349 -167.4081
107.012212 88.354 -167.6609
107.787666 88.358 -167.9071
108.568740 88.362 -168.1466
109.355474 88.367 -168.3805
110.147909 88.372 -168.6100
110.946086 88.378 -168.8369
111.750047 88.385 -169.0632
112.559834 88.394 -169.2910
113.375489 88.403 -169.5220
114.197055 88.413 -169.7578
115.024574 88.425 -169.9992
115.858089 88.437 -170.2464
116.697645 88.449 -170.4991
117.543284 88.462 -170.7563
118.395051 88.475 -171.0170
119.252990 88.487 -171.2798
120.117147 88.499 -171.5439
120.987565 88.510 -171.8081
121.864291 88.520 -172.0719
122.747370 88.530 -172.3344
123.636848 88.540 -172.5954
124.532771 88.549 -172.8544
125.435187 88.559 -173.1108
126.344142 88.569 -173.3647
127.259684 88.579 -173.6160
128.181860 88.589 -173.8647
129.110718 88.599 -174.1108
130.046308 88.608 -174.3541
130.988677 88.616 -174.5946
131.937875 88.621 -174.8326
132.893951 88.623 -175.0691
133.856956 88.620 -175.3050
134.826938 88.614 -175.5414
135.803950 88.605 -175.7787
136.788041 88.594 -176.0169
137.779264 88.581 -176.2551
138.777669 88.567 -176.4920
139.783309 88.553 -176.7258
140.796237 88.538 -176.9547
141.816504 88.522 -177.1781
142.844165 88.506 -177.3959
143.879273 88.488 -177.6088
144.921881 88.470 -177.8176
145.972045 88.451 -178.0234
147.029819 88.431 -178.2268
148.095257 88.410 -178.4284
149.168417 88.389 -178.6281
150.249353 88.368 -178.8259
151.338121 88.347 -179.0219
152.434780 88.326 -179.2166
153.539385 88.306 -179.4108
154.651995 88.286 -179.6054
155.772667 88.266 -179.8016
156.901460 88.246 179.9999
158.038432 88.226 179.7988
159.183644 88.206 179.5955
160.337154 88.186 179.3909
161.499023 88.166 179.1862
162.669312 88.146 178.9825
163.848081 88.126 178.7804
165.035392 88.106 178.5800
166.231306 88.086 178.3815
167.435887 88.066 178.1847
168.649196 88.047 177.9895
169.871298 88.028 177.7957
171.102255 88.009 177.6035
172.342133 87.990 177.4135
173.590995 87.971 177.2262
174.848907 87.953 177.0424
176.115934 87.934 176.8624
177.392143 87.914 176.6862
178.677599 87.894 176.5132
179.972371 87.874 176.3429
181.276525 87.853 176.1747
182.590129 87.831 176.0081
183.913252 87.809 175.8430
185.245964 87.786 175.6794
186.588332 87.762 175.5177
187.940428 87.737 175.3583
189.302322 87.712 175.2020
190.674085 87.686 175.0491
192.055788 87.660 174.8998
193.447503 87.633 174.7538
194.849303 87.606 174.6107
196.261262 87.579 174.4700
197.683452 87.552 174.3307
199.115948 87.525 174.1921
200.558824 87.498 174.0532
202.012156 87.470 173.9132
203.476019 87.443 173.7721
204.950490 87.416 173.6303
206.435646 87.388 173.4890
207.931564 87.362 173.3492
209.438322 87.336 173.2123
210.955998 87.310 173.0787
212.484672 87.286 172.9491
214.024424 87.262 172.8233
215.575333 87.238 172.7015
217.137481 87.215 172.5837
218.710948 87.193 172.4698
220.295818 87.171 172.3592
221.892172 87.150 172.2515
223.500094 87.129 172.1460
225.119668 87.109 172.0420
226.750978 87.091 171.9387
228.394109 87.073 171.8351
230.049147 87.057 171.7309
231.716178 87.042 171.6259
233.395289 87.029 171.5208
235.086567 87.017 171.4174
236.790102 87.008 171.3177
238.505980 87.000 171.2234
240.234293 86.993 171.1354
241.975130 86.988 171.0531
243.728581 86.984 170.9751
245.494739 86.982 170.8997
247.273695 86.980 170.8256
249.065542 86.980 170.7518
250.870374 86.980 170.6781
252.688284 86.980 170.6044
254.519367 86.981 170.5311
256.363720 86.981 170.4587
258.221437 86.982 170.3879
260.092616 86.981 170.3195
261.977354 86.979 170.2537
263.875750 86.976 170.1902
265.787903 86.972 170.1280
267.713911 86.965 170.0659
269.653877 86.958 170.0028
271.607900 86.949 169.9376
273.576083 86.939 169.8702
275.558528 86.928 169.8011
277.555338 86.918 169.7311
279.566619 86.908 169.6615
281.592474 86.898 169.5933
283.633009 86.889 169.5270
285.688331 86.880 169.4633
287.758546 86.873 169.4021
289.843763 86.866 169.3430
291.944090 86.860 169.2859
294.059638 86.854 169.2303
296.190515 86.850 169.1761
298.336833 86.846 169.1229
300.498705 86.843 169.0706
302.676243 86.840 169.0190
304.869559 86.838 168.9684
307.078770 86.837 168.9191
309.303989 86.836 168.8716
311.545334 86.836 168.8264
313.802919 86.836 168.7837
316.076865 86.836 168.7438
318.367288 86.837 168.7070
320.674309 86.837 168.6735
322.998047 86.837 168.6428
325.338624 86.836 168.6145
327.696162 86.835 168.5879
330.070783 86.834 168.5624
332.462612 86.832 168.5380
334.871773 86.829 168.5150
337.298392 86.826 168.4939
339.742595 86.823 168.4750
342.204510 86.820 168.4586
344.684265 86.815 168.4442
347.181989 86.810 168.4313
349.697813 86.804 168.4194
352.231868 86.797 168.4078
354.784285 86.789 168.3966
357.355198 86.779 168.3860
359.944741 86.769 168.3769
362.553049 86.757 168.3698
365.180258 86.745 168.3651
367.826505 86.731 168.3626
370.491927 86.717 168.3616
373.176665 86.702 168.3615
375.880856 86.687 168.3615
378.604644 86.671 168.3617
381.348169 86.655 168.3622
384.111575 86.638 168.3637
386.895006 86.621 168.3668
389.698607 86.603 168.3716
392.522524 86.585 168.3778
395.366904 86.567 168.3849
398.231895 86.549 168.3920
401.117648 86.530 168.3983
404.024312 86.511 168.4032
406.952038 86.492 168.4062
409.900981 86.471 168.4070
412.871292 86.451 168.4057
415.863128 86.429 168.4030
418.876643 86.406 168.3997
421.911996 86.382 168.3974
424.969344 86.357 168.3973
428.048847 86.330 168.4008
431.150666 86.302 168.4088
434.274961 86.273 168.4217
437.421897 86.242 168.4395
440.591636 86.209 168.4620
443.784345 86.175 168.4891
447.000189 86.140 168.5204
450.239337 86.104 168.5557
453.501956 86.067 168.5944
456.788219 86.030 168.6362
460.098294 85.993 168.6805
463.432356 85.957 168.7269
466.790578 85.921 168.7747
470.173135 85.886 168.8228
473.580203 85.852 168.8702
477.011961 85.820 168.9162
480.468586 85.789 168.9600
483.950259 85.759 169.0016
487.457163 85.730 169.0407
490.989478 85.702 169.0778
494.547390 85.676 169.1131
498.131084 85.650 169.1471
501.740748 85.626 169.1803
505.376568 85.603 169.2132
509.038735 85.582 169.2460
512.727439 85.562 169.2789
516.442874 85.544 169.3121
520.185232 85.527 169.3453
523.954708 85.512 169.3785
527.751500 85.499 169.4114
531.575805 85.487 169.4439
535.427822 85.477 169.4757
539.307753 85.469 169.5065
543.215800 85.462 169.5362
547.152165 85.456 169.5652
551.117055 85.452 169.5942
555.110677 85.449 169.6241
559.133237 85.448 169.6560
563.184947 85.448 169.6911
567.266018 85.449 169.7302
571.376661 85.451 169.7742
575.517092 85.455 169.8236
579.687526 85.461 169.8790
583.888181 85.467 169.9406
588.119275 85.474 170.0079
592.381030 85.482 170.0804
596.673667 85.491 170.1572
600.997410 85.500 170.2370
605.352485 85.509 170.3188
609.739119 85.518 170.4011
614.157540 85.527 170.4829
618.607979 85.535 170.5632
623.090667 85.542 170.6410
627.605839 85.547 170.7159
632.153730 85.552 170.7877
636.734576 85.555 170.8564
641.348617 85.557 170.9225
645.996094 85.557 170.9871
650.677248 85.555 171.0511
655.392323 85.553 171.1160
660.141566 85.549 171.1825
664.925224 85.543 171.2512
669.743546 85.537 171.3218
674.596784 85.530 171.3938
679.485191 85.522 171.4664
684.409020 85.514 171.5387
689.368530 85.504 171.6103
694.363979 85.494 171.6812
699.395626 85.483 171.7517
704.463736 85.471 171.8227
709.568570 85.458 171.8951
714.710396 85.444 171.9696
719.889483 85.429 172.0468
725.106099 85.413 172.1263
730.360516 85.396 172.2072
735.653010 85.380 172.2878
740.983855 85.362 172.3664
746.353329 85.344 172.4408
751.761713 85.326 172.5092
757.209288 85.307 172.5703
762.696339 85.287 172.6231
768.223151 85.267 172.6674
773.790013 85.246 172.7028
779.397214 85.224 172.7297
785.045047 85.201 172.7482
790.733808 85.177 172.7585
796.463791 85.152 172.7612
802.235296 85.125 172.7567
808.048623 85.097 172.7457
813.904077 85.068 172.7293
819.801961 85.037 172.7088
825.742584 85.005 172.6860
831.726255 84.970 172.6633
837.753287 84.934 172.6433
843.823992 84.896 172.6296
849.938689 84.855 172.6258
856.097695 84.813 172.6364
862.301332 84.768 172.6661
868.549922 84.722 172.7198
874.843793 84.675 172.8021
881.183272 84.628 172.9165
887.568689 84.582 173.0655
894.000378 84.537 173.2493
900.478673 84.497 173.4660
907.003913 84.461 173.7118
913.576437 84.431 173.9810
920.196588 84.407 174.2665
926.864712 84.391 174.5608
933.581156 84.382 174.8563
940.346270 84.380 175.1462
947.160407 84.385 175.4246
954.023921 84.396 175.6868
960.937172 84.413 175.9296
967.900519 84.434 176.1512
974.914325 84.460 176.3511
981.978956 84.490 176.5300
989.094780 84.523 176.6893
996.262169 84.558 176.8313
1003.481495 84.596 176.9581
1010.753136 84.636 177.0719
1018.077470 84.677 177.1742
1025.454879 84.721 177.2661
1032.885748 84.766 177.3479
1040.370463 84.813 177.4197
1047.909417 84.862 177.4813
1055.503000 84.911 177.5326
1063.151610 84.961 177.5741
1070.855645 85.012 177.6068
1078.615506 85.062 177.6322
1086.431599 85.113 177.6526
1094.304330 85.163 177.6700
1102.234110 85.213 177.6861
1110.221353 85.263 177.7020
1118.266475 85.313 177.7178
1126.369895 85.363 177.7332
1134.532035 85.412 177.7470
1142.753322 85.461 177.7583
1151.034184 85.510 177.7662
1159.375052 85.558 177.7703
1167.776361 85.605 177.7709
1176.238550 85.651 177.7689
1184.762060 85.697 177.7654
1193.347334 85.742 177.7614
1201.994821 85.786 177.7575
1210.704971 85.830 177.7540
1219.478238 85.874 177.7505
1228.315080 85.918 177.7463
1237.215957 85.962 177.7407
1246.181334 86.006 177.7332
1255.211678 86.050 177.7236
1264.307459 86.093 177.7122
1273.469152 86.137 177.6995
1282.697235 86.180 177.6863
1291.992188 86.222 177.6732
1301.354495 86.264 177.6606
1310.784647 86.306 177.6486
1320.283132 86.348 177.6369
1329.850448 86.390 177.6249
1339.487093 86.431 177.6120
1349.193569 86.472 177.5982
1358.970381 86.513 177.5834
1368.818041 86.554 177.5680
1378.737061 86.595 177.5520
1388.727958 86.636 177.5358
1398.791253 86.677 177.5195
1408.927471 86.718 177.5035
1419.137140 86.760 177.4882
1429.420793 86.802 177.4742
1439.778965 86.844 177.4632
1450.212197 86.887 177.4569
1460.721033 86.929 177.4577
1471.306019 86.972 177.4678
1481.967709 87.015 177.4891
1492.706658 87.058 177.5227
1503.523426 87.102 177.5688
1514.418576 87.146 177.6274
1525.392678 87.190 177.6982
1536.446302 87.234 177.7806
1547.580025 87.278 177.8744
1558.794428 87.321 177.9788
1570.090095 87.363 178.0927
1581.467615 87.404 178.2147
1592.927581 87.444 178.3423
1604.470591 87.482 178.4732
1616.097246 87.518 178.6046
1627.808153 87.552 178.7347
1639.603922 87.582 178.8626
1651.485168 87.608 178.9891
1663.452510 87.631 179.1169
1675.506573 87.649 179.2500
1687.647984 87.664 179.3930
1699.877377 87.676 179.5499
1712.195390 87.685 179.7237
1724.602663 87.692 179.9151
1737.099845 87.699 -179.8768
1749.687587 87.705 -179.6542
1762.366544 87.713 -179.4203
1775.137379 87.721 -179.1785
1788.000756 87.730 -178.9322
1800.957346 87.741 -178.6848
1814.007826 87.752 -178.4396
1827.152874 87.764 -178.1994
1840.393177 87.775 -177.9662
1853.729425 87.787 -177.7405
1867.162312 87.797 -177.5220
1880.692540 87.806 -177.3096
1894.320813 87.813 -177.1018
1908.047843 87.819 -176.8973
1921.874344 87.822 -176.6949
1935.801038 87.824 -176.4937
1949.828650 87.823 -176.2928
1963.957912 87.821 -176.0918
1978.189561 87.817 -175.8909
1992.524338 87.812 -175.6914
2006.962991 87.806 -175.4955
2021.506272 87.799 -175.3060
2036.154940 87.792 -175.1255
2050.909758 87.784 -174.9559
2065.771495 87.776 -174.7981
2080.740927 87.766 -174.6521
2095.818833 87.756 -174.5173
2111.006001 87.746 -174.3930
2126.303220 87.734 -174.2778
2141.711290 87.722 -174.1699
2157.231013 87.710 -174.0670
2172.863198 87.698 -173.9672
2188.608660 87.686 -173.8693
2204.468221 87.675 -173.7736
2220.442706 87.666 -173.6814
2236.532950 87.658 -173.5952
2252.739789 87.653 -173.5180
2269.064070 87.650 -173.4527
2285.506644 87.649 -173.4017
2302.068367 87.649 -173.3662
2318.750104 87.650 -173.3460
2335.552723 87.652 -173.3396
2352.477101 87.655 -173.3444
2369.524119 87.658 -173.3572
2386.694668 87.662 -173.3747
2403.989641 87.667 -173.3941
2421.409941 87.673 -173.4134
2438.956476 87.681 -173.4314
2456.630160 87.692 -173.4479
2474.431915 87.707 -173.4637
2492.362668 87.724 -173.4805
2510.423356 87.746 -173.5003
2528.614918 87.771 -173.5252
2546.938304 87.800 -173.5562
2565.394469 87.833 -173.5938
2583.984375 87.869 -173.6372
2602.708991 87.908 -173.6852
2621.569293 87.950 -173.7360
2640.566265 87.995 -173.7882
2659.700897 88.044 -173.8411
2678.974186 88.096 -173.8946
2698.387137 88.152 -173.9495
2717.940763 88.211 -174.0070
2737.636082 88.275 -174.0689
2757.474121 88.341 -174.1370
2777.455915 88.411 -174.2137
2797.582506 88.484 -174.3015
2817.854942 88.559 -174.4030
2838.274281 88.636 -174.5198
2858.841586 88.714 -174.6527
2879.557931 88.792 -174.8015
2900.424394 88.869 -174.9653
2921.442065 88.945 -175.1430
2942.612039 89.018 -175.3331
2963.935418 89.089 -175.5339
2985.413316 89.157 -175.7433
3007.046852 89.220 -175.9594
3028.837153 89.279 -176.1801
3050.785356 89.333 -176.4034
3072.892604 89.382 -176.6276
3095.160050 89.425 -176.8511
3117.588856 89.462 -177.0729
3140.180190 89.493 -177.2926
3162.935230 89.517 -177.5101
3185.855163 89.535 -177.7259
3208.941182 89.547 -177.9409
3232.194493 89.551 -178.1556
3255.616307 89.549 -178.3703
3279.207844 89.539 -178.5847
3302.970336 89.521 -178.7983
3326.905021 89.496 -179.0101
3351.013146 89.464 -179.2192
3375.295969 89.424 -179.4244
3399.754755 89.377 -179.6245
