* Measurement data measured by REW V5.31.3
* Source: EXCL: Headset (USB-C to 3.5mm Headphone Jack Adapter), MICROPHONE (Master Volume), 0, volume: 0.750
* Format: 256k Log Swept Sine, 1 sweep at -12.0 dBFS with no timing reference
* Dated: Apr 1, 2025 10:16:50 PM
* REW Settings:
*  C-weighting compensation: Off
*  Target level: 75.0 dB
* Note: ; 
* Measurement: HD6XX R8
* Smoothing: 1/6 octave
* Frequency Step: 96 ppo
* Start Frequency: 20.0 Hz
*
* Freq(Hz) SPL(dB) Phase(degrees)
20.033247 84.411 -93.6343
20.178416 84.485 -93.9417
20.324637 84.562 -94.2591
20.471918 84.641 -94.5854
20.620266 84.724 -94.9183
20.769689 84.808 -95.2539
20.920195 84.895 -95.5874
21.071791 84.983 -95.9135
21.224486 85.073 -96.2267
21.378287 85.166 -96.5217
21.533203 85.261 -96.7947
21.689242 85.360 -97.0430
21.846411 85.462 -97.2664
22.004719 85.569 -97.4669
22.164174 85.680 -97.6489
22.324785 85.795 -97.8191
22.486559 85.913 -97.9857
22.649506 86.035 -98.1581
22.813634 86.157 -98.3451
22.978951 86.279 -98.5550
23.145466 86.399 -98.7938
23.313188 86.515 -99.0651
23.482124 86.624 -99.3698
23.652286 86.726 -99.7059
23.823680 86.820 -100.0691
23.996316 86.904 -100.4532
24.170203 86.978 -100.8517
24.345351 87.043 -101.2574
24.521767 87.100 -101.6642
24.699462 87.149 -102.0673
24.878444 87.192 -102.4633
25.058724 87.229 -102.8505
25.240310 87.262 -103.2286
25.423211 87.291 -103.5980
25.607438 87.318 -103.9595
25.793000 87.342 -104.3137
25.979907 87.364 -104.6603
26.168168 87.384 -104.9985
26.357794 87.403 -105.3270
26.548793 87.421 -105.6442
26.741176 87.439 -105.9489
26.934954 87.457 -106.2404
27.130136 87.476 -106.5198
27.326732 87.497 -106.7892
27.524753 87.520 -107.0520
27.724208 87.546 -107.3124
27.925110 87.574 -107.5748
28.127466 87.605 -107.8430
28.331290 87.637 -108.1196
28.536590 87.671 -108.4059
28.743378 87.705 -108.7017
28.951664 87.740 -109.0056
29.161460 87.776 -109.3158
29.372776 87.812 -109.6301
29.585623 87.849 -109.9470
29.800013 87.887 -110.2657
30.015956 87.927 -110.5863
30.233464 87.970 -110.9099
30.452548 88.016 -111.2378
30.673220 88.064 -111.5713
30.895490 88.116 -111.9114
31.119372 88.171 -112.2586
31.344876 88.230 -112.6124
31.572014 88.292 -112.9720
31.800797 88.358 -113.3362
32.031239 88.428 -113.7036
32.263351 88.501 -114.0730
32.497144 88.579 -114.4434
32.732632 88.660 -114.8138
32.969826 88.745 -115.1838
33.208739 88.834 -115.5522
33.449383 88.926 -115.9182
33.691771 89.021 -116.2809
33.935916 89.119 -116.6394
34.181829 89.219 -116.9933
34.429525 89.322 -117.3433
34.679015 89.427 -117.6904
34.930314 89.533 -118.0368
35.183433 89.641 -118.3851
35.438387 89.749 -118.7380
35.695188 89.857 -119.0971
35.953850 89.963 -119.4630
36.214387 90.066 -119.8344
36.476811 90.166 -120.2086
36.741137 90.263 -120.5815
37.007378 90.356 -120.9484
37.275549 90.444 -121.3052
37.545663 90.530 -121.6489
37.817734 90.613 -121.9783
38.091777 90.694 -122.2938
38.367806 90.773 -122.5978
38.645835 90.851 -122.8936
38.925879 90.928 -123.1848
39.207952 91.004 -123.4753
39.492069 91.079 -123.7686
39.778244 91.153 -124.0679
40.066494 91.226 -124.3763
40.356832 91.299 -124.6974
40.649275 91.370 -125.0342
40.943836 91.439 -125.3892
41.240532 91.507 -125.7638
41.539378 91.572 -126.1575
41.840389 91.634 -126.5680
42.143582 91.693 -126.9918
42.448972 91.748 -127.4241
42.756574 91.800 -127.8604
43.066406 91.850 -128.2966
43.378483 91.897 -128.7296
43.692822 91.943 -129.1570
44.009438 91.986 -129.5767
44.328348 92.029 -129.9869
44.649570 92.070 -130.3860
44.973119 92.110 -130.7731
45.299013 92.150 -131.1485
45.627268 92.190 -131.5140
45.957902 92.230 -131.8722
46.290932 92.269 -132.2260
46.626375 92.306 -132.5771
46.964249 92.342 -132.9263
47.304571 92.376 -133.2723
47.647360 92.407 -133.6133
47.992632 92.435 -133.9474
48.340407 92.461 -134.2737
48.690701 92.485 -134.5924
49.043534 92.506 -134.9048
49.398924 92.526 -135.2126
49.756889 92.545 -135.5176
50.117447 92.561 -135.8217
50.480619 92.577 -136.1265
50.846423 92.591 -136.4338
51.214877 92.604 -136.7448
51.586001 92.616 -137.0599
51.959814 92.626 -137.3789
52.336336 92.635 -137.7004
52.715587 92.642 -138.0230
53.097586 92.649 -138.3452
53.482353 92.655 -138.6659
53.869908 92.661 -138.9846
54.260272 92.666 -139.3008
54.653464 92.670 -139.6133
55.049506 92.675 -139.9208
55.448417 92.679 -140.2214
55.850219 92.683 -140.5134
56.254933 92.687 -140.7950
56.662579 92.691 -141.0657
57.073180 92.697 -141.3253
57.486755 92.704 -141.5742
57.903328 92.714 -141.8138
58.322919 92.725 -142.0454
58.745551 92.740 -142.2710
59.171246 92.757 -142.4924
59.600025 92.779 -142.7120
60.031911 92.804 -142.9319
60.466927 92.833 -143.1539
60.905096 92.866 -143.3795
61.346439 92.903 -143.6094
61.790981 92.944 -143.8439
62.238744 92.989 -144.0829
62.689751 93.037 -144.3264
63.144027 93.088 -144.5745
63.601595 93.142 -144.8271
64.062478 93.199 -145.0844
64.526701 93.257 -145.3463
64.994288 93.317 -145.6130
65.465264 93.377 -145.8848
65.939652 93.437 -146.1613
66.417478 93.497 -146.4424
66.898766 93.556 -146.7275
67.383542 93.614 -147.0162
67.871831 93.670 -147.3080
68.363659 93.725 -147.6028
68.859050 93.778 -147.9005
69.358031 93.829 -148.2010
69.860628 93.878 -148.5038
70.366867 93.925 -148.8085
70.876774 93.970 -149.1143
71.390376 94.013 -149.4208
71.907700 94.054 -149.7275
72.428773 94.093 -150.0345
72.953622 94.130 -150.3419
73.482274 94.165 -150.6498
74.014757 94.197 -150.9587
74.551098 94.227 -151.2686
75.091326 94.254 -151.5795
75.635469 94.279 -151.8913
76.183555 94.300 -152.2037
76.735612 94.319 -152.5165
77.291670 94.336 -152.8298
77.851757 94.350 -153.1436
78.415903 94.361 -153.4579
78.984137 94.372 -153.7732
79.556489 94.380 -154.0895
80.132988 94.388 -154.4070
80.713665 94.395 -154.7257
81.298549 94.401 -155.0453
81.887672 94.407 -155.3654
82.481064 94.412 -155.6857
83.078756 94.417 -156.0054
83.680778 94.422 -156.3242
84.287164 94.426 -156.6415
84.897943 94.429 -156.9568
85.513149 94.432 -157.2700
86.132812 94.434 -157.5810
86.756966 94.436 -157.8899
87.385643 94.437 -158.1970
88.018875 94.438 -158.5026
88.656696 94.438 -158.8072
89.299139 94.439 -159.1112
89.946238 94.438 -159.4150
90.598025 94.438 -159.7188
91.254536 94.437 -160.0226
91.915804 94.437 -160.3268
92.581864 94.436 -160.6313
93.252750 94.434 -160.9359
93.928498 94.432 -161.2405
94.609143 94.430 -161.5446
95.294719 94.427 -161.8477
95.985264 94.424 -162.1495
96.680813 94.420 -162.4496
97.381402 94.416 -162.7480
98.087068 94.411 -163.0446
98.797847 94.407 -163.3397
99.513777 94.402 -163.6334
100.234895 94.399 -163.9258
100.961238 94.395 -164.2169
101.692845 94.393 -164.5065
102.429753 94.391 -164.7945
103.172002 94.390 -165.0806
103.919628 94.391 -165.3646
104.672673 94.392 -165.6464
105.431174 94.395 -165.9258
106.195172 94.398 -166.2032
106.964706 94.403 -166.4788
107.739816 94.408 -166.7529
108.520543 94.414 -167.0261
109.306928 94.421 -167.2988
110.099011 94.429 -167.5710
110.896834 94.437 -167.8430
111.700438 94.445 -168.1145
112.509866 94.454 -168.3855
113.325158 94.463 -168.6557
114.146359 94.472 -168.9249
114.973511 94.482 -169.1929
115.806656 94.491 -169.4591
116.645839 94.501 -169.7234
117.491103 94.510 -169.9854
118.342492 94.519 -170.2448
119.200050 94.528 -170.5013
120.063823 94.535 -170.7546
120.933855 94.543 -171.0046
121.810191 94.549 -171.2511
122.692878 94.554 -171.4943
123.581962 94.559 -171.7343
124.477487 94.563 -171.9713
125.379503 94.567 -172.2057
126.288054 94.569 -172.4379
127.203189 94.571 -172.6682
128.124956 94.573 -172.8970
129.053402 94.573 -173.1249
129.988577 94.573 -173.3522
130.930527 94.571 -173.5791
131.879304 94.569 -173.8060
132.834956 94.566 -174.0331
133.797533 94.561 -174.2606
134.767085 94.555 -174.4884
135.743663 94.548 -174.7166
136.727317 94.540 -174.9444
137.718100 94.531 -175.1715
138.716062 94.520 -175.3972
139.721255 94.508 -175.6208
140.733733 94.496 -175.8422
141.753548 94.482 -176.0609
142.780753 94.467 -176.2769
143.815401 94.451 -176.4904
144.857546 94.434 -176.7014
145.907244 94.417 -176.9104
146.964548 94.398 -177.1177
148.029514 94.379 -177.3236
149.102197 94.359 -177.5284
150.182652 94.338 -177.7325
151.270938 94.317 -177.9359
152.367109 94.296 -178.1385
153.471224 94.274 -178.3402
154.583340 94.252 -178.5405
155.703515 94.230 -178.7389
156.831807 94.208 -178.9352
157.968274 94.186 -179.1292
159.112978 94.164 -179.3209
160.265976 94.143 -179.5105
161.427329 94.121 -179.6983
162.597098 94.100 -179.8848
163.775344 94.079 179.9297
164.962128 94.059 179.7450
166.157511 94.038 179.5607
167.361557 94.018 179.3771
168.574328 93.998 179.1942
169.795887 93.978 179.0125
171.026298 93.958 178.8324
172.265625 93.938 178.6544
173.513933 93.918 178.4791
174.771286 93.898 178.3070
176.037751 93.879 178.1388
177.313393 93.859 177.9747
178.598279 93.839 177.8146
179.892476 93.818 177.6582
181.196051 93.797 177.5046
182.509072 93.776 177.3529
183.831608 93.753 177.2020
185.163728 93.730 177.0515
186.505500 93.706 176.9011
187.856996 93.681 176.7512
189.218285 93.656 176.6024
190.589439 93.630 176.4553
191.970529 93.604 176.3105
193.361626 93.577 176.1685
194.762804 93.550 176.0296
196.174136 93.522 175.8940
197.595694 93.494 175.7616
199.027554 93.466 175.6318
200.469790 93.437 175.5039
201.922477 93.407 175.3773
203.385690 93.377 175.2513
204.859507 93.346 175.1260
206.344003 93.316 175.0015
207.839257 93.286 174.8784
209.345346 93.255 174.7579
210.862348 93.226 174.6410
212.390344 93.196 174.5288
213.929412 93.166 174.4220
215.479633 93.137 174.3212
217.041087 93.108 174.2264
218.613856 93.080 174.1379
220.198022 93.053 174.0560
221.793668 93.027 173.9807
223.400876 93.003 173.9121
225.019731 92.980 173.8497
226.650317 92.960 173.7928
228.292718 92.941 173.7405
229.947022 92.925 173.6915
231.613312 92.910 173.6447
233.291678 92.898 173.5985
234.982206 92.888 173.5518
236.684984 92.880 173.5035
238.400101 92.874 173.4528
240.127646 92.869 173.3990
241.867710 92.865 173.3416
243.620383 92.863 173.2799
245.385757 92.861 173.2140
247.163923 92.860 173.1436
248.954975 92.859 173.0693
250.759005 92.858 172.9917
252.576108 92.856 172.9119
254.406379 92.854 172.8309
256.249912 92.852 172.7496
258.106805 92.848 172.6690
259.977153 92.845 172.5897
261.861055 92.840 172.5121
263.758608 92.835 172.4365
265.669911 92.830 172.3631
267.595065 92.825 172.2920
269.534169 92.819 172.2233
271.487325 92.814 172.1571
273.454634 92.808 172.0936
275.436199 92.802 172.0331
277.432123 92.796 171.9755
279.442511 92.791 171.9211
281.467467 92.785 171.8700
283.507096 92.780 171.8223
285.561505 92.775 171.7781
287.630801 92.770 171.7377
289.715093 92.765 171.7008
291.814488 92.761 171.6671
293.929096 92.758 171.6359
296.059027 92.755 171.6067
298.204393 92.752 171.5791
300.365305 92.750 171.5532
302.541876 92.748 171.5289
304.734219 92.746 171.5065
306.942449 92.745 171.4857
309.166680 92.744 171.4664
311.407029 92.743 171.4484
313.663613 92.743 171.4311
315.936549 92.743 171.4145
318.225955 92.743 171.3984
320.531952 92.744 171.3828
322.854659 92.745 171.3679
325.194197 92.746 171.3536
327.550688 92.746 171.3403
329.924255 92.747 171.3283
332.315022 92.747 171.3177
334.723114 92.746 171.3090
337.148655 92.745 171.3019
339.591774 92.742 171.2969
342.052596 92.739 171.2936
344.531250 92.735 171.2919
347.027865 92.730 171.2913
349.542572 92.723 171.2914
352.075502 92.715 171.2921
354.626786 92.706 171.2933
357.196558 92.696 171.2949
359.784951 92.685 171.2972
362.392101 92.673 171.3003
365.018144 92.660 171.3044
367.663216 92.647 171.3097
370.327455 92.633 171.3163
373.011000 92.618 171.3245
375.713992 92.603 171.3340
378.436570 92.587 171.3450
381.178878 92.572 171.3573
383.941057 92.556 171.3710
386.723252 92.540 171.3864
389.525608 92.523 171.4035
392.348271 92.507 171.4227
395.191389 92.490 171.4440
398.055108 92.473 171.4670
400.939580 92.455 171.4910
403.844953 92.437 171.5156
406.771380 92.418 171.5400
409.719013 92.398 171.5641
412.688006 92.377 171.5877
415.678514 92.355 171.6110
418.690692 92.332 171.6344
421.724697 92.308 171.6584
424.780688 92.282 171.6834
427.858824 92.255 171.7101
430.959265 92.227 171.7386
434.082174 92.198 171.7695
437.227712 92.167 171.8026
440.396044 92.135 171.8380
443.587336 92.101 171.8755
446.801752 92.067 171.9153
450.039462 92.031 171.9573
453.300634 91.995 172.0017
456.585437 91.957 172.0486
459.894043 91.920 172.0980
463.226625 91.882 172.1502
466.583356 91.845 172.2051
469.964411 91.808 172.2626
473.369967 91.772 172.3226
476.800201 91.737 172.3847
480.255292 91.704 172.4485
483.735420 91.672 172.5136
487.240766 91.641 172.5795
490.771513 91.612 172.6456
494.327846 91.584 172.7117
497.909949 91.557 172.7772
501.518010 91.532 172.8422
505.152216 91.509 172.9064
508.812758 91.487 172.9703
512.499825 91.467 173.0340
516.213610 91.449 173.0975
519.954306 91.433 173.1605
523.722109 91.418 173.2228
527.517216 91.406 173.2836
531.339823 91.395 173.3427
535.190130 91.386 173.3997
539.068339 91.379 173.4547
542.974650 91.374 173.5080
546.909268 91.371 173.5599
550.872398 91.370 173.6110
554.864247 91.370 173.6616
558.885022 91.372 173.7122
562.934933 91.376 173.7629
567.014192 91.381 173.8140
571.123010 91.387 173.8650
575.261603 91.393 173.9158
579.430186 91.400 173.9664
583.628976 91.406 174.0169
587.858192 91.413 174.0681
592.118055 91.418 174.1213
596.408786 91.423 174.1783
600.730610 91.426 174.2408
605.083752 91.428 174.3107
609.468438 91.429 174.3900
613.884897 91.429 174.4797
618.333360 91.428 174.5809
622.814059 91.427 174.6938
627.327226 91.425 174.8177
631.873098 91.424 174.9511
636.451911 91.422 175.0918
641.063904 91.421 175.2370
645.709317 91.421 175.3837
650.388393 91.421 175.5294
655.101375 91.421 175.6719
659.848510 91.421 175.8098
664.630044 91.422 175.9419
669.446228 91.423 176.0677
674.297311 91.423 176.1869
679.183547 91.423 176.2990
684.105191 91.423 176.4041
689.062499 91.422 176.5020
694.055730 91.421 176.5925
699.085144 91.418 176.6752
704.151003 91.415 176.7498
709.253572 91.410 176.8159
714.393116 91.403 176.8737
719.569903 91.394 176.9236
724.784203 91.383 176.9664
730.036288 91.369 177.0035
735.326432 91.353 177.0366
740.654910 91.334 177.0676
746.022001 91.312 177.0986
751.427984 91.288 177.1317
756.873141 91.261 177.1689
762.357756 91.231 177.2122
767.882114 91.200 177.2626
773.446504 91.167 177.3212
779.051217 91.132 177.3884
784.696543 91.097 177.4642
790.382778 91.062 177.5483
796.110217 91.027 177.6396
801.879160 90.994 177.7363
807.689907 90.961 177.8357
813.542761 90.931 177.9343
819.438027 90.903 178.0283
825.376013 90.876 178.1137
831.357028 90.851 178.1873
837.381383 90.827 178.2469
843.449394 90.804 178.2919
849.561376 90.780 178.3228
855.717648 90.755 178.3419
861.918531 90.728 178.3528
868.164348 90.699 178.3606
874.455424 90.667 178.3713
880.792089 90.632 178.3921
887.174671 90.594 178.4306
893.603505 90.554 178.4946
900.078924 90.512 178.5912
906.601267 90.470 178.7262
913.170874 90.429 178.9028
919.788086 90.390 179.1212
926.453250 90.357 179.3780
933.166712 90.329 179.6666
939.928823 90.309 179.9783
946.739934 90.296 -179.6968
953.600402 90.291 -179.3682
960.510584 90.294 -179.0443
967.470839 90.304 -178.7317
974.481532 90.321 -178.4353
981.543027 90.344 -178.1582
988.655692 90.372 -177.9019
995.819899 90.405 -177.6668
1003.036020 90.441 -177.4525
1010.304433 90.481 -177.2576
1017.625515 90.523 -177.0806
1024.999649 90.568 -176.9195
1032.427219 90.615 -176.7725
1039.908612 90.664 -176.6378
1047.444219 90.714 -176.5143
1055.034432 90.766 -176.4010
1062.679646 90.819 -176.2970
1070.380261 90.873 -176.2017
1078.136677 90.927 -176.1146
1085.949300 90.982 -176.0352
1093.818536 91.038 -175.9634
1101.744796 91.094 -175.8989
1109.728493 91.149 -175.8414
1117.770043 91.205 -175.7903
1125.869866 91.259 -175.7451
1134.028383 91.314 -175.7050
1142.246020 91.367 -175.6692
1150.523206 91.420 -175.6373
1158.860371 91.472 -175.6086
1167.257951 91.523 -175.5829
1175.716383 91.573 -175.5594
1184.236109 91.622 -175.5379
1192.817572 91.670 -175.5175
1201.461220 91.717 -175.4974
1210.167503 91.764 -175.4774
1218.936876 91.811 -175.4574
1227.769795 91.856 -175.4373
1236.666721 91.902 -175.4172
1245.628118 91.948 -175.3969
1254.654453 91.993 -175.3757
1263.746196 92.038 -175.3530
1272.903822 92.083 -175.3286
1282.127808 92.129 -175.3022
1291.418634 92.174 -175.2747
1300.776786 92.220 -175.2463
1310.202751 92.265 -175.2177
1319.697020 92.311 -175.1890
1329.260089 92.356 -175.1604
1338.892455 92.401 -175.1316
1348.594622 92.446 -175.1021
1358.367094 92.491 -175.0713
1368.210382 92.535 -175.0382
1378.124999 92.580 -175.0023
1388.111461 92.626 -174.9631
1398.170288 92.672 -174.9210
1408.302007 92.720 -174.8760
1418.507144 92.769 -174.8289
1428.786231 92.819 -174.7804
1439.139805 92.871 -174.7314
1449.568405 92.925 -174.6826
1460.072576 92.980 -174.6343
1470.652863 93.037 -174.5867
1481.309820 93.095 -174.5396
1492.044002 93.153 -174.4928
1502.855968 93.212 -174.4459
1513.746282 93.271 -174.3984
1524.715511 93.329 -174.3495
1535.764228 93.386 -174.2986
1546.893009 93.442 -174.2448
1558.102433 93.496 -174.1870
1569.393086 93.547 -174.1240
1580.765555 93.596 -174.0547
1592.220434 93.642 -173.9781
1603.758320 93.685 -173.8937
1615.379813 93.725 -173.8018
1627.085521 93.763 -173.7034
1638.876054 93.798 -173.5997
1650.752025 93.830 -173.4920
1662.714055 93.860 -173.3813
1674.762766 93.888 -173.2683
1686.898788 93.912 -173.1532
1699.122752 93.935 -173.0358
1711.435296 93.955 -172.9154
1723.837061 93.973 -172.7916
1736.328695 93.989 -172.6638
1748.910849 94.004 -172.5320
1761.584178 94.018 -172.3971
1774.349343 94.031 -172.2602
1787.207010 94.044 -172.1232
1800.157848 94.056 -171.9884
1813.202534 94.067 -171.8583
1826.341747 94.077 -171.7341
1839.576172 94.085 -171.6163
1852.906500 94.091 -171.5040
1866.333424 94.094 -171.3950
1879.857645 94.094 -171.2862
1893.479869 94.090 -171.1740
1907.200804 94.083 -171.0547
1921.021168 94.072 -170.9254
1934.941679 94.059 -170.7839
1948.963064 94.043 -170.6294
1963.086054 94.026 -170.4622
1977.311384 94.007 -170.2842
1991.639798 93.988 -170.0986
2006.072041 93.968 -169.9097
2020.608866 93.948 -169.7220
2035.251031 93.929 -169.5397
2049.999299 93.909 -169.3661
2064.854438 93.889 -169.2036
2079.817225 93.869 -169.0526
2094.888438 93.847 -168.9122
2110.068863 93.824 -168.7802
2125.359292 93.801 -168.6537
2140.760521 93.776 -168.5295
2156.273355 93.751 -168.4048
2171.898600 93.726 -168.2774
2187.637073 93.701 -168.1465
2203.489593 93.678 -168.0124
2219.456987 93.656 -167.8763
2235.540087 93.636 -167.7402
2251.739732 93.619 -167.6061
2268.056766 93.604 -167.4756
2284.492041 93.592 -167.3501
2301.046412 93.581 -167.2305
2317.720742 93.574 -167.1172
2334.515902 93.568 -167.0104
2351.432767 93.565 -166.9103
2368.472218 93.565 -166.8165
2385.635144 93.567 -166.7285
2402.922440 93.572 -166.6453
2420.335006 93.580 -166.5660
2437.873752 93.591 -166.4896
2455.539590 93.606 -166.4160
2473.333442 93.625 -166.3456
2491.256235 93.648 -166.2800
2509.308905 93.676 -166.2211
2527.492392 93.710 -166.1714
2545.807644 93.747 -166.1330
2564.255615 93.790 -166.1075
2582.837268 93.837 -166.0959
2601.553572 93.888 -166.0983
2620.405502 93.942 -166.1138
2639.394040 94.000 -166.1409
2658.520177 94.061 -166.1779
2677.784910 94.125 -166.2236
2697.189244 94.193 -166.2771
2716.734189 94.264 -166.3390
2736.420765 94.338 -166.4106
2756.249998 94.415 -166.4941
2776.222921 94.496 -166.5916
2796.340577 94.578 -166.7046
2816.604013 94.662 -166.8344
2837.014287 94.748 -166.9814
2857.572462 94.834 -167.1455
2878.279610 94.919 -167.3265
2899.136811 95.005 -167.5239
2920.145151 95.089 -167.7377
2941.305727 95.171 -167.9674
2962.619641 95.251 -168.2129
2984.088004 95.327 -168.4733
3005.711935 95.399 -168.7471
3027.492563 95.466 -169.0322
3049.431022 95.528 -169.3265
3071.528457 95.584 -169.6276
3093.786018 95.633 -169.9332
3116.204867 95.676 -170.2416
3138.786172 95.711 -170.5519
3161.531110 95.740 -170.8632
3184.440868 95.760 -171.1749
3207.516639 95.774 -171.4865
3230.759627 95.779 -171.7969
3254.171043 95.775 -172.1055
3277.752108 95.764 -172.4113
3301.504051 95.745 -172.7136
