* Measurement data measured by REW V5.31.3
* Source: EXCL: Headset (USB-C to 3.5mm Headphone Jack Adapter), MICROPHONE (Master Volume), 0, volume: 0.750
* Format: 256k Log Swept Sine, 1 sweep at -12.0 dBFS with no timing reference
* Dated: Apr 1, 2025 10:26:41 PM
* REW Settings:
*  C-weighting compensation: Off
*  Target level: 75.0 dB
* Note: ; 
* Measurement: HD6XX (Soulwit) L6
* Smoothing: 1/6 octave
* Frequency Step: 96 ppo
* Start Frequency: 20.0 Hz
*
* Freq(Hz) SPL(dB) Phase(degrees)
20.033247 82.797 -93.4935
20.178416 82.871 -94.0322
20.324637 82.943 -94.5510
20.471918 83.013 -95.0427
20.620266 83.084 -95.5027
20.769689 83.157 -95.9287
20.920195 83.232 -96.3210
21.071791 83.312 -96.6817
21.224486 83.397 -97.0147
21.378287 83.487 -97.3247
21.533203 83.582 -97.6172
21.689242 83.681 -97.8975
21.846411 83.784 -98.1706
22.004719 83.890 -98.4410
22.164174 83.997 -98.7128
22.324785 84.105 -98.9893
22.486559 84.212 -99.2737
22.649506 84.317 -99.5687
22.813634 84.418 -99.8767
22.978951 84.515 -100.1995
23.145466 84.605 -100.5382
23.313188 84.689 -100.8926
23.482124 84.764 -101.2612
23.652286 84.829 -101.6404
23.823680 84.885 -102.0251
23.996316 84.930 -102.4084
24.170203 84.965 -102.7822
24.345351 84.991 -103.1381
24.521767 85.009 -103.4681
24.699462 85.020 -103.7660
24.878444 85.027 -104.0284
25.058724 85.033 -104.2554
25.240310 85.040 -104.4513
25.423211 85.049 -104.6242
25.607438 85.064 -104.7856
25.793000 85.085 -104.9487
25.979907 85.112 -105.1273
26.168168 85.144 -105.3333
26.357794 85.181 -105.5761
26.548793 85.220 -105.8609
26.741176 85.261 -106.1886
26.934954 85.301 -106.5564
27.130136 85.339 -106.9584
27.326732 85.375 -107.3866
27.524753 85.408 -107.8327
27.724208 85.438 -108.2888
27.925110 85.465 -108.7479
28.127466 85.490 -109.2049
28.331290 85.514 -109.6558
28.536590 85.536 -110.0977
28.743378 85.557 -110.5280
28.951664 85.578 -110.9440
29.161460 85.598 -111.3429
29.372776 85.619 -111.7214
29.585623 85.640 -112.0768
29.800013 85.663 -112.4068
30.015956 85.689 -112.7112
30.233464 85.719 -112.9914
30.452548 85.754 -113.2508
30.673220 85.795 -113.4945
30.895490 85.842 -113.7282
31.119372 85.896 -113.9571
31.344876 85.955 -114.1855
31.572014 86.020 -114.4158
31.800797 86.090 -114.6485
32.031239 86.165 -114.8830
32.263351 86.244 -115.1181
32.497144 86.329 -115.3531
32.732632 86.419 -115.5887
32.969826 86.513 -115.8270
33.208739 86.613 -116.0718
33.449383 86.716 -116.3275
33.691771 86.824 -116.5987
33.935916 86.934 -116.8896
34.181829 87.045 -117.2027
34.429525 87.156 -117.5394
34.679015 87.267 -117.8997
34.930314 87.375 -118.2826
35.183433 87.481 -118.6862
35.438387 87.583 -119.1077
35.695188 87.681 -119.5434
35.953850 87.773 -119.9888
36.214387 87.860 -120.4380
36.476811 87.942 -120.8842
36.741137 88.019 -121.3203
37.007378 88.091 -121.7400
37.275549 88.159 -122.1386
37.545663 88.225 -122.5136
37.817734 88.290 -122.8652
38.091777 88.355 -123.1960
38.367806 88.419 -123.5099
38.645835 88.484 -123.8109
38.925879 88.548 -124.1023
39.207952 88.613 -124.3861
39.492069 88.678 -124.6631
39.778244 88.742 -124.9336
40.066494 88.807 -125.1983
40.356832 88.871 -125.4586
40.649275 88.936 -125.7168
40.943836 89.001 -125.9755
41.240532 89.065 -126.2373
41.539378 89.129 -126.5033
41.840389 89.191 -126.7737
42.143582 89.251 -127.0471
42.448972 89.309 -127.3214
42.756574 89.364 -127.5942
43.066406 89.417 -127.8632
43.378483 89.468 -128.1269
43.692822 89.518 -128.3840
44.009438 89.565 -128.6341
44.328348 89.611 -128.8772
44.649570 89.656 -129.1142
44.973119 89.700 -129.3469
45.299013 89.744 -129.5773
45.627268 89.788 -129.8078
45.957902 89.831 -130.0405
46.290932 89.874 -130.2771
46.626375 89.917 -130.5192
46.964249 89.960 -130.7687
47.304571 90.003 -131.0282
47.647360 90.047 -131.3009
47.992632 90.091 -131.5898
48.340407 90.134 -131.8974
48.690701 90.177 -132.2243
49.043534 90.217 -132.5691
49.398924 90.256 -132.9287
49.756889 90.292 -133.2988
50.117447 90.325 -133.6749
50.480619 90.356 -134.0524
50.846423 90.384 -134.4274
51.214877 90.410 -134.7963
51.586001 90.434 -135.1559
51.959814 90.456 -135.5038
52.336336 90.476 -135.8384
52.715587 90.495 -136.1596
53.097586 90.514 -136.4680
53.482353 90.532 -136.7653
53.869908 90.549 -137.0530
54.260272 90.565 -137.3325
54.653464 90.581 -137.6051
55.049506 90.596 -137.8718
55.448417 90.611 -138.1337
55.850219 90.626 -138.3922
56.254933 90.641 -138.6484
56.662579 90.656 -138.9034
57.073180 90.672 -139.1579
57.486755 90.688 -139.4121
57.903328 90.707 -139.6663
58.322919 90.727 -139.9212
58.745551 90.751 -140.1784
59.171246 90.779 -140.4405
59.600025 90.811 -140.7114
60.031911 90.847 -140.9951
60.466927 90.887 -141.2948
60.905096 90.930 -141.6115
61.346439 90.976 -141.9438
61.790981 91.024 -142.2887
62.238744 91.074 -142.6417
62.689751 91.124 -142.9987
63.144027 91.176 -143.3562
63.601595 91.229 -143.7115
64.062478 91.283 -144.0628
64.526701 91.338 -144.4090
64.994288 91.393 -144.7496
65.465264 91.448 -145.0847
65.939652 91.504 -145.4149
66.417478 91.559 -145.7414
66.898766 91.614 -146.0656
67.383542 91.668 -146.3890
67.871831 91.722 -146.7131
68.363659 91.774 -147.0389
68.859050 91.824 -147.3668
69.358031 91.873 -147.6966
69.860628 91.919 -148.0277
70.366867 91.963 -148.3591
70.876774 92.005 -148.6899
71.390376 92.044 -149.0193
71.907700 92.080 -149.3466
72.428773 92.114 -149.6712
72.953622 92.145 -149.9928
73.482274 92.174 -150.3112
74.014757 92.200 -150.6268
74.551098 92.224 -150.9400
75.091326 92.245 -151.2518
75.635469 92.264 -151.5627
76.183555 92.280 -151.8736
76.735612 92.294 -152.1847
77.291670 92.307 -152.4965
77.851757 92.317 -152.8090
78.415903 92.326 -153.1220
78.984137 92.333 -153.4353
79.556489 92.339 -153.7487
80.132988 92.344 -154.0620
80.713665 92.348 -154.3748
81.298549 92.351 -154.6868
81.887672 92.354 -154.9973
82.481064 92.356 -155.3059
83.078756 92.358 -155.6121
83.680778 92.359 -155.9155
84.287164 92.359 -156.2160
84.897943 92.359 -156.5136
85.513149 92.358 -156.8089
86.132812 92.356 -157.1022
86.756966 92.354 -157.3944
87.385643 92.352 -157.6859
88.018875 92.349 -157.9774
88.656696 92.346 -158.2689
89.299139 92.343 -158.5604
89.946238 92.339 -158.8517
90.598025 92.336 -159.1419
91.254536 92.332 -159.4301
91.915804 92.329 -159.7152
92.581864 92.325 -159.9964
93.252750 92.321 -160.2732
93.928498 92.318 -160.5453
94.609143 92.314 -160.8129
95.294719 92.311 -161.0764
95.985264 92.307 -161.3364
96.680813 92.304 -161.5935
97.381402 92.301 -161.8485
98.087068 92.297 -162.1022
98.797847 92.294 -162.3552
99.513777 92.291 -162.6083
100.234895 92.289 -162.8626
100.961238 92.287 -163.1187
101.692845 92.285 -163.3773
102.429753 92.284 -163.6382
103.172002 92.283 -163.9010
103.919628 92.283 -164.1649
104.672673 92.284 -164.4290
105.431174 92.285 -164.6924
106.195172 92.288 -164.9545
106.964706 92.291 -165.2151
107.739816 92.297 -165.4743
108.520543 92.303 -165.7323
109.306928 92.311 -165.9892
110.099011 92.321 -166.2446
110.896834 92.331 -166.4980
111.700438 92.342 -166.7486
112.509866 92.355 -166.9960
113.325158 92.367 -167.2397
114.146359 92.380 -167.4801
114.973511 92.394 -167.7174
115.806656 92.407 -167.9525
116.645839 92.420 -168.1862
117.491103 92.433 -168.4191
118.342492 92.446 -168.6519
119.200050 92.458 -168.8846
120.063823 92.470 -169.1172
120.933855 92.481 -169.3492
121.810191 92.492 -169.5801
122.692878 92.502 -169.8092
123.581962 92.511 -170.0360
124.477487 92.519 -170.2602
125.379503 92.527 -170.4816
126.288054 92.533 -170.7003
127.203189 92.539 -170.9165
128.124956 92.544 -171.1308
129.053402 92.548 -171.3436
129.988577 92.551 -171.5556
130.930527 92.553 -171.7674
131.879304 92.554 -171.9796
132.834956 92.554 -172.1926
133.797533 92.553 -172.4068
134.767085 92.550 -172.6221
135.743663 92.545 -172.8385
136.727317 92.539 -173.0559
137.718100 92.532 -173.2742
138.716062 92.522 -173.4933
139.721255 92.512 -173.7131
140.733733 92.500 -173.9337
141.753548 92.487 -174.1549
142.780753 92.472 -174.3765
143.815401 92.457 -174.5981
144.857546 92.440 -174.8194
145.907244 92.423 -175.0396
146.964548 92.405 -175.2584
148.029514 92.387 -175.4750
149.102197 92.368 -175.6890
150.182652 92.349 -175.8995
151.270938 92.330 -176.1060
152.367109 92.311 -176.3079
153.471224 92.292 -176.5049
154.583340 92.273 -176.6971
155.703515 92.255 -176.8848
156.831807 92.236 -177.0690
157.968274 92.217 -177.2506
159.112978 92.199 -177.4306
160.265976 92.180 -177.6099
161.427329 92.162 -177.7891
162.597098 92.144 -177.9683
163.775344 92.126 -178.1473
164.962128 92.108 -178.3257
166.157511 92.091 -178.5031
167.361557 92.074 -178.6788
168.574328 92.057 -178.8527
169.795887 92.041 -179.0246
171.026298 92.024 -179.1945
172.265625 92.008 -179.3622
173.513933 91.992 -179.5277
174.771286 91.975 -179.6910
176.037751 91.958 -179.8522
177.313393 91.940 179.9885
178.598279 91.922 179.8306
179.892476 91.904 179.6738
181.196051 91.885 179.5179
182.509072 91.865 179.3631
183.831608 91.844 179.2095
185.163728 91.824 179.0576
186.505500 91.802 178.9080
187.856996 91.780 178.7610
189.218285 91.758 178.6172
190.589439 91.735 178.4767
191.970529 91.713 178.3398
193.361626 91.689 178.2064
194.762804 91.666 178.0767
196.174136 91.642 177.9505
197.595694 91.618 177.8275
199.027554 91.594 177.7072
200.469790 91.569 177.5889
201.922477 91.544 177.4716
203.385690 91.519 177.3545
204.859507 91.493 177.2369
206.344003 91.467 177.1185
207.839257 91.441 176.9991
209.345346 91.415 176.8788
210.862348 91.390 176.7581
212.390344 91.365 176.6375
213.929412 91.340 176.5177
215.479633 91.316 176.3993
217.041087 91.294 176.2832
218.613856 91.272 176.1700
220.198022 91.251 176.0605
221.793668 91.232 175.9548
223.400876 91.214 175.8530
225.019731 91.196 175.7550
226.650317 91.180 175.6604
228.292718 91.166 175.5687
229.947022 91.153 175.4791
231.613312 91.141 175.3911
233.291678 91.131 175.3040
234.982206 91.122 175.2175
236.684984 91.114 175.1313
238.400101 91.108 175.0454
240.127646 91.103 174.9598
241.867710 91.099 174.8748
243.620383 91.095 174.7904
245.385757 91.092 174.7072
247.163923 91.090 174.6252
248.954975 91.088 174.5451
250.759005 91.085 174.4670
252.576108 91.083 174.3911
254.406379 91.080 174.3173
256.249912 91.077 174.2450
258.106805 91.074 174.1738
259.977153 91.070 174.1029
261.861055 91.065 174.0319
263.758608 91.060 173.9603
265.669911 91.054 173.8882
267.595065 91.048 173.8156
269.534169 91.041 173.7425
271.487325 91.034 173.6693
273.454634 91.027 173.5962
275.436199 91.019 173.5237
277.432123 91.012 173.4525
279.442511 91.005 173.3835
281.467467 90.999 173.3174
283.507096 90.992 173.2549
285.561505 90.987 173.1963
287.630801 90.982 173.1418
289.715093 90.977 173.0914
291.814488 90.973 173.0447
293.929096 90.970 173.0012
296.059027 90.967 172.9604
298.204393 90.965 172.9221
300.365305 90.963 172.8861
302.541876 90.962 172.8527
304.734219 90.962 172.8221
306.942449 90.962 172.7945
309.166680 90.962 172.7699
311.407029 90.963 172.7484
313.663613 90.964 172.7300
315.936549 90.965 172.7144
318.225955 90.966 172.7016
320.531952 90.967 172.6911
322.854659 90.969 172.6825
325.194197 90.970 172.6753
327.550688 90.971 172.6688
329.924255 90.971 172.6624
332.315022 90.971 172.6555
334.723114 90.971 172.6481
337.148655 90.969 172.6398
339.591774 90.967 172.6310
342.052596 90.965 172.6220
344.531250 90.961 172.6132
347.027865 90.956 172.6052
349.542572 90.951 172.5986
352.075502 90.944 172.5939
354.626786 90.936 172.5912
357.196558 90.927 172.5906
359.784951 90.917 172.5921
362.392101 90.906 172.5956
365.018144 90.894 172.6008
367.663216 90.881 172.6077
370.327455 90.868 172.6162
373.011000 90.854 172.6260
375.713992 90.839 172.6370
378.436570 90.825 172.6490
381.178878 90.810 172.6618
383.941057 90.795 172.6754
386.723252 90.780 172.6898
389.525608 90.765 172.7048
392.348271 90.750 172.7203
395.191389 90.734 172.7361
398.055108 90.718 172.7522
400.939580 90.702 172.7684
403.844953 90.685 172.7845
406.771380 90.667 172.8007
409.719013 90.649 172.8168
412.688006 90.630 172.8332
415.678514 90.610 172.8497
418.690692 90.589 172.8665
421.724697 90.566 172.8839
424.780688 90.542 172.9022
427.858824 90.516 172.9219
430.959265 90.488 172.9439
434.082174 90.459 172.9688
437.227712 90.428 172.9972
440.396044 90.396 173.0296
443.587336 90.362 173.0661
446.801752 90.327 173.1066
450.039462 90.292 173.1505
453.300634 90.255 173.1976
456.585437 90.219 173.2473
459.894043 90.182 173.2992
463.226625 90.146 173.3531
466.583356 90.110 173.4086
469.964411 90.074 173.4656
473.369967 90.040 173.5238
476.800201 90.007 173.5826
480.255292 89.974 173.6417
483.735420 89.943 173.7004
487.240766 89.913 173.7583
490.771513 89.883 173.8148
494.327846 89.855 173.8697
497.909949 89.828 173.9229
501.518010 89.802 173.9743
505.152216 89.778 174.0239
508.812758 89.755 174.0718
512.499825 89.733 174.1182
516.213610 89.713 174.1630
519.954306 89.694 174.2065
523.722109 89.678 174.2490
527.517216 89.662 174.2909
531.339823 89.649 174.3331
535.190130 89.637 174.3767
539.068339 89.626 174.4233
542.974650 89.617 174.4742
546.909268 89.609 174.5313
550.872398 89.603 174.5959
554.864247 89.598 174.6695
558.885022 89.595 174.7528
562.934933 89.594 174.8463
567.014192 89.596 174.9497
571.123010 89.599 175.0623
575.261603 89.604 175.1826
579.430186 89.612 175.3087
583.628976 89.622 175.4385
587.858192 89.633 175.5699
592.118055 89.646 175.7010
596.408786 89.660 175.8303
600.730610 89.674 175.9564
605.083752 89.689 176.0788
609.468438 89.704 176.1969
613.884897 89.718 176.3108
618.333360 89.732 176.4205
622.814059 89.745 176.5265
627.327226 89.757 176.6291
631.873098 89.767 176.7288
636.451911 89.776 176.8260
641.063904 89.784 176.9210
645.709317 89.791 177.0142
650.388393 89.796 177.1057
655.101375 89.801 177.1957
659.848510 89.804 177.2845
664.630044 89.807 177.3724
669.446228 89.809 177.4593
674.297311 89.809 177.5456
679.183547 89.809 177.6313
684.105191 89.808 177.7166
689.062499 89.807 177.8012
694.055730 89.805 177.8847
699.085144 89.802 177.9664
704.151003 89.799 178.0453
709.253572 89.796 178.1205
714.393116 89.792 178.1907
719.569903 89.787 178.2550
724.784203 89.781 178.3127
730.036288 89.774 178.3630
735.326432 89.766 178.4056
740.654910 89.757 178.4403
746.022001 89.746 178.4670
751.427984 89.733 178.4859
756.873141 89.718 178.4974
762.357756 89.701 178.5021
767.882114 89.682 178.5005
773.446504 89.662 178.4926
779.051217 89.639 178.4783
784.696543 89.616 178.4571
790.382778 89.590 178.4282
796.110217 89.563 178.3911
801.879160 89.533 178.3459
807.689907 89.501 178.2934
813.542761 89.466 178.2360
819.438027 89.428 178.1771
825.376013 89.386 178.1220
831.357028 89.340 178.0770
837.381383 89.290 178.0499
843.449394 89.237 178.0491
849.561376 89.180 178.0834
855.717648 89.121 178.1616
861.918531 89.062 178.2905
868.164348 89.004 178.4743
874.455424 88.949 178.7134
880.792089 88.900 179.0033
887.174671 88.858 179.3349
893.603505 88.825 179.6957
900.078924 88.802 -179.9289
906.601267 88.789 -179.5534
913.170874 88.785 -179.1906
919.788086 88.790 -178.8506
926.453250 88.802 -178.5401
933.166712 88.820 -178.2628
939.928823 88.843 -178.0194
946.739934 88.870 -177.8088
953.600402 88.900 -177.6286
960.510584 88.933 -177.4761
967.470839 88.968 -177.3483
974.481532 89.005 -177.2427
981.543027 89.044 -177.1574
988.655692 89.085 -177.0908
995.819899 89.126 -177.0416
1003.036020 89.169 -177.0087
1010.304433 89.213 -176.9903
1017.625515 89.258 -176.9847
1024.999649 89.303 -176.9896
1032.427219 89.349 -177.0027
1039.908612 89.395 -177.0218
1047.444219 89.441 -177.0454
1055.034432 89.488 -177.0723
1062.679646 89.535 -177.1017
1070.380261 89.583 -177.1336
1078.136677 89.630 -177.1676
1085.949300 89.678 -177.2038
1093.818536 89.726 -177.2418
1101.744796 89.773 -177.2814
1109.728493 89.820 -177.3224
1117.770043 89.867 -177.3644
1125.869866 89.913 -177.4075
1134.028383 89.959 -177.4521
1142.246020 90.005 -177.4993
1150.523206 90.049 -177.5506
1158.860371 90.094 -177.6071
1167.257951 90.137 -177.6696
1175.716383 90.179 -177.7382
1184.236109 90.220 -177.8121
1192.817572 90.259 -177.8894
1201.461220 90.296 -177.9677
1210.167503 90.332 -178.0443
1218.936876 90.366 -178.1167
1227.769795 90.400 -178.1828
1236.666721 90.432 -178.2418
1245.628118 90.465 -178.2934
1254.654453 90.497 -178.3387
1263.746196 90.530 -178.3792
1272.903822 90.563 -178.4167
1282.127808 90.596 -178.4525
1291.418634 90.630 -178.4872
1300.776786 90.663 -178.5210
1310.202751 90.696 -178.5540
1319.697020 90.729 -178.5869
1329.260089 90.762 -178.6208
1338.892455 90.794 -178.6572
1348.594622 90.827 -178.6971
1358.367094 90.859 -178.7408
1368.210382 90.890 -178.7879
1378.124999 90.920 -178.8374
1388.111461 90.950 -178.8880
1398.170288 90.979 -178.9387
1408.302007 91.008 -178.9884
1418.507144 91.036 -179.0358
1428.786231 91.064 -179.0787
1439.139805 91.090 -179.1146
1449.568405 91.117 -179.1407
1460.072576 91.143 -179.1540
1470.652863 91.169 -179.1514
1481.309820 91.195 -179.1306
1492.044002 91.221 -179.0896
1502.855968 91.248 -179.0280
1513.746282 91.276 -178.9465
1524.715511 91.305 -178.8469
1535.764228 91.334 -178.7316
1546.893009 91.364 -178.6029
1558.102433 91.393 -178.4625
1569.393086 91.422 -178.3114
1580.765555 91.450 -178.1504
1592.220434 91.476 -177.9799
1603.758320 91.501 -177.8006
1615.379813 91.524 -177.6129
1627.085521 91.545 -177.4170
1638.876054 91.564 -177.2127
1650.752025 91.582 -177.0008
1662.714055 91.599 -176.7836
1674.762766 91.614 -176.5648
1686.898788 91.630 -176.3492
1699.122752 91.644 -176.1425
1711.435296 91.658 -175.9493
1723.837061 91.670 -175.7728
1736.328695 91.679 -175.6136
1748.910849 91.686 -175.4696
1761.584178 91.688 -175.3358
1774.349343 91.685 -175.2050
1787.207010 91.678 -175.0685
1800.157848 91.666 -174.9175
1813.202534 91.651 -174.7449
1826.341747 91.633 -174.5456
1839.576172 91.613 -174.3175
1852.906500 91.593 -174.0615
1866.333424 91.573 -173.7818
1879.857645 91.554 -173.4848
1893.479869 91.537 -173.1785
1907.200804 91.521 -172.8709
1921.021168 91.506 -172.5690
1934.941679 91.491 -172.2776
1948.963064 91.475 -171.9997
1963.086054 91.458 -171.7357
1977.311384 91.438 -171.4845
1991.639798 91.415 -171.2444
2006.072041 91.390 -171.0128
2020.608866 91.360 -170.7865
2035.251031 91.327 -170.5613
2049.999299 91.291 -170.3321
2064.854438 91.251 -170.0936
2079.817225 91.209 -169.8408
2094.888438 91.164 -169.5697
2110.068863 91.119 -169.2781
2125.359292 91.074 -168.9653
2140.760521 91.030 -168.6323
2156.273355 90.989 -168.2818
2171.898600 90.951 -167.9179
2187.637073 90.917 -167.5453
2203.489593 90.888 -167.1696
2219.456987 90.863 -166.7958
2235.540087 90.843 -166.4282
2251.739732 90.827 -166.0701
2268.056766 90.815 -165.7239
2284.492041 90.808 -165.3910
2301.046412 90.804 -165.0722
2317.720742 90.804 -164.7676
2334.515902 90.807 -164.4770
2351.432767 90.813 -164.2001
2368.472218 90.822 -163.9367
2385.635144 90.835 -163.6866
2402.922440 90.851 -163.4492
2420.335006 90.869 -163.2234
2437.873752 90.892 -163.0077
2455.539590 90.917 -162.8006
2473.333442 90.946 -162.6008
2491.256235 90.979 -162.4078
2509.308905 91.017 -162.2221
2527.492392 91.059 -162.0447
2545.807644 91.105 -161.8771
2564.255615 91.156 -161.7208
2582.837268 91.212 -161.5770
2601.553572 91.272 -161.4458
2620.405502 91.335 -161.3267
2639.394040 91.402 -161.2182
2658.520177 91.473 -161.1185
2677.784910 91.548 -161.0260
2697.189244 91.626 -160.9405
2716.734189 91.708 -160.8625
2736.420765 91.794 -160.7937
2756.249998 91.884 -160.7358
2776.222921 91.977 -160.6901
2796.340577 92.072 -160.6578
2816.604013 92.171 -160.6398
2837.014287 92.271 -160.6369
2857.572462 92.374 -160.6501
2878.279610 92.477 -160.6810
2899.136811 92.581 -160.7311
2920.145151 92.685 -160.8020
2941.305727 92.788 -160.8946
2962.619641 92.890 -161.0092
2984.088004 92.988 -161.1449
3005.711935 93.082 -161.3001
3027.492563 93.172 -161.4729
3049.431022 93.256 -161.6608
3071.528457 93.335 -161.8611
3093.786018 93.407 -162.0713
3116.204867 93.472 -162.2887
3138.786172 93.530 -162.5109
3161.531110 93.580 -162.7359
3184.440868 93.623 -162.9619
3207.516639 93.658 -163.1879
3230.759627 93.686 -163.4134
3254.171043 93.706 -163.6384
3277.752108 93.718 -163.8631
