* Measurement data measured by REW V5.31.3
* Source: EXCL: Headset (USB-C to 3.5mm Headphone Jack Adapter), MICROPHONE (Master Volume), 0, volume: 0.750
* Format: 256k Log Swept Sine, 1 sweep at -12.0 dBFS with no timing reference
* Dated: Apr 1, 2025 10:19:20 PM
* REW Settings:
*  C-weighting compensation: Off
*  Target level: 75.0 dB
* Note: ; 
* Measurement: HD6XX (Soulwit) R2
* Smoothing: 1/6 octave
* Frequency Step: 96 ppo
* Start Frequency: 20.0 Hz
*
* Freq(Hz) SPL(dB) Phase(degrees)
20.033247 85.756 -95.1210
20.178416 85.824 -95.5161
20.324637 85.892 -95.9170
20.471918 85.961 -96.3174
20.620266 86.031 -96.7112
20.769689 86.103 -97.0929
20.920195 86.178 -97.4584
21.071791 86.258 -97.8057
21.224486 86.343 -98.1351
21.378287 86.433 -98.4496
21.533203 86.530 -98.7539
21.689242 86.634 -99.0549
21.846411 86.742 -99.3599
22.004719 86.855 -99.6763
22.164174 86.971 -100.0103
22.324785 87.087 -100.3663
22.486559 87.202 -100.7462
22.649506 87.314 -101.1491
22.813634 87.420 -101.5717
22.978951 87.520 -102.0083
23.145466 87.612 -102.4518
23.313188 87.695 -102.8945
23.482124 87.771 -103.3290
23.652286 87.840 -103.7490
23.823680 87.902 -104.1502
23.996316 87.958 -104.5309
24.170203 88.011 -104.8922
24.345351 88.061 -105.2374
24.521767 88.110 -105.5723
24.699462 88.158 -105.9034
24.878444 88.205 -106.2380
25.058724 88.252 -106.5819
25.240310 88.297 -106.9398
25.423211 88.341 -107.3135
25.607438 88.382 -107.7025
25.793000 88.420 -108.1040
25.979907 88.455 -108.5131
26.168168 88.486 -108.9236
26.357794 88.514 -109.3295
26.548793 88.539 -109.7252
26.741176 88.562 -110.1066
26.934954 88.584 -110.4717
27.130136 88.606 -110.8206
27.326732 88.629 -111.1548
27.524753 88.654 -111.4774
27.724208 88.679 -111.7917
27.925110 88.706 -112.1012
28.127466 88.735 -112.4077
28.331290 88.764 -112.7120
28.536590 88.794 -113.0140
28.743378 88.825 -113.3123
28.951664 88.857 -113.6056
29.161460 88.890 -113.8929
29.372776 88.926 -114.1749
29.585623 88.964 -114.4533
29.800013 89.006 -114.7317
30.015956 89.052 -115.0146
30.233464 89.103 -115.3071
30.452548 89.157 -115.6138
30.673220 89.216 -115.9380
30.895490 89.277 -116.2811
31.119372 89.342 -116.6429
31.344876 89.409 -117.0212
31.572014 89.479 -117.4128
31.800797 89.551 -117.8138
32.031239 89.625 -118.2201
32.263351 89.703 -118.6283
32.497144 89.783 -119.0356
32.732632 89.866 -119.4402
32.969826 89.953 -119.8407
33.208739 90.042 -120.2365
33.449383 90.134 -120.6269
33.691771 90.230 -121.0118
33.935916 90.327 -121.3909
34.181829 90.426 -121.7643
34.429525 90.527 -122.1321
34.679015 90.629 -122.4946
34.930314 90.732 -122.8521
35.183433 90.835 -123.2052
35.438387 90.938 -123.5543
35.695188 91.040 -123.9001
35.953850 91.142 -124.2433
36.214387 91.242 -124.5848
36.476811 91.340 -124.9258
36.741137 91.437 -125.2675
37.007378 91.531 -125.6113
37.275549 91.622 -125.9581
37.545663 91.710 -126.3086
37.817734 91.794 -126.6626
38.091777 91.875 -127.0195
38.367806 91.952 -127.3783
38.645835 92.025 -127.7375
38.925879 92.094 -128.0962
39.207952 92.160 -128.4534
39.492069 92.223 -128.8088
39.778244 92.284 -129.1631
40.066494 92.342 -129.5171
40.356832 92.399 -129.8723
40.649275 92.455 -130.2300
40.943836 92.509 -130.5917
41.240532 92.562 -130.9585
41.539378 92.614 -131.3309
41.840389 92.666 -131.7092
42.143582 92.717 -132.0936
42.448972 92.767 -132.4841
42.756574 92.817 -132.8807
43.066406 92.866 -133.2838
43.378483 92.915 -133.6937
43.692822 92.963 -134.1107
44.009438 93.010 -134.5342
44.328348 93.055 -134.9630
44.649570 93.099 -135.3951
44.973119 93.140 -135.8275
45.299013 93.179 -136.2568
45.627268 93.216 -136.6797
45.957902 93.250 -137.0925
46.290932 93.282 -137.4926
46.626375 93.312 -137.8774
46.964249 93.341 -138.2453
47.304571 93.368 -138.5951
47.647360 93.395 -138.9266
47.992632 93.421 -139.2405
48.340407 93.447 -139.5384
48.690701 93.473 -139.8224
49.043534 93.500 -140.0953
49.398924 93.527 -140.3602
49.756889 93.554 -140.6198
50.117447 93.581 -140.8768
50.480619 93.609 -141.1338
50.846423 93.636 -141.3928
51.214877 93.663 -141.6555
51.586001 93.688 -141.9230
51.959814 93.712 -142.1954
52.336336 93.735 -142.4719
52.715587 93.755 -142.7512
53.097586 93.773 -143.0311
53.482353 93.789 -143.3101
53.869908 93.803 -143.5864
54.260272 93.815 -143.8593
54.653464 93.827 -144.1279
55.049506 93.837 -144.3920
55.448417 93.846 -144.6517
55.850219 93.856 -144.9069
56.254933 93.866 -145.1583
56.662579 93.877 -145.4072
57.073180 93.890 -145.6552
57.486755 93.906 -145.9042
57.903328 93.925 -146.1567
58.322919 93.947 -146.4155
58.745551 93.972 -146.6830
59.171246 94.002 -146.9620
59.600025 94.035 -147.2546
60.031911 94.072 -147.5620
60.466927 94.112 -147.8839
60.905096 94.155 -148.2186
61.346439 94.201 -148.5634
61.790981 94.248 -148.9149
62.238744 94.298 -149.2700
62.689751 94.349 -149.6262
63.144027 94.403 -149.9819
63.601595 94.458 -150.3359
64.062478 94.514 -150.6876
64.526701 94.572 -151.0371
64.994288 94.630 -151.3846
65.465264 94.689 -151.7310
65.939652 94.748 -152.0770
66.417478 94.807 -152.4233
66.898766 94.865 -152.7708
67.383542 94.921 -153.1193
67.871831 94.976 -153.4688
68.363659 95.029 -153.8192
68.859050 95.081 -154.1704
69.358031 95.130 -154.5225
69.860628 95.177 -154.8760
70.366867 95.222 -155.2313
70.876774 95.264 -155.5885
71.390376 95.304 -155.9478
71.907700 95.342 -156.3091
72.428773 95.377 -156.6721
72.953622 95.409 -157.0365
73.482274 95.438 -157.4020
74.014757 95.465 -157.7682
74.551098 95.489 -158.1346
75.091326 95.510 -158.5005
75.635469 95.528 -158.8657
76.183555 95.544 -159.2296
76.735612 95.558 -159.5921
77.291670 95.570 -159.9529
77.851757 95.580 -160.3119
78.415903 95.588 -160.6694
78.984137 95.595 -161.0257
79.556489 95.602 -161.3812
80.132988 95.607 -161.7363
80.713665 95.612 -162.0914
81.298549 95.617 -162.4467
81.887672 95.621 -162.8022
82.481064 95.625 -163.1580
83.078756 95.629 -163.5139
83.680778 95.632 -163.8698
84.287164 95.635 -164.2258
84.897943 95.638 -164.5816
85.513149 95.639 -164.9372
86.132812 95.641 -165.2922
86.756966 95.641 -165.6465
87.385643 95.641 -165.9994
88.018875 95.640 -166.3507
88.656696 95.638 -166.7002
89.299139 95.636 -167.0475
89.946238 95.633 -167.3928
90.598025 95.630 -167.7361
91.254536 95.626 -168.0773
91.915804 95.622 -168.4167
92.581864 95.618 -168.7543
93.252750 95.614 -169.0903
93.928498 95.610 -169.4248
94.609143 95.606 -169.7578
95.294719 95.602 -170.0895
95.985264 95.598 -170.4199
96.680813 95.594 -170.7493
97.381402 95.590 -171.0777
98.087068 95.586 -171.4054
98.797847 95.583 -171.7327
99.513777 95.579 -172.0594
100.234895 95.576 -172.3860
100.961238 95.573 -172.7122
101.692845 95.570 -173.0378
102.429753 95.568 -173.3629
103.172002 95.566 -173.6870
103.919628 95.565 -174.0098
104.672673 95.565 -174.3312
105.431174 95.566 -174.6507
106.195172 95.568 -174.9681
106.964706 95.572 -175.2834
107.739816 95.576 -175.5961
108.520543 95.582 -175.9064
109.306928 95.589 -176.2141
110.099011 95.596 -176.5195
110.896834 95.605 -176.8231
111.700438 95.614 -177.1256
112.509866 95.623 -177.4274
113.325158 95.633 -177.7289
114.146359 95.644 -178.0306
114.973511 95.654 -178.3324
115.806656 95.664 -178.6345
116.645839 95.674 -178.9369
117.491103 95.683 -179.2396
118.342492 95.693 -179.5424
119.200050 95.701 -179.8449
120.063823 95.709 179.8531
120.933855 95.717 179.5523
121.810191 95.724 179.2532
122.692878 95.730 178.9563
123.581962 95.736 178.6622
124.477487 95.741 178.3713
125.379503 95.745 178.0835
126.288054 95.749 177.7986
127.203189 95.752 177.5162
128.124956 95.755 177.2358
129.053402 95.757 176.9569
129.988577 95.758 176.6792
130.930527 95.758 176.4027
131.879304 95.757 176.1273
132.834956 95.755 175.8533
133.797533 95.752 175.5808
134.767085 95.747 175.3099
135.743663 95.741 175.0406
136.727317 95.734 174.7726
137.718100 95.725 174.5057
138.716062 95.715 174.2391
139.721255 95.704 173.9727
140.733733 95.691 173.7060
141.753548 95.677 173.4389
142.780753 95.661 173.1715
143.815401 95.645 172.9042
144.857546 95.628 172.6375
145.907244 95.609 172.3720
146.964548 95.591 172.1083
148.029514 95.571 171.8468
149.102197 95.551 171.5879
150.182652 95.531 171.3317
151.270938 95.510 171.0781
152.367109 95.489 170.8267
153.471224 95.468 170.5773
154.583340 95.447 170.3295
155.703515 95.425 170.0831
156.831807 95.404 169.8376
157.968274 95.383 169.5928
159.112978 95.362 169.3488
160.265976 95.341 169.1053
161.427329 95.320 168.8627
162.597098 95.300 168.6213
163.775344 95.280 168.3815
164.962128 95.260 168.1437
166.157511 95.241 167.9080
167.361557 95.223 167.6744
168.574328 95.204 167.4424
169.795887 95.186 167.2119
171.026298 95.168 166.9824
172.265625 95.151 166.7540
173.513933 95.133 166.5265
174.771286 95.116 166.2999
176.037751 95.098 166.0744
177.313393 95.080 165.8500
178.598279 95.062 165.6270
179.892476 95.043 165.4052
181.196051 95.024 165.1847
182.509072 95.004 164.9653
183.831608 94.983 164.7466
185.163728 94.962 164.5282
186.505500 94.940 164.3098
187.856996 94.918 164.0908
189.218285 94.894 163.8715
190.589439 94.870 163.6517
191.970529 94.846 163.4318
193.361626 94.820 163.2125
194.762804 94.795 162.9943
196.174136 94.769 162.7781
197.595694 94.743 162.5649
199.027554 94.716 162.3557
200.469790 94.690 162.1511
201.922477 94.663 161.9515
203.385690 94.636 161.7570
204.859507 94.609 161.5668
206.344003 94.582 161.3801
207.839257 94.555 161.1955
209.345346 94.529 161.0121
210.862348 94.502 160.8290
212.390344 94.476 160.6461
213.929412 94.451 160.4630
215.479633 94.425 160.2802
217.041087 94.400 160.0980
218.613856 94.375 159.9171
220.198022 94.351 159.7381
221.793668 94.328 159.5619
223.400876 94.305 159.3892
225.019731 94.285 159.2208
226.650317 94.265 159.0574
228.292718 94.247 158.8996
229.947022 94.231 158.7474
231.613312 94.217 158.6006
233.291678 94.205 158.4582
234.982206 94.194 158.3190
236.684984 94.185 158.1815
238.400101 94.178 158.0443
240.127646 94.172 157.9060
241.867710 94.166 157.7656
243.620383 94.162 157.6223
245.385757 94.159 157.4758
247.163923 94.156 157.3262
248.954975 94.154 157.1736
250.759005 94.153 157.0184
252.576108 94.151 156.8609
254.406379 94.149 156.7018
256.249912 94.148 156.5419
258.106805 94.145 156.3822
259.977153 94.143 156.2236
261.861055 94.140 156.0667
263.758608 94.136 155.9119
265.669911 94.132 155.7592
267.595065 94.128 155.6079
269.534169 94.123 155.4576
271.487325 94.118 155.3080
273.454634 94.113 155.1587
275.436199 94.107 155.0099
277.432123 94.102 154.8618
279.442511 94.096 154.7143
281.467467 94.090 154.5676
283.507096 94.084 154.4221
285.561505 94.079 154.2780
287.630801 94.073 154.1356
289.715093 94.068 153.9953
291.814488 94.063 153.8571
293.929096 94.059 153.7211
296.059027 94.055 153.5870
298.204393 94.052 153.4547
300.365305 94.049 153.3241
302.541876 94.047 153.1951
304.734219 94.044 153.0680
306.942449 94.042 152.9430
309.166680 94.040 152.8203
311.407029 94.039 152.7003
313.663613 94.037 152.5829
315.936549 94.035 152.4680
318.225955 94.034 152.3554
320.531952 94.032 152.2451
322.854659 94.031 152.1370
325.194197 94.029 152.0310
327.550688 94.027 151.9272
329.924255 94.025 151.8254
332.315022 94.022 151.7252
334.723114 94.019 151.6263
337.148655 94.015 151.5285
339.591774 94.011 151.4313
342.052596 94.006 151.3347
344.531250 94.001 151.2385
347.027865 93.994 151.1426
349.542572 93.986 151.0471
352.075502 93.978 150.9518
354.626786 93.968 150.8569
357.196558 93.957 150.7627
359.784951 93.945 150.6694
362.392101 93.932 150.5771
365.018144 93.919 150.4860
367.663216 93.905 150.3959
370.327455 93.890 150.3069
373.011000 93.874 150.2188
375.713992 93.859 150.1312
378.436570 93.843 150.0441
381.178878 93.826 149.9574
383.941057 93.810 149.8710
386.723252 93.794 149.7850
389.525608 93.778 149.6995
392.348271 93.761 149.6144
395.191389 93.745 149.5302
398.055108 93.728 149.4466
400.939580 93.710 149.3640
403.844953 93.693 149.2825
406.771380 93.674 149.2020
409.719013 93.655 149.1225
412.688006 93.636 149.0439
415.678514 93.615 148.9662
418.690692 93.593 148.8892
421.724697 93.569 148.8125
424.780688 93.545 148.7361
427.858824 93.518 148.6595
430.959265 93.491 148.5826
434.082174 93.462 148.5051
437.227712 93.432 148.4272
440.396044 93.400 148.3489
443.587336 93.366 148.2708
446.801752 93.332 148.1933
450.039462 93.296 148.1170
453.300634 93.259 148.0425
456.585437 93.221 147.9705
459.894043 93.183 147.9012
463.226625 93.144 147.8355
466.583356 93.106 147.7733
469.964411 93.068 147.7143
473.369967 93.031 147.6581
476.800201 92.995 147.6041
480.255292 92.960 147.5513
483.735420 92.927 147.4991
487.240766 92.895 147.4468
490.771513 92.864 147.3940
494.327846 92.835 147.3403
497.909949 92.808 147.2856
501.518010 92.782 147.2299
505.152216 92.757 147.1735
508.812758 92.735 147.1163
512.499825 92.713 147.0585
516.213610 92.694 146.9999
519.954306 92.676 146.9398
523.722109 92.660 146.8778
527.517216 92.646 146.8135
531.339823 92.633 146.7467
535.190130 92.623 146.6772
539.068339 92.614 146.6055
542.974650 92.608 146.5317
546.909268 92.603 146.4564
550.872398 92.601 146.3801
554.864247 92.600 146.3032
558.885022 92.601 146.2256
562.934933 92.605 146.1473
567.014192 92.609 146.0679
571.123010 92.614 145.9872
575.261603 92.621 145.9054
579.430186 92.627 145.8229
583.628976 92.633 145.7410
587.858192 92.639 145.6608
592.118055 92.644 145.5840
596.408786 92.648 145.5124
600.730610 92.650 145.4474
605.083752 92.652 145.3904
609.468438 92.653 145.3424
613.884897 92.653 145.3041
618.333360 92.653 145.2756
622.814059 92.652 145.2563
627.327226 92.651 145.2449
631.873098 92.650 145.2393
636.451911 92.649 145.2370
641.063904 92.649 145.2349
645.709317 92.649 145.2302
650.388393 92.650 145.2201
655.101375 92.651 145.2025
659.848510 92.652 145.1755
664.630044 92.652 145.1383
669.446228 92.652 145.0900
674.297311 92.650 145.0305
679.183547 92.647 144.9600
684.105191 92.643 144.8793
689.062499 92.636 144.7897
694.055730 92.627 144.6929
699.085144 92.615 144.5911
704.151003 92.600 144.4866
709.253572 92.583 144.3821
714.393116 92.562 144.2805
719.569903 92.539 144.1845
724.784203 92.513 144.0966
730.036288 92.485 144.0192
735.326432 92.454 143.9539
740.654910 92.422 143.9019
746.022001 92.388 143.8636
751.427984 92.354 143.8386
756.873141 92.319 143.8256
762.357756 92.285 143.8225
767.882114 92.252 143.8264
773.446504 92.220 143.8335
779.051217 92.190 143.8400
784.696543 92.161 143.8418
790.382778 92.134 143.8355
796.110217 92.108 143.8181
801.879160 92.084 143.7871
807.689907 92.060 143.7404
813.542761 92.036 143.6762
819.438027 92.013 143.5938
825.376013 91.989 143.4933
831.357028 91.963 143.3763
837.381383 91.936 143.2457
843.449394 91.906 143.1056
849.561376 91.874 142.9613
855.717648 91.839 142.8187
861.918531 91.801 142.6843
868.164348 91.761 142.5651
874.455424 91.718 142.4678
880.792089 91.673 142.3991
887.174671 91.628 142.3644
893.603505 91.583 142.3674
900.078924 91.540 142.4097
906.601267 91.502 142.4893
913.170874 91.468 142.6016
919.788086 91.441 142.7388
926.453250 91.421 142.8912
933.166712 91.409 143.0482
939.928823 91.406 143.2000
946.739934 91.409 143.3381
953.600402 91.419 143.4563
960.510584 91.435 143.5504
967.470839 91.456 143.6181
974.481532 91.481 143.6589
981.543027 91.510 143.6733
988.655692 91.541 143.6628
995.819899 91.575 143.6292
1003.036020 91.610 143.5746
1010.304433 91.647 143.5015
1017.625515 91.685 143.4122
1024.999649 91.724 143.3090
1032.427219 91.764 143.1938
1039.908612 91.805 143.0687
1047.444219 91.846 142.9347
1055.034432 91.888 142.7928
1062.679646 91.930 142.6437
1070.380261 91.972 142.4879
1078.136677 92.014 142.3259
1085.949300 92.055 142.1583
1093.818536 92.096 141.9858
1101.744796 92.136 141.8093
1109.728493 92.175 141.6295
1117.770043 92.213 141.4474
1125.869866 92.250 141.2639
1134.028383 92.285 141.0797
1142.246020 92.319 140.8954
1150.523206 92.352 140.7114
1158.860371 92.384 140.5280
1167.257951 92.414 140.3451
1175.716383 92.443 140.1631
1184.236109 92.471 139.9820
1192.817572 92.498 139.8021
1201.461220 92.524 139.6232
1210.167503 92.550 139.4453
1218.936876 92.575 139.2678
1227.769795 92.599 139.0906
1236.666721 92.622 138.9134
1245.628118 92.645 138.7361
1254.654453 92.667 138.5587
1263.746196 92.689 138.3813
1272.903822 92.709 138.2041
1282.127808 92.728 138.0275
1291.418634 92.747 137.8521
1300.776786 92.763 137.6790
1310.202751 92.779 137.5095
1319.697020 92.792 137.3452
1329.260089 92.805 137.1874
1338.892455 92.816 137.0376
1348.594622 92.825 136.8969
1358.367094 92.834 136.7665
1368.210382 92.842 136.6470
1378.124999 92.850 136.5383
1388.111461 92.857 136.4404
1398.170288 92.865 136.3530
1408.302007 92.873 136.2760
1418.507144 92.882 136.2097
1428.786231 92.892 136.1544
1439.139805 92.902 136.1106
1449.568405 92.914 136.0789
1460.072576 92.927 136.0597
1470.652863 92.941 136.0532
1481.309820 92.956 136.0598
1492.044002 92.972 136.0791
1502.855968 92.990 136.1110
1513.746282 93.008 136.1547
1524.715511 93.026 136.2098
1535.764228 93.044 136.2760
1546.893009 93.061 136.3533
1558.102433 93.077 136.4422
1569.393086 93.091 136.5438
1580.765555 93.103 136.6593
1592.220434 93.113 136.7903
1603.758320 93.120 136.9382
1615.379813 93.125 137.1045
1627.085521 93.127 137.2896
1638.876054 93.128 137.4932
1650.752025 93.128 137.7131
1662.714055 93.126 137.9461
1674.762766 93.124 138.1884
1686.898788 93.121 138.4358
1699.122752 93.117 138.6857
1711.435296 93.112 138.9370
1723.837061 93.105 139.1909
1736.328695 93.097 139.4506
1748.910849 93.087 139.7205
1761.584178 93.075 140.0040
1774.349343 93.064 140.3037
1787.207010 93.052 140.6195
1800.157848 93.042 140.9491
1813.202534 93.033 141.2887
1826.341747 93.026 141.6332
1839.576172 93.020 141.9777
1852.906500 93.016 142.3174
1866.333424 93.013 142.6484
1879.857645 93.010 142.9675
1893.479869 93.007 143.2727
1907.200804 93.002 143.5632
1921.021168 92.995 143.8400
1934.941679 92.985 144.1056
1948.963064 92.971 144.3643
1963.086054 92.953 144.6214
1977.311384 92.932 144.8831
1991.639798 92.907 145.1545
2006.072041 92.879 145.4397
2020.608866 92.849 145.7404
2035.251031 92.818 146.0559
2049.999299 92.786 146.3840
2064.854438 92.756 146.7213
2079.817225 92.727 147.0635
2094.888438 92.699 147.4067
2110.068863 92.672 147.7479
2125.359292 92.648 148.0847
2140.760521 92.624 148.4159
2156.273355 92.603 148.7411
2171.898600 92.583 149.0612
2187.637073 92.564 149.3769
2203.489593 92.548 149.6898
2219.456987 92.533 150.0007
2235.540087 92.520 150.3105
2251.739732 92.510 150.6194
2268.056766 92.502 150.9279
2284.492041 92.497 151.2365
2301.046412 92.495 151.5460
2317.720742 92.497 151.8572
2334.515902 92.502 152.1703
2351.432767 92.511 152.4848
2368.472218 92.526 152.7989
2385.635144 92.546 153.1096
2402.922440 92.572 153.4132
2420.335006 92.605 153.7052
2437.873752 92.643 153.9808
2455.539590 92.688 154.2357
2473.333442 92.739 154.4660
2491.256235 92.795 154.6685
2509.308905 92.856 154.8416
2527.492392 92.921 154.9850
2545.807644 92.990 155.1005
2564.255615 93.061 155.1909
2582.837268 93.135 155.2599
2601.553572 93.212 155.3113
2620.405502 93.291 155.3477
2639.394040 93.373 155.3712
2658.520177 93.457 155.3828
2677.784910 93.544 155.3825
2697.189244 93.634 155.3701
2716.734189 93.727 155.3443
2736.420765 93.821 155.3036
2756.249998 93.918 155.2466
2776.222921 94.016 155.1722
2796.340577 94.116 155.0803
2816.604013 94.215 154.9713
2837.014287 94.315 154.8461
2857.572462 94.413 154.7058
2878.279610 94.511 154.5517
2899.136811 94.606 154.3853
2920.145151 94.700 154.2081
2941.305727 94.790 154.0220
2962.619641 94.877 153.8285
2984.088004 94.960 153.6288
3005.711935 95.039 153.4243
3027.492563 95.114 153.2162
3049.431022 95.182 153.0058
3071.528457 95.245 152.7949
3093.786018 95.302 152.5851
3116.204867 95.352 152.3782
3138.786172 95.395 152.1754
3161.531110 95.432 151.9779
3184.440868 95.461 151.7860
3207.516639 95.483 151.5997
3230.759627 95.498 151.4185
3254.171043 95.505 151.2422
3277.752108 95.505 151.0707
3301.504051 95.497 150.9042
3325.428110 95.482 150.7435
3349.525533 95.459 150.5897
3373.797576 95.429 150.4439
3398.245504 95.392 150.3073
3422.870591 95.349 150.1809
3447.674123 95.299 150.0659
3472.657391 95.244 149.9634
