* Measurement data measured by REW V5.31.3
* Source: EXCL: Headset (USB-C to 3.5mm Headphone Jack Adapter), MICROPHONE (Master Volume), 0, volume: 0.750
* Format: 256k Log Swept Sine, 1 sweep at -12.0 dBFS with no timing reference
* Dated: Apr 1, 2025 10:20:44 PM
* REW Settings:
*  C-weighting compensation: Off
*  Target level: 75.0 dB
* Note: ; 
* Measurement: HD6XX (Soulwit) R7
* Smoothing: 1/6 octave
* Frequency Step: 96 ppo
* Start Frequency: 20.0 Hz
*
* Freq(Hz) SPL(dB) Phase(degrees)
20.033247 85.251 -95.9705
20.178416 85.334 -96.2694
20.324637 85.418 -96.5844
20.471918 85.503 -96.9126
20.620266 85.588 -97.2502
20.769689 85.673 -97.5922
20.920195 85.757 -97.9329
21.071791 85.843 -98.2664
21.224486 85.929 -98.5873
21.378287 86.015 -98.8911
21.533203 86.104 -99.1749
21.689242 86.195 -99.4375
21.846411 86.289 -99.6803
22.004719 86.386 -99.9066
22.164174 86.486 -100.1218
22.324785 86.589 -100.3328
22.486559 86.694 -100.5475
22.649506 86.799 -100.7736
22.813634 86.904 -101.0180
22.978951 87.007 -101.2861
23.145466 87.105 -101.5812
23.313188 87.198 -101.9044
23.482124 87.284 -102.2545
23.652286 87.363 -102.6284
23.823680 87.432 -103.0219
23.996316 87.494 -103.4297
24.170203 87.547 -103.8469
24.345351 87.591 -104.2686
24.521767 87.629 -104.6909
24.699462 87.660 -105.1110
24.878444 87.686 -105.5265
25.058724 87.707 -105.9362
25.240310 87.724 -106.3389
25.423211 87.738 -106.7336
25.607438 87.750 -107.1188
25.793000 87.760 -107.4929
25.979907 87.768 -107.8540
26.168168 87.776 -108.2003
26.357794 87.784 -108.5304
26.548793 87.793 -108.8440
26.741176 87.804 -109.1419
26.934954 87.818 -109.4265
27.130136 87.835 -109.7010
27.326732 87.855 -109.9701
27.524753 87.879 -110.2380
27.724208 87.906 -110.5092
27.925110 87.936 -110.7866
28.127466 87.968 -111.0721
28.331290 88.001 -111.3658
28.536590 88.035 -111.6664
28.743378 88.069 -111.9714
28.951664 88.104 -112.2781
29.161460 88.139 -112.5836
29.372776 88.174 -112.8860
29.585623 88.211 -113.1845
29.800013 88.250 -113.4795
30.015956 88.292 -113.7729
30.233464 88.336 -114.0676
30.452548 88.384 -114.3672
30.673220 88.435 -114.6757
30.895490 88.490 -114.9963
31.119372 88.548 -115.3319
31.344876 88.610 -115.6840
31.572014 88.674 -116.0522
31.800797 88.740 -116.4350
32.031239 88.808 -116.8290
32.263351 88.877 -117.2297
32.497144 88.949 -117.6320
32.732632 89.022 -118.0304
32.969826 89.098 -118.4206
33.208739 89.177 -118.7995
33.449383 89.260 -119.1661
33.691771 89.348 -119.5216
33.935916 89.440 -119.8691
34.181829 89.537 -120.2133
34.429525 89.639 -120.5592
34.679015 89.743 -120.9119
34.930314 89.850 -121.2750
35.183433 89.958 -121.6499
35.438387 90.064 -122.0361
35.695188 90.169 -122.4305
35.953850 90.272 -122.8282
36.214387 90.370 -123.2234
36.476811 90.465 -123.6097
36.741137 90.557 -123.9811
37.007378 90.644 -124.3332
37.275549 90.729 -124.6632
37.545663 90.812 -124.9705
37.817734 90.893 -125.2564
38.091777 90.972 -125.5242
38.367806 91.049 -125.7780
38.645835 91.125 -126.0227
38.925879 91.199 -126.2628
39.207952 91.271 -126.5026
39.492069 91.341 -126.7452
39.778244 91.408 -126.9930
40.066494 91.472 -127.2476
40.356832 91.532 -127.5099
40.649275 91.590 -127.7806
40.943836 91.645 -128.0601
41.240532 91.698 -128.3488
41.539378 91.749 -128.6470
41.840389 91.798 -128.9551
42.143582 91.846 -129.2735
42.448972 91.893 -129.6024
42.756574 91.939 -129.9414
43.066406 91.986 -130.2899
43.378483 92.032 -130.6465
43.692822 92.079 -131.0095
44.009438 92.127 -131.3768
44.328348 92.175 -131.7461
44.649570 92.224 -132.1152
44.973119 92.275 -132.4819
45.299013 92.325 -132.8439
45.627268 92.377 -133.1984
45.957902 92.428 -133.5426
46.290932 92.479 -133.8738
46.626375 92.530 -134.1896
46.964249 92.579 -134.4885
47.304571 92.628 -134.7698
47.647360 92.674 -135.0340
47.992632 92.718 -135.2820
48.340407 92.759 -135.5152
48.690701 92.797 -135.7346
49.043534 92.830 -135.9412
49.398924 92.860 -136.1365
49.756889 92.886 -136.3231
50.117447 92.908 -136.5048
50.480619 92.927 -136.6868
50.846423 92.943 -136.8755
51.214877 92.956 -137.0771
51.586001 92.966 -137.2969
51.959814 92.973 -137.5386
52.336336 92.977 -137.8036
52.715587 92.979 -138.0914
53.097586 92.979 -138.4000
53.482353 92.978 -138.7266
53.869908 92.976 -139.0681
54.260272 92.975 -139.4214
54.653464 92.976 -139.7838
55.049506 92.980 -140.1525
55.448417 92.987 -140.5250
55.850219 92.998 -140.8989
56.254933 93.013 -141.2719
56.662579 93.033 -141.6414
57.073180 93.057 -142.0056
57.486755 93.084 -142.3631
57.903328 93.116 -142.7134
58.322919 93.151 -143.0566
58.745551 93.188 -143.3939
59.171246 93.227 -143.7263
59.600025 93.268 -144.0550
60.031911 93.310 -144.3802
60.466927 93.351 -144.7018
60.905096 93.392 -145.0191
61.346439 93.434 -145.3317
61.790981 93.476 -145.6398
62.238744 93.518 -145.9447
62.689751 93.562 -146.2485
63.144027 93.607 -146.5534
63.601595 93.653 -146.8618
64.062478 93.702 -147.1752
64.526701 93.752 -147.4946
64.994288 93.803 -147.8202
65.465264 93.855 -148.1513
65.939652 93.908 -148.4865
66.417478 93.961 -148.8239
66.898766 94.014 -149.1614
67.383542 94.066 -149.4971
67.871831 94.116 -149.8292
68.363659 94.165 -150.1569
68.859050 94.212 -150.4796
69.358031 94.257 -150.7976
69.860628 94.300 -151.1120
70.366867 94.340 -151.4241
70.876774 94.377 -151.7355
71.390376 94.412 -152.0477
71.907700 94.444 -152.3623
72.428773 94.474 -152.6804
72.953622 94.501 -153.0027
73.482274 94.525 -153.3296
74.014757 94.547 -153.6606
74.551098 94.567 -153.9949
75.091326 94.585 -154.3314
75.635469 94.600 -154.6687
76.183555 94.614 -155.0060
76.735612 94.626 -155.3421
77.291670 94.636 -155.6767
77.851757 94.645 -156.0094
78.415903 94.652 -156.3402
78.984137 94.658 -156.6692
79.556489 94.662 -156.9965
80.132988 94.666 -157.3221
80.713665 94.668 -157.6461
81.298549 94.670 -157.9683
81.887672 94.671 -158.2886
82.481064 94.671 -158.6066
83.078756 94.670 -158.9219
83.680778 94.669 -159.2343
84.287164 94.668 -159.5434
84.897943 94.667 -159.8495
85.513149 94.666 -160.1528
86.132812 94.664 -160.4537
86.756966 94.663 -160.7528
87.385643 94.661 -161.0503
88.018875 94.658 -161.3464
88.656696 94.656 -161.6414
89.299139 94.653 -161.9351
89.946238 94.649 -162.2275
90.598025 94.645 -162.5186
91.254536 94.641 -162.8081
91.915804 94.637 -163.0961
92.581864 94.633 -163.3826
93.252750 94.629 -163.6675
93.928498 94.624 -163.9512
94.609143 94.620 -164.2336
95.294719 94.615 -164.5154
95.985264 94.611 -164.7969
96.680813 94.606 -165.0785
97.381402 94.602 -165.3607
98.087068 94.597 -165.6437
98.797847 94.593 -165.9276
99.513777 94.589 -166.2125
100.234895 94.585 -166.4980
100.961238 94.582 -166.7838
101.692845 94.579 -167.0693
102.429753 94.577 -167.3541
103.172002 94.577 -167.6377
103.919628 94.577 -167.9198
104.672673 94.578 -168.2005
105.431174 94.580 -168.4800
106.195172 94.584 -168.7587
106.964706 94.588 -169.0369
107.739816 94.593 -169.3149
108.520543 94.599 -169.5930
109.306928 94.606 -169.8713
110.099011 94.614 -170.1495
110.896834 94.622 -170.4275
111.700438 94.630 -170.7047
112.509866 94.639 -170.9805
113.325158 94.648 -171.2544
114.146359 94.657 -171.5261
114.973511 94.666 -171.7952
115.806656 94.676 -172.0618
116.645839 94.685 -172.3262
117.491103 94.694 -172.5885
118.342492 94.702 -172.8495
119.200050 94.710 -173.1097
120.063823 94.718 -173.3694
120.933855 94.725 -173.6289
121.810191 94.731 -173.8882
122.692878 94.736 -174.1470
123.581962 94.740 -174.4047
124.477487 94.743 -174.6605
125.379503 94.746 -174.9139
126.288054 94.748 -175.1641
127.203189 94.748 -175.4108
128.124956 94.748 -175.6541
129.053402 94.747 -175.8942
129.988577 94.745 -176.1317
130.930527 94.743 -176.3675
131.879304 94.739 -176.6021
132.834956 94.733 -176.8360
133.797533 94.727 -177.0696
134.767085 94.719 -177.3032
135.743663 94.711 -177.5369
136.727317 94.700 -177.7706
137.718100 94.689 -178.0042
138.716062 94.676 -178.2372
139.721255 94.662 -178.4694
140.733733 94.647 -178.7004
141.753548 94.632 -178.9297
142.780753 94.615 -179.1570
143.815401 94.597 -179.3821
144.857546 94.578 -179.6048
145.907244 94.559 -179.8251
146.964548 94.538 179.9571
148.029514 94.517 179.7416
149.102197 94.495 179.5283
150.182652 94.473 179.3173
151.270938 94.449 179.1082
152.367109 94.425 178.9013
153.471224 94.401 178.6965
154.583340 94.377 178.4941
155.703515 94.352 178.2939
156.831807 94.328 178.0962
157.968274 94.304 177.9008
159.112978 94.280 177.7078
160.265976 94.256 177.5170
161.427329 94.233 177.3286
162.597098 94.210 177.1426
163.775344 94.188 176.9594
164.962128 94.166 176.7787
166.157511 94.145 176.6006
167.361557 94.124 176.4247
168.574328 94.104 176.2508
169.795887 94.083 176.0786
171.026298 94.063 175.9077
172.265625 94.043 175.7377
173.513933 94.022 175.5679
174.771286 94.002 175.3979
176.037751 93.981 175.2271
177.313393 93.960 175.0551
178.598279 93.939 174.8818
179.892476 93.918 174.7075
181.196051 93.895 174.5326
182.509072 93.873 174.3580
183.831608 93.849 174.1846
185.163728 93.825 174.0131
186.505500 93.801 173.8442
187.856996 93.776 173.6784
189.218285 93.750 173.5155
190.589439 93.723 173.3553
191.970529 93.696 173.1971
193.361626 93.668 173.0406
194.762804 93.640 172.8850
196.174136 93.612 172.7299
197.595694 93.583 172.5746
199.027554 93.554 172.4191
200.469790 93.525 172.2633
201.922477 93.495 172.1081
203.385690 93.466 171.9544
204.859507 93.437 171.8037
206.344003 93.409 171.6571
207.839257 93.380 171.5153
209.345346 93.352 171.3785
210.862348 93.325 171.2465
212.390344 93.297 171.1189
213.929412 93.271 170.9957
215.479633 93.244 170.8767
217.041087 93.218 170.7620
218.613856 93.192 170.6518
220.198022 93.167 170.5460
221.793668 93.143 170.4446
223.400876 93.119 170.3472
225.019731 93.097 170.2534
226.650317 93.076 170.1631
228.292718 93.056 170.0756
229.947022 93.038 169.9905
231.613312 93.022 169.9073
233.291678 93.007 169.8255
234.982206 92.994 169.7444
236.684984 92.983 169.6635
238.400101 92.972 169.5826
240.127646 92.964 169.5017
241.867710 92.956 169.4208
243.620383 92.950 169.3401
245.385757 92.944 169.2593
247.163923 92.939 169.1782
248.954975 92.934 169.0963
250.759005 92.929 169.0129
252.576108 92.923 168.9276
254.406379 92.917 168.8400
256.249912 92.911 168.7500
258.106805 92.904 168.6578
259.977153 92.897 168.5638
261.861055 92.890 168.4687
263.758608 92.883 168.3731
265.669911 92.876 168.2777
267.595065 92.869 168.1831
269.534169 92.862 168.0897
271.487325 92.854 167.9979
273.454634 92.847 167.9078
275.436199 92.839 167.8199
277.432123 92.831 167.7345
279.442511 92.822 167.6518
281.467467 92.814 167.5722
283.507096 92.805 167.4960
285.561505 92.797 167.4234
287.630801 92.789 167.3546
289.715093 92.781 167.2896
291.814488 92.773 167.2283
293.929096 92.767 167.1705
296.059027 92.760 167.1158
298.204393 92.755 167.0637
300.365305 92.750 167.0139
302.541876 92.745 166.9658
304.734219 92.742 166.9189
306.942449 92.738 166.8733
309.166680 92.735 166.8287
311.407029 92.733 166.7854
313.663613 92.730 166.7436
315.936549 92.727 166.7036
318.225955 92.725 166.6658
320.531952 92.722 166.6302
322.854659 92.719 166.5972
325.194197 92.715 166.5665
327.550688 92.711 166.5381
329.924255 92.706 166.5119
332.315022 92.701 166.4875
334.723114 92.696 166.4648
337.148655 92.689 166.4437
339.591774 92.682 166.4243
342.052596 92.673 166.4062
344.531250 92.664 166.3896
347.027865 92.654 166.3741
349.542572 92.643 166.3592
352.075502 92.632 166.3447
354.626786 92.619 166.3305
357.196558 92.605 166.3167
359.784951 92.591 166.3035
362.392101 92.576 166.2911
365.018144 92.560 166.2796
367.663216 92.543 166.2690
370.327455 92.526 166.2593
373.011000 92.509 166.2504
375.713992 92.492 166.2421
378.436570 92.474 166.2344
381.178878 92.456 166.2274
383.941057 92.438 166.2210
386.723252 92.421 166.2152
389.525608 92.403 166.2101
392.348271 92.384 166.2058
395.191389 92.366 166.2025
398.055108 92.346 166.2003
400.939580 92.327 166.1996
403.844953 92.306 166.2003
406.771380 92.285 166.2024
409.719013 92.263 166.2058
412.688006 92.240 166.2104
415.678514 92.216 166.2163
418.690692 92.190 166.2233
421.724697 92.163 166.2318
424.780688 92.135 166.2418
427.858824 92.106 166.2534
430.959265 92.075 166.2668
434.082174 92.042 166.2816
437.227712 92.009 166.2975
440.396044 91.974 166.3141
443.587336 91.938 166.3309
446.801752 91.900 166.3480
450.039462 91.862 166.3651
453.300634 91.822 166.3828
456.585437 91.782 166.4016
459.894043 91.741 166.4220
463.226625 91.700 166.4449
466.583356 91.659 166.4708
469.964411 91.619 166.4998
473.369967 91.579 166.5319
476.800201 91.541 166.5667
480.255292 91.503 166.6038
483.735420 91.468 166.6429
487.240766 91.433 166.6835
490.771513 91.400 166.7247
494.327846 91.369 166.7659
497.909949 91.340 166.8061
501.518010 91.312 166.8447
505.152216 91.286 166.8813
508.812758 91.262 166.9157
512.499825 91.239 166.9475
516.213610 91.218 166.9766
519.954306 91.198 167.0029
523.722109 91.181 167.0266
527.517216 91.165 167.0482
531.339823 91.151 167.0681
535.190130 91.139 167.0874
539.068339 91.128 167.1069
542.974650 91.119 167.1271
546.909268 91.112 167.1487
550.872398 91.106 167.1718
554.864247 91.102 167.1963
558.885022 91.099 167.2222
562.934933 91.098 167.2496
567.014192 91.097 167.2784
571.123010 91.098 167.3090
575.261603 91.098 167.3417
579.430186 91.099 167.3776
583.628976 91.101 167.4174
587.858192 91.102 167.4621
592.118055 91.103 167.5126
596.408786 91.105 167.5693
600.730610 91.108 167.6315
605.083752 91.110 167.6980
609.468438 91.114 167.7670
613.884897 91.117 167.8365
618.333360 91.121 167.9048
622.814059 91.124 167.9701
627.327226 91.126 168.0317
631.873098 91.128 168.0894
636.451911 91.129 168.1429
641.063904 91.128 168.1928
645.709317 91.125 168.2395
650.388393 91.120 168.2836
655.101375 91.114 168.3258
659.848510 91.107 168.3669
664.630044 91.098 168.4073
669.446228 91.087 168.4475
674.297311 91.075 168.4875
679.183547 91.062 168.5275
684.105191 91.048 168.5670
689.062499 91.032 168.6063
694.055730 91.014 168.6458
699.085144 90.995 168.6861
704.151003 90.974 168.7288
709.253572 90.951 168.7756
714.393116 90.926 168.8285
719.569903 90.899 168.8896
724.784203 90.871 168.9604
730.036288 90.843 169.0423
735.326432 90.813 169.1350
740.654910 90.784 169.2375
746.022001 90.756 169.3475
751.427984 90.728 169.4620
756.873141 90.702 169.5773
762.357756 90.677 169.6893
767.882114 90.653 169.7942
773.446504 90.629 169.8881
779.051217 90.607 169.9679
784.696543 90.585 170.0311
790.382778 90.562 170.0762
796.110217 90.540 170.1027
801.879160 90.516 170.1105
807.689907 90.492 170.1003
813.542761 90.466 170.0731
819.438027 90.437 170.0308
825.376013 90.407 169.9761
831.357028 90.373 169.9130
837.381383 90.336 169.8467
843.449394 90.296 169.7832
849.561376 90.253 169.7295
855.717648 90.206 169.6924
861.918531 90.157 169.6790
868.164348 90.106 169.6955
874.455424 90.053 169.7469
880.792089 90.001 169.8365
887.174671 89.950 169.9657
893.603505 89.903 170.1332
900.078924 89.859 170.3355
906.601267 89.821 170.5668
913.170874 89.790 170.8195
919.788086 89.766 171.0845
926.453250 89.749 171.3525
933.166712 89.740 171.6147
939.928823 89.738 171.8637
946.739934 89.743 172.0937
953.600402 89.753 172.3008
960.510584 89.768 172.4827
967.470839 89.787 172.6388
974.481532 89.810 172.7693
981.543027 89.836 172.8753
988.655692 89.865 172.9581
995.819899 89.895 173.0195
1003.036020 89.928 173.0613
1010.304433 89.961 173.0852
1017.625515 89.996 173.0933
1024.999649 90.032 173.0877
1032.427219 90.068 173.0704
1039.908612 90.105 173.0433
1047.444219 90.143 173.0078
1055.034432 90.180 172.9647
1062.679646 90.218 172.9150
1070.380261 90.256 172.8592
1078.136677 90.294 172.7977
1085.949300 90.332 172.7313
1093.818536 90.369 172.6604
1101.744796 90.405 172.5858
1109.728493 90.440 172.5082
1117.770043 90.474 172.4281
1125.869866 90.507 172.3463
1134.028383 90.538 172.2632
1142.246020 90.568 172.1797
1150.523206 90.596 172.0964
1158.860371 90.622 172.0142
1167.257951 90.647 171.9337
1175.716383 90.670 171.8560
1184.236109 90.692 171.7820
1192.817572 90.713 171.7126
1201.461220 90.733 171.6482
1210.167503 90.752 171.5887
1218.936876 90.770 171.5338
1227.769795 90.789 171.4828
1236.666721 90.807 171.4351
1245.628118 90.824 171.3896
1254.654453 90.842 171.3458
1263.746196 90.860 171.3032
1272.903822 90.877 171.2612
1282.127808 90.894 171.2195
1291.418634 90.910 171.1780
1300.776786 90.925 171.1371
1310.202751 90.940 171.0973
1319.697020 90.953 171.0593
1329.260089 90.966 171.0238
1338.892455 90.976 170.9919
1348.594622 90.986 170.9651
1358.367094 90.994 170.9446
1368.210382 91.002 170.9320
1378.124999 91.008 170.9281
1388.111461 91.015 170.9337
1398.170288 91.020 170.9493
1408.302007 91.026 170.9760
1418.507144 91.033 171.0145
1428.786231 91.040 171.0663
1439.139805 91.047 171.1325
1449.568405 91.056 171.2142
1460.072576 91.066 171.3121
1470.652863 91.077 171.4266
1481.309820 91.091 171.5573
1492.044002 91.106 171.7034
1502.855968 91.122 171.8636
1513.746282 91.140 172.0361
1524.715511 91.159 172.2189
1535.764228 91.178 172.4104
1546.893009 91.197 172.6099
1558.102433 91.215 172.8176
1569.393086 91.232 173.0345
1580.765555 91.246 173.2624
1592.220434 91.259 173.5029
1603.758320 91.269 173.7579
1615.379813 91.277 174.0281
1627.085521 91.284 174.3135
1638.876054 91.289 174.6124
1650.752025 91.293 174.9215
1662.714055 91.297 175.2368
1674.762766 91.300 175.5536
1686.898788 91.302 175.8680
1699.122752 91.303 176.1774
1711.435296 91.302 176.4808
1723.837061 91.299 176.7800
1736.328695 91.293 177.0788
1748.910849 91.284 177.3824
1761.584178 91.273 177.6966
1774.349343 91.260 178.0264
1787.207010 91.246 178.3748
1800.157848 91.232 178.7426
1813.202534 91.218 179.1279
1826.341747 91.206 179.5264
1839.576172 91.196 179.9322
1852.906500 91.188 -179.6612
1866.333424 91.181 -179.2600
1879.857645 91.175 -178.8698
1893.479869 91.169 -178.4948
1907.200804 91.163 -178.1378
1921.021168 91.155 -177.7996
1934.941679 91.144 -177.4787
1948.963064 91.130 -177.1722
1963.086054 91.111 -176.8752
1977.311384 91.089 -176.5820
1991.639798 91.061 -176.2863
2006.072041 91.030 -175.9821
2020.608866 90.994 -175.6644
2035.251031 90.956 -175.3295
2049.999299 90.916 -174.9752
2064.854438 90.875 -174.6013
2079.817225 90.835 -174.2095
2094.888438 90.795 -173.8031
2110.068863 90.758 -173.3864
2125.359292 90.723 -172.9644
2140.760521 90.691 -172.5419
2156.273355 90.661 -172.1232
2171.898600 90.634 -171.7107
2187.637073 90.610 -171.3056
2203.489593 90.588 -170.9070
2219.456987 90.568 -170.5133
2235.540087 90.550 -170.1220
2251.739732 90.534 -169.7311
2268.056766 90.521 -169.3387
2284.492041 90.511 -168.9438
2301.046412 90.504 -168.5458
2317.720742 90.501 -168.1442
2334.515902 90.502 -167.7391
2351.432767 90.508 -167.3315
2368.472218 90.519 -166.9233
2385.635144 90.537 -166.5175
2402.922440 90.562 -166.1184
2420.335006 90.593 -165.7309
2437.873752 90.631 -165.3600
2455.539590 90.677 -165.0105
2473.333442 90.729 -164.6863
2491.256235 90.787 -164.3906
2509.308905 90.851 -164.1255
2527.492392 90.920 -163.8921
2545.807644 90.994 -163.6903
2564.255615 91.072 -163.5192
2582.837268 91.154 -163.3770
2601.553572 91.239 -163.2615
2620.405502 91.327 -163.1706
2639.394040 91.418 -163.1024
2658.520177 91.511 -163.0554
2677.784910 91.607 -163.0283
2697.189244 91.706 -163.0203
2716.734189 91.807 -163.0307
2736.420765 91.909 -163.0593
2756.249998 92.014 -163.1058
2776.222921 92.120 -163.1705
2796.340577 92.227 -163.2535
2816.604013 92.334 -163.3552
2837.014287 92.442 -163.4760
2857.572462 92.550 -163.6161
2878.279610 92.656 -163.7751
2899.136811 92.761 -163.9515
2920.145151 92.863 -164.1437
2941.305727 92.963 -164.3494
2962.619641 93.059 -164.5668
2984.088004 93.151 -164.7942
3005.711935 93.240 -165.0305
3027.492563 93.323 -165.2750
3049.431022 93.402 -165.5269
3071.528457 93.474 -165.7852
3093.786018 93.540 -166.0484
3116.204867 93.600 -166.3149
3138.786172 93.652 -166.5828
3161.531110 93.698 -166.8507
3184.440868 93.736 -167.1177
3207.516639 93.766 -167.3836
3230.759627 93.790 -167.6489
3254.171043 93.806 -167.9142
3277.752108 93.814 -168.1801
3301.504051 93.814 -168.4463
3325.428110 93.807 -168.7123
3349.525533 93.792 -168.9769
3373.797576 93.769 -169.2384
