* Measurement data measured by REW V5.31.3
* Source: EXCL: Headset (USB-C to 3.5mm Headphone Jack Adapter), MICROPHONE (Master Volume), 0, volume: 0.750
* Format: 256k Log Swept Sine, 1 sweep at -12.0 dBFS with no timing reference
* Dated: Apr 7, 2025 12:21:56 PM
* REW Settings:
*  C-weighting compensation: Off
*  Target level: 75.0 dB
* Note: ; 
* Measurement: HD6XX R9
* Smoothing: 1/6 octave
* Frequency Step: 96 ppo
* Start Frequency: 20.0 Hz
*
* Freq(Hz) SPL(dB) Phase(degrees)
20.187378 79.161 -97.9143
20.333664 79.181 -98.0738
20.481010 79.207 -98.2828
20.629424 79.239 -98.5290
20.778913 79.275 -98.7988
20.929486 79.314 -99.0787
21.081150 79.358 -99.3565
21.233912 79.405 -99.6223
21.387782 79.457 -99.8692
21.542767 79.514 -100.0941
21.698874 79.579 -100.2982
21.856113 79.651 -100.4862
22.014492 79.732 -100.6665
22.174018 79.822 -100.8498
22.334700 79.919 -101.0484
22.496546 80.022 -101.2743
22.659566 80.129 -101.5379
22.823766 80.239 -101.8472
22.989157 80.347 -102.2064
23.155745 80.453 -102.6159
23.323542 80.553 -103.0722
23.492554 80.646 -103.5685
23.662790 80.731 -104.0954
23.834261 80.806 -104.6416
24.006973 80.873 -105.1958
24.180938 80.932 -105.7465
24.356163 80.985 -106.2838
24.532658 81.032 -106.7995
24.710431 81.075 -107.2875
24.889493 81.116 -107.7437
25.069853 81.157 -108.1657
25.251519 81.197 -108.5526
25.434502 81.238 -108.9039
25.618811 81.279 -109.2199
25.804456 81.322 -109.5006
25.991445 81.364 -109.7464
26.179790 81.406 -109.9578
26.369500 81.447 -110.1366
26.560584 81.487 -110.2858
26.753053 81.526 -110.4103
26.946917 81.563 -110.5174
27.142185 81.599 -110.6163
27.338869 81.633 -110.7176
27.536977 81.665 -110.8329
27.736522 81.695 -110.9729
27.937512 81.724 -111.1467
28.139959 81.750 -111.3604
28.343872 81.774 -111.6163
28.549264 81.796 -111.9128
28.756143 81.817 -112.2442
28.964522 81.837 -112.6018
29.174411 81.857 -112.9746
29.385821 81.880 -113.3509
29.598763 81.906 -113.7196
29.813248 81.937 -114.0716
30.029287 81.975 -114.4010
30.246891 82.019 -114.7051
30.466073 82.070 -114.9850
30.686842 82.129 -115.2453
30.909212 82.194 -115.4928
31.133193 82.265 -115.7362
31.358797 82.339 -115.9844
31.586035 82.417 -116.2459
31.814921 82.496 -116.5280
32.045465 82.577 -116.8357
32.277680 82.658 -117.1720
32.511577 82.739 -117.5368
32.747169 82.821 -117.9280
32.984469 82.905 -118.3408
33.223488 82.990 -118.7690
33.464239 83.078 -119.2054
33.706735 83.168 -119.6425
33.950987 83.263 -120.0733
34.197010 83.360 -120.4923
34.444816 83.461 -120.8955
34.694417 83.564 -121.2809
34.945827 83.667 -121.6481
35.199059 83.771 -121.9984
35.454126 83.873 -122.3336
35.711041 83.973 -122.6564
35.969818 84.069 -122.9693
36.230470 84.160 -123.2753
36.493011 84.247 -123.5775
36.757455 84.330 -123.8794
37.023814 84.410 -124.1852
37.292104 84.486 -124.4994
37.562338 84.560 -124.8264
37.834530 84.632 -125.1702
38.108695 84.702 -125.5339
38.384846 84.772 -125.9188
38.662999 84.840 -126.3244
38.943167 84.909 -126.7489
39.225365 84.977 -127.1891
39.509608 85.046 -127.6414
39.795911 85.116 -128.1022
40.084289 85.186 -128.5675
40.374756 85.257 -129.0331
40.667328 85.326 -129.4943
40.962020 85.394 -129.9450
41.258848 85.458 -130.3781
41.557827 85.519 -130.7857
41.858972 85.574 -131.1606
42.162299 85.623 -131.4969
42.467824 85.668 -131.7920
42.775564 85.707 -132.0469
43.085533 85.743 -132.2669
43.397749 85.775 -132.4606
43.712227 85.807 -132.6391
44.028983 85.837 -132.8146
44.348036 85.869 -132.9985
44.669400 85.901 -133.2010
44.993093 85.936 -133.4295
45.319131 85.972 -133.6884
45.647532 86.010 -133.9788
45.978313 86.049 -134.2980
46.311491 86.089 -134.6405
46.647083 86.127 -134.9978
46.985107 86.163 -135.3604
47.325581 86.196 -135.7185
47.668521 86.226 -136.0636
48.013947 86.251 -136.3901
48.361876 86.273 -136.6950
48.712326 86.292 -136.9786
49.065315 86.309 -137.2433
49.420863 86.325 -137.4933
49.778987 86.340 -137.7333
50.139706 86.357 -137.9683
50.503039 86.374 -138.2024
50.869005 86.393 -138.4388
51.237623 86.413 -138.6789
51.608912 86.433 -138.9223
51.982891 86.453 -139.1679
52.359580 86.471 -139.4138
52.739000 86.488 -139.6590
53.121168 86.502 -139.9039
53.506106 86.515 -140.1501
53.893833 86.526 -140.4005
54.284370 86.537 -140.6577
54.677737 86.547 -140.9240
55.073955 86.557 -141.2010
55.473043 86.567 -141.4897
55.875024 86.577 -141.7909
56.279917 86.587 -142.1057
56.687745 86.598 -142.4350
57.098527 86.608 -142.7794
57.512287 86.619 -143.1383
57.929045 86.631 -143.5089
58.348822 86.645 -143.8861
58.771642 86.663 -144.2618
59.197525 86.685 -144.6265
59.626495 86.714 -144.9707
60.058573 86.749 -145.2878
60.493782 86.791 -145.5754
60.932145 86.840 -145.8366
61.373685 86.895 -146.0782
61.818424 86.953 -146.3090
62.266386 87.014 -146.5374
62.717593 87.076 -146.7699
63.172071 87.138 -147.0103
63.629842 87.200 -147.2607
64.090930 87.262 -147.5218
64.555359 87.323 -147.7937
65.023154 87.382 -148.0762
65.494339 87.441 -148.3690
65.968938 87.498 -148.6721
66.446976 87.553 -148.9847
66.928478 87.607 -149.3060
67.413469 87.659 -149.6342
67.901975 87.710 -149.9669
68.394021 87.758 -150.3017
68.889632 87.805 -150.6365
69.388835 87.850 -150.9699
69.891655 87.893 -151.3018
70.398118 87.936 -151.6326
70.908252 87.976 -151.9631
71.422083 88.015 -152.2944
71.939636 88.052 -152.6270
72.460941 88.086 -152.9608
72.986023 88.118 -153.2952
73.514909 88.146 -153.6291
74.047629 88.171 -153.9617
74.584208 88.193 -154.2923
75.124676 88.210 -154.6213
75.669061 88.225 -154.9490
76.217390 88.236 -155.2762
76.769692 88.245 -155.6032
77.325997 88.251 -155.9305
77.886333 88.256 -156.2579
78.450730 88.258 -156.5855
79.019216 88.260 -156.9131
79.591822 88.261 -157.2406
80.168577 88.262 -157.5677
80.749512 88.262 -157.8937
81.334656 88.262 -158.2178
81.924040 88.261 -158.5390
82.517696 88.261 -158.8565
83.115653 88.261 -159.1697
83.717943 88.261 -159.4785
84.324598 88.260 -159.7830
84.935649 88.260 -160.0840
85.551128 88.259 -160.3820
86.171066 88.258 -160.6779
86.795497 88.256 -160.9722
87.424453 88.253 -161.2652
88.057967 88.250 -161.5571
88.696071 88.246 -161.8474
89.338800 88.243 -162.1357
89.986185 88.238 -162.4214
90.638262 88.234 -162.7045
91.295065 88.229 -162.9849
91.956626 88.225 -163.2632
92.622982 88.220 -163.5400
93.294166 88.216 -163.8159
93.970214 88.212 -164.0913
94.651161 88.209 -164.3665
95.337042 88.206 -164.6418
96.027894 88.204 -164.9170
96.723752 88.203 -165.1920
97.424652 88.202 -165.4666
98.130631 88.201 -165.7402
98.841726 88.201 -166.0125
99.557974 88.201 -166.2831
100.279412 88.202 -166.5518
101.006078 88.202 -166.8186
101.738010 88.203 -167.0835
102.475245 88.205 -167.3468
103.217823 88.206 -167.6093
103.965782 88.208 -167.8719
104.719161 88.210 -168.1356
105.477999 88.212 -168.4016
106.242336 88.214 -168.6711
107.012212 88.217 -168.9443
107.787666 88.220 -169.2212
108.568740 88.224 -169.5011
109.355474 88.230 -169.7829
110.147909 88.236 -170.0655
110.946086 88.244 -170.3477
111.750047 88.253 -170.6287
112.559834 88.262 -170.9082
113.375489 88.273 -171.1860
114.197055 88.283 -171.4620
115.024574 88.294 -171.7360
115.858089 88.304 -172.0079
116.697645 88.313 -172.2774
117.543284 88.322 -172.5442
118.395051 88.331 -172.8079
119.252990 88.338 -173.0681
120.117147 88.345 -173.3242
120.987565 88.352 -173.5763
121.864291 88.357 -173.8250
122.747370 88.362 -174.0711
123.636848 88.367 -174.3160
124.532771 88.371 -174.5605
125.435187 88.375 -174.8055
126.344142 88.378 -175.0513
127.259684 88.381 -175.2986
128.181860 88.384 -175.5476
129.110718 88.385 -175.7981
130.046308 88.386 -176.0497
130.988677 88.387 -176.3015
131.937875 88.386 -176.5523
132.893951 88.384 -176.8006
133.856956 88.380 -177.0452
134.826938 88.375 -177.2848
135.803950 88.369 -177.5188
136.788041 88.361 -177.7472
137.779264 88.352 -177.9711
138.777669 88.341 -178.1918
139.783309 88.329 -178.4109
140.796237 88.316 -178.6297
141.816504 88.301 -178.8492
142.844165 88.285 -179.0700
143.879273 88.268 -179.2921
144.921881 88.250 -179.5156
145.972045 88.231 -179.7398
147.029819 88.211 -179.9639
148.095257 88.190 179.8132
149.168417 88.168 179.5925
150.249353 88.146 179.3746
151.338121 88.123 179.1601
152.434780 88.100 178.9488
153.539385 88.077 178.7402
154.651995 88.054 178.5339
155.772667 88.030 178.3291
156.901460 88.006 178.1256
158.038432 87.983 177.9235
159.183644 87.959 177.7228
160.337154 87.936 177.5238
161.499023 87.912 177.3268
162.669312 87.889 177.1319
163.848081 87.866 176.9391
165.035392 87.843 176.7485
166.231306 87.820 176.5599
167.435887 87.798 176.3732
168.649196 87.776 176.1883
169.871298 87.754 176.0049
171.102255 87.733 175.8230
172.342133 87.711 175.6425
173.590995 87.690 175.4637
174.848907 87.669 175.2866
176.115934 87.648 175.1116
177.392143 87.627 174.9390
178.677599 87.607 174.7689
179.972371 87.586 174.6010
181.276525 87.565 174.4352
182.590129 87.544 174.2709
183.913252 87.522 174.1080
185.245964 87.499 173.9464
186.588332 87.475 173.7861
187.940428 87.451 173.6279
189.302322 87.425 173.4722
190.674085 87.398 173.3193
192.055788 87.371 173.1696
193.447503 87.342 173.0228
194.849303 87.313 172.8787
196.261262 87.284 172.7373
197.683452 87.254 172.5985
199.115948 87.224 172.4624
200.558824 87.194 172.3290
202.012156 87.163 172.1982
203.476019 87.132 172.0698
204.950490 87.100 171.9433
206.435646 87.068 171.8182
207.931564 87.035 171.6944
209.438322 87.002 171.5718
210.955998 86.969 171.4510
212.484672 86.936 171.3327
214.024424 86.903 171.2179
215.575333 86.871 171.1080
217.137481 86.841 171.0042
218.710948 86.811 170.9075
220.295818 86.783 170.8185
221.892172 86.757 170.7377
223.500094 86.734 170.6647
225.119668 86.712 170.5991
226.750978 86.692 170.5400
228.394109 86.675 170.4861
230.049147 86.660 170.4359
231.716178 86.647 170.3878
233.395289 86.636 170.3399
235.086567 86.627 170.2909
236.790102 86.620 170.2394
238.505980 86.613 170.1844
240.234293 86.607 170.1252
241.975130 86.602 170.0614
243.728581 86.597 169.9934
245.494739 86.593 169.9221
247.273695 86.589 169.8485
249.065542 86.585 169.7742
250.870374 86.581 169.7011
252.688284 86.577 169.6310
254.519367 86.573 169.5652
256.363720 86.569 169.5043
258.221437 86.563 169.4471
260.092616 86.557 169.3913
261.977354 86.550 169.3338
263.875750 86.542 169.2717
265.787903 86.534 169.2031
267.713911 86.525 169.1274
269.653877 86.516 169.0454
271.607900 86.507 168.9589
273.576083 86.498 168.8701
275.558528 86.489 168.7816
277.555338 86.480 168.6953
279.566619 86.472 168.6124
281.592474 86.463 168.5332
283.633009 86.455 168.4577
285.688331 86.447 168.3859
287.758546 86.440 168.3178
289.843763 86.433 168.2535
291.944090 86.427 168.1932
294.059638 86.421 168.1367
296.190515 86.415 168.0834
298.336833 86.410 168.0328
300.498705 86.406 167.9844
302.676243 86.402 167.9377
304.869559 86.399 167.8927
307.078770 86.396 167.8495
309.303989 86.394 167.8084
311.545334 86.392 167.7696
313.802919 86.391 167.7335
316.076865 86.389 167.7004
318.367288 86.388 167.6706
320.674309 86.387 167.6442
322.998047 86.386 167.6211
325.338624 86.385 167.6010
327.696162 86.383 167.5838
330.070783 86.381 167.5688
332.462612 86.378 167.5557
334.871773 86.375 167.5439
337.298392 86.371 167.5329
339.742595 86.366 167.5224
342.204510 86.361 167.5121
344.684265 86.355 167.5020
347.181989 86.349 167.4918
349.697813 86.341 167.4814
352.231868 86.333 167.4710
354.784285 86.324 167.4608
357.355198 86.314 167.4515
359.944741 86.303 167.4442
362.553049 86.291 167.4397
365.180258 86.279 167.4387
367.826505 86.265 167.4410
370.491927 86.251 167.4460
373.176665 86.236 167.4529
375.880856 86.220 167.4611
378.604644 86.203 167.4704
381.348169 86.185 167.4812
384.111575 86.166 167.4940
386.895006 86.147 167.5094
389.698607 86.128 167.5275
392.522524 86.108 167.5484
395.366904 86.089 167.5718
398.231895 86.069 167.5974
401.117648 86.050 167.6248
404.024312 86.030 167.6534
406.952038 86.009 167.6828
409.900981 85.988 167.7127
412.871292 85.965 167.7431
415.863128 85.942 167.7739
418.876643 85.918 167.8049
421.911996 85.892 167.8364
424.969344 85.865 167.8681
428.048847 85.836 167.9001
431.150666 85.806 167.9324
434.274961 85.773 167.9648
437.421897 85.740 167.9974
440.591636 85.704 168.0303
443.784345 85.667 168.0637
447.000189 85.629 168.0983
450.239337 85.590 168.1346
453.501956 85.550 168.1736
456.788219 85.510 168.2159
460.098294 85.470 168.2616
463.432356 85.430 168.3104
466.790578 85.391 168.3615
470.173135 85.354 168.4137
473.580203 85.318 168.4658
477.011961 85.283 168.5171
480.468586 85.250 168.5670
483.950259 85.218 168.6157
487.457163 85.187 168.6635
490.989478 85.158 168.7110
494.547390 85.129 168.7590
498.131084 85.102 168.8080
501.740748 85.076 168.8581
505.376568 85.051 168.9094
509.038735 85.027 168.9616
512.727439 85.004 169.0143
516.442874 84.983 169.0668
520.185232 84.963 169.1186
523.954708 84.944 169.1689
527.751500 84.927 169.2170
531.575805 84.912 169.2625
535.427822 84.898 169.3053
539.307753 84.886 169.3456
543.215800 84.876 169.3844
547.152165 84.868 169.4230
551.117055 84.862 169.4630
555.110677 84.858 169.5061
559.133237 84.855 169.5538
563.184947 84.854 169.6075
567.266018 84.854 169.6680
571.376661 84.855 169.7362
575.517092 84.858 169.8123
579.687526 84.862 169.8965
583.888181 84.867 169.9884
588.119275 84.872 170.0873
592.381030 84.879 170.1920
596.673667 84.887 170.3008
600.997410 84.895 170.4116
605.352485 84.903 170.5224
609.739119 84.911 170.6309
614.157540 84.919 170.7358
618.607979 84.926 170.8365
623.090667 84.933 170.9330
627.605839 84.937 171.0259
632.153730 84.941 171.1159
636.734576 84.943 171.2037
641.348617 84.944 171.2898
645.996094 84.944 171.3746
650.677248 84.943 171.4583
655.392323 84.941 171.5410
660.141566 84.938 171.6223
664.925224 84.934 171.7021
669.743546 84.930 171.7800
674.596784 84.925 171.8558
679.485191 84.919 171.9293
684.409020 84.912 172.0008
689.368530 84.904 172.0705
694.363979 84.895 172.1387
699.395626 84.884 172.2056
704.463736 84.872 172.2717
709.568570 84.859 172.3374
714.710396 84.844 172.4033
719.889483 84.827 172.4700
725.106099 84.809 172.5381
730.360516 84.789 172.6084
735.653010 84.767 172.6809
740.983855 84.745 172.7559
746.353329 84.720 172.8331
751.761713 84.694 172.9120
757.209288 84.668 172.9923
762.696339 84.640 173.0735
768.223151 84.611 173.1552
773.790013 84.581 173.2372
779.397214 84.551 173.3191
785.045047 84.521 173.4005
790.733808 84.490 173.4805
796.463791 84.459 173.5579
802.235296 84.429 173.6310
808.048623 84.399 173.6982
813.904077 84.369 173.7576
819.801961 84.340 173.8078
825.742584 84.311 173.8480
831.726255 84.281 173.8778
837.753287 84.250 173.8979
843.823992 84.218 173.9099
849.938689 84.184 173.9159
856.097695 84.148 173.9196
862.301332 84.109 173.9257
868.549922 84.067 173.9397
874.843793 84.021 173.9689
881.183272 83.972 174.0212
887.568689 83.921 174.1052
894.000378 83.867 174.2296
900.478673 83.813 174.4018
907.003913 83.760 174.6271
913.576437 83.710 174.9073
920.196588 83.665 175.2404
926.864712 83.627 175.6199
933.581156 83.598 176.0358
940.346270 83.578 176.4755
947.160407 83.569 176.9258
954.023921 83.570 177.3738
960.937172 83.580 177.8086
967.900519 83.599 178.2216
974.914325 83.626 178.6068
981.978956 83.660 178.9606
989.094780 83.699 179.2819
996.262169 83.743 179.5707
1003.481495 83.790 179.8287
1010.753136 83.841 -179.9422
1018.077470 83.894 -179.7392
1025.454879 83.949 -179.5596
1032.885748 84.006 -179.4009
1040.370463 84.064 -179.2604
1047.909417 84.124 -179.1362
1055.503000 84.184 -179.0260
1063.151610 84.244 -178.9278
1070.855645 84.305 -178.8396
1078.615506 84.367 -178.7596
1086.431599 84.428 -178.6863
1094.304330 84.490 -178.6184
1102.234110 84.552 -178.5551
1110.221353 84.613 -178.4955
1118.266475 84.674 -178.4391
1126.369895 84.735 -178.3853
1134.532035 84.796 -178.3340
1142.753322 84.857 -178.2853
1151.034184 84.917 -178.2395
1159.375052 84.977 -178.1975
1167.776361 85.036 -178.1602
1176.238550 85.096 -178.1290
1184.762060 85.155 -178.1049
1193.347334 85.214 -178.0890
1201.994821 85.272 -178.0818
1210.704971 85.330 -178.0836
1219.478238 85.387 -178.0945
1228.315080 85.443 -178.1140
1237.215957 85.498 -178.1411
1246.181334 85.552 -178.1745
1255.211678 85.605 -178.2123
1264.307459 85.656 -178.2525
1273.469152 85.707 -178.2934
1282.697235 85.756 -178.3332
1291.992188 85.804 -178.3708
1301.354495 85.852 -178.4050
1310.784647 85.898 -178.4350
1320.283132 85.944 -178.4605
1329.850448 85.990 -178.4818
1339.487093 86.035 -178.4996
1349.193569 86.080 -178.5145
1358.970381 86.124 -178.5272
1368.818041 86.169 -178.5379
1378.737061 86.213 -178.5468
1388.727958 86.257 -178.5535
1398.791253 86.302 -178.5578
1408.927471 86.347 -178.5588
1419.137140 86.393 -178.5558
1429.420793 86.439 -178.5479
1439.778965 86.487 -178.5344
1450.212197 86.536 -178.5142
1460.721033 86.586 -178.4866
1471.306019 86.637 -178.4512
1481.967709 86.690 -178.4080
1492.706658 86.744 -178.3573
1503.523426 86.799 -178.3002
1514.418576 86.855 -178.2376
1525.392678 86.912 -178.1708
1536.446302 86.969 -178.1008
1547.580025 87.025 -178.0284
1558.794428 87.080 -177.9538
1570.090095 87.133 -177.8775
1581.467615 87.184 -177.7998
1592.927581 87.233 -177.7217
1604.470591 87.279 -177.6439
1616.097246 87.322 -177.5670
1627.808153 87.361 -177.4910
1639.603922 87.397 -177.4152
1651.485168 87.428 -177.3377
1663.452510 87.455 -177.2563
1675.506573 87.477 -177.1682
1687.647984 87.496 -177.0705
1699.877377 87.512 -176.9610
1712.195390 87.525 -176.8378
1724.602663 87.536 -176.6997
1737.099845 87.545 -176.5464
1749.687587 87.553 -176.3781
1762.366544 87.560 -176.1958
1775.137379 87.567 -176.0006
1788.000756 87.575 -175.7940
1800.957346 87.583 -175.5782
1814.007826 87.592 -175.3558
1827.152874 87.601 -175.1298
1840.393177 87.611 -174.9034
1853.729425 87.622 -174.6793
1867.162312 87.633 -174.4600
1880.692540 87.643 -174.2468
1894.320813 87.653 -174.0406
1908.047843 87.661 -173.8414
1921.874344 87.669 -173.6488
1935.801038 87.674 -173.4624
1949.828650 87.678 -173.2818
1963.957912 87.680 -173.1063
1978.189561 87.680 -172.9357
1992.524338 87.678 -172.7697
2006.962991 87.675 -172.6085
2021.506272 87.671 -172.4525
2036.154940 87.665 -172.3028
2050.909758 87.660 -172.1612
2065.771495 87.653 -172.0298
2080.740927 87.647 -171.9109
2095.818833 87.640 -171.8061
2111.006001 87.633 -171.7168
2126.303220 87.626 -171.6431
2141.711290 87.617 -171.5844
2157.231013 87.608 -171.5391
2172.863198 87.598 -171.5054
2188.608660 87.588 -171.4810
2204.468221 87.577 -171.4638
2220.442706 87.565 -171.4518
2236.532950 87.553 -171.4433
2252.739789 87.541 -171.4367
2269.064070 87.530 -171.4312
2285.506644 87.519 -171.4261
2302.068367 87.509 -171.4210
2318.750104 87.500 -171.4160
2335.552723 87.493 -171.4111
2352.477101 87.487 -171.4068
2369.524119 87.484 -171.4033
2386.694668 87.483 -171.4014
2403.989641 87.485 -171.4024
2421.409941 87.490 -171.4078
2438.956476 87.498 -171.4197
2456.630160 87.510 -171.4399
2474.431915 87.524 -171.4697
2492.362668 87.541 -171.5095
2510.423356 87.561 -171.5588
2528.614918 87.583 -171.6157
2546.938304 87.607 -171.6777
2565.394469 87.633 -171.7415
2583.984375 87.661 -171.8035
2602.708991 87.692 -171.8605
2621.569293 87.726 -171.9098
2640.566265 87.762 -171.9497
2659.700897 87.803 -171.9799
2678.974186 87.848 -172.0012
2698.387137 87.898 -172.0157
2717.940763 87.953 -172.0265
2737.636082 88.012 -172.0377
2757.474121 88.077 -172.0536
2777.455915 88.147 -172.0784
2797.582506 88.221 -172.1158
2817.854942 88.298 -172.1684
2838.274281 88.377 -172.2379
2858.841586 88.458 -172.3250
2879.557931 88.541 -172.4300
2900.424394 88.623 -172.5525
2921.442065 88.705 -172.6920
2942.612039 88.786 -172.8479
2963.935418 88.866 -173.0198
2985.413316 88.942 -173.2068
3007.046852 89.016 -173.4083
3028.837153 89.085 -173.6231
3050.785356 89.150 -173.8497
3072.892604 89.210 -174.0864
3095.160050 89.264 -174.3316
3117.588856 89.312 -174.5842
3140.180190 89.353 -174.8432
3162.935230 89.388 -175.1081
3185.855163 89.415 -175.3785
3208.941182 89.435 -175.6539
3232.194493 89.448 -175.9338
3255.616307 89.452 -176.2175
3279.207844 89.449 -176.5044
3302.970336 89.437 -176.7935
3326.905021 89.417 -177.0835
