* Measurement data measured by REW V5.31.3
* Source: EXCL: Headset (USB-C to 3.5mm Headphone Jack Adapter), MICROPHONE (Master Volume), 0, volume: 0.750
* Format: 256k Log Swept Sine, 1 sweep at -12.0 dBFS with no timing reference
* Dated: Apr 1, 2025 10:11:12 PM
* REW Settings:
*  C-weighting compensation: Off
*  Target level: 75.0 dB
* Note: ; 
* Measurement: HD6XX L4
* Smoothing: 1/6 octave
* Frequency Step: 96 ppo
* Start Frequency: 20.0 Hz
*
* Freq(Hz) SPL(dB) Phase(degrees)
20.033247 83.933 -95.5275
20.178416 84.015 -95.8493
20.324637 84.100 -96.1765
20.471918 84.186 -96.5065
20.620266 84.274 -96.8370
20.769689 84.365 -97.1660
20.920195 84.458 -97.4918
21.071791 84.554 -97.8138
21.224486 84.654 -98.1319
21.378287 84.756 -98.4467
21.533203 84.861 -98.7598
21.689242 84.969 -99.0727
21.846411 85.078 -99.3877
22.004719 85.188 -99.7067
22.164174 85.299 -100.0313
22.324785 85.408 -100.3629
22.486559 85.515 -100.7018
22.649506 85.618 -101.0481
22.813634 85.717 -101.4009
22.978951 85.811 -101.7589
23.145466 85.900 -102.1205
23.313188 85.982 -102.4837
23.482124 86.057 -102.8472
23.652286 86.127 -103.2096
23.823680 86.190 -103.5704
23.996316 86.247 -103.9297
24.170203 86.300 -104.2883
24.345351 86.347 -104.6477
24.521767 86.390 -105.0094
24.699462 86.429 -105.3753
24.878444 86.464 -105.7463
25.058724 86.495 -106.1229
25.240310 86.523 -106.5044
25.423211 86.548 -106.8885
25.607438 86.569 -107.2719
25.793000 86.586 -107.6502
25.979907 86.601 -108.0183
26.168168 86.614 -108.3712
26.357794 86.626 -108.7045
26.548793 86.638 -109.0155
26.741176 86.651 -109.3031
26.934954 86.667 -109.5688
27.130136 86.687 -109.8164
27.326732 86.712 -110.0519
27.524753 86.741 -110.2827
27.724208 86.776 -110.5164
27.925110 86.815 -110.7606
28.127466 86.857 -111.0212
28.331290 86.903 -111.3022
28.536590 86.950 -111.6049
28.743378 86.997 -111.9285
28.951664 87.044 -112.2699
29.161460 87.089 -112.6246
29.372776 87.133 -112.9873
29.585623 87.176 -113.3526
29.800013 87.218 -113.7154
30.015956 87.259 -114.0719
30.233464 87.301 -114.4193
30.452548 87.345 -114.7562
30.673220 87.391 -115.0826
30.895490 87.440 -115.3994
31.119372 87.494 -115.7088
31.344876 87.552 -116.0135
31.572014 87.616 -116.3168
31.800797 87.685 -116.6220
32.031239 87.759 -116.9322
32.263351 87.839 -117.2504
32.497144 87.923 -117.5782
32.732632 88.011 -117.9169
32.969826 88.103 -118.2663
33.208739 88.198 -118.6255
33.449383 88.295 -118.9930
33.691771 88.394 -119.3667
33.935916 88.494 -119.7446
34.181829 88.595 -120.1247
34.429525 88.696 -120.5053
34.679015 88.798 -120.8851
34.930314 88.900 -121.2631
35.183433 89.002 -121.6386
35.438387 89.103 -122.0107
35.695188 89.203 -122.3790
35.953850 89.302 -122.7427
36.214387 89.400 -123.1014
36.476811 89.497 -123.4546
36.741137 89.592 -123.8023
37.007378 89.686 -124.1449
37.275549 89.778 -124.4830
37.545663 89.868 -124.8177
37.817734 89.956 -125.1505
38.091777 90.042 -125.4826
38.367806 90.126 -125.8149
38.645835 90.206 -126.1480
38.925879 90.284 -126.4812
39.207952 90.358 -126.8135
39.492069 90.428 -127.1432
39.778244 90.496 -127.4690
40.066494 90.560 -127.7902
40.356832 90.623 -128.1070
40.649275 90.683 -128.4211
40.943836 90.741 -128.7350
41.240532 90.797 -129.0513
41.539378 90.851 -129.3723
41.840389 90.903 -129.6989
42.143582 90.952 -130.0308
42.448972 90.998 -130.3665
42.756574 91.042 -130.7035
43.066406 91.083 -131.0391
43.378483 91.121 -131.3708
43.692822 91.158 -131.6967
44.009438 91.194 -132.0161
44.328348 91.229 -132.3288
44.649570 91.264 -132.6362
44.973119 91.300 -132.9400
45.299013 91.336 -133.2425
45.627268 91.373 -133.5455
45.957902 91.411 -133.8498
46.290932 91.448 -134.1554
46.626375 91.486 -134.4609
46.964249 91.525 -134.7652
47.304571 91.564 -135.0675
47.647360 91.605 -135.3684
47.992632 91.646 -135.6697
48.340407 91.688 -135.9735
48.690701 91.730 -136.2814
49.043534 91.772 -136.5937
49.398924 91.813 -136.9092
49.756889 91.852 -137.2259
50.117447 91.890 -137.5420
50.480619 91.926 -137.8563
50.846423 91.960 -138.1685
51.214877 91.992 -138.4789
51.586001 92.021 -138.7874
51.959814 92.048 -139.0933
52.336336 92.071 -139.3952
52.715587 92.092 -139.6918
53.097586 92.110 -139.9821
53.482353 92.125 -140.2662
53.869908 92.139 -140.5448
54.260272 92.152 -140.8195
54.653464 92.163 -141.0918
55.049506 92.175 -141.3632
55.448417 92.186 -141.6349
55.850219 92.199 -141.9082
56.254933 92.212 -142.1840
56.662579 92.228 -142.4634
57.073180 92.246 -142.7473
57.486755 92.267 -143.0363
57.903328 92.290 -143.3303
58.322919 92.318 -143.6288
58.745551 92.348 -143.9310
59.171246 92.383 -144.2360
59.600025 92.421 -144.5432
60.031911 92.464 -144.8521
60.466927 92.509 -145.1626
60.905096 92.559 -145.4745
61.346439 92.611 -145.7875
61.790981 92.665 -146.1013
62.238744 92.722 -146.4161
62.689751 92.780 -146.7317
63.144027 92.840 -147.0484
63.601595 92.901 -147.3666
64.062478 92.962 -147.6867
64.526701 93.023 -148.0090
64.994288 93.085 -148.3342
65.465264 93.146 -148.6630
65.939652 93.207 -148.9961
66.417478 93.268 -149.3341
66.898766 93.328 -149.6776
67.383542 93.388 -150.0269
67.871831 93.446 -150.3818
68.363659 93.504 -150.7417
68.859050 93.559 -151.1056
69.358031 93.614 -151.4725
69.860628 93.666 -151.8414
70.366867 93.716 -152.2117
70.876774 93.764 -152.5827
71.390376 93.810 -152.9539
71.907700 93.853 -153.3251
72.428773 93.893 -153.6961
72.953622 93.931 -154.0672
73.482274 93.966 -154.4384
74.014757 93.998 -154.8103
74.551098 94.027 -155.1830
75.091326 94.053 -155.5570
75.635469 94.077 -155.9320
76.183555 94.098 -156.3079
76.735612 94.117 -156.6841
77.291670 94.134 -157.0601
77.851757 94.148 -157.4348
78.415903 94.161 -157.8077
78.984137 94.172 -158.1779
79.556489 94.181 -158.5451
80.132988 94.190 -158.9092
80.713665 94.197 -159.2708
81.298549 94.205 -159.6306
81.887672 94.211 -159.9899
82.481064 94.218 -160.3497
83.078756 94.224 -160.7110
83.680778 94.229 -161.0742
84.287164 94.235 -161.4395
84.897943 94.241 -161.8069
85.513149 94.246 -162.1761
86.132812 94.251 -162.5466
86.756966 94.256 -162.9177
87.385643 94.261 -163.2886
88.018875 94.265 -163.6578
88.656696 94.269 -164.0242
89.299139 94.272 -164.3861
89.946238 94.273 -164.7423
90.598025 94.274 -165.0917
91.254536 94.274 -165.4342
91.915804 94.274 -165.7705
92.581864 94.273 -166.1021
93.252750 94.271 -166.4307
93.928498 94.269 -166.7585
94.609143 94.267 -167.0872
95.294719 94.264 -167.4186
95.985264 94.262 -167.7537
96.680813 94.259 -168.0933
97.381402 94.255 -168.4374
98.087068 94.252 -168.7859
98.797847 94.249 -169.1382
99.513777 94.247 -169.4940
100.234895 94.244 -169.8525
100.961238 94.243 -170.2129
101.692845 94.242 -170.5747
102.429753 94.241 -170.9368
103.172002 94.242 -171.2982
103.919628 94.243 -171.6578
104.672673 94.246 -172.0141
105.431174 94.249 -172.3658
106.195172 94.254 -172.7121
106.964706 94.259 -173.0523
107.739816 94.266 -173.3865
108.520543 94.274 -173.7152
109.306928 94.284 -174.0396
110.099011 94.294 -174.3607
110.896834 94.305 -174.6797
111.700438 94.317 -174.9974
112.509866 94.329 -175.3144
113.325158 94.342 -175.6314
114.146359 94.355 -175.9487
114.973511 94.368 -176.2663
115.806656 94.381 -176.5842
116.645839 94.393 -176.9021
117.491103 94.404 -177.2195
118.342492 94.415 -177.5359
119.200050 94.425 -177.8507
120.063823 94.435 -178.1635
120.933855 94.443 -178.4738
121.810191 94.451 -178.7813
122.692878 94.457 -179.0860
123.581962 94.463 -179.3878
124.477487 94.468 -179.6873
125.379503 94.472 -179.9847
126.288054 94.476 179.7194
127.203189 94.479 179.4244
128.124956 94.482 179.1298
129.053402 94.484 178.8352
129.988577 94.485 178.5407
130.930527 94.485 178.2463
131.879304 94.484 177.9527
132.834956 94.482 177.6605
133.797533 94.478 177.3706
134.767085 94.473 177.0839
135.743663 94.466 176.8005
136.727317 94.458 176.5205
137.718100 94.448 176.2432
138.716062 94.438 175.9680
139.721255 94.426 175.6944
140.733733 94.413 175.4222
141.753548 94.399 175.1516
142.780753 94.384 174.8827
143.815401 94.368 174.6156
144.857546 94.351 174.3504
145.907244 94.333 174.0865
146.964548 94.314 173.8238
148.029514 94.294 173.5617
149.102197 94.273 173.3000
150.182652 94.252 173.0389
151.270938 94.231 172.7786
152.367109 94.209 172.5194
153.471224 94.187 172.2616
154.583340 94.165 172.0052
155.703515 94.144 171.7504
156.831807 94.122 171.4968
157.968274 94.101 171.2441
159.112978 94.079 170.9921
160.265976 94.059 170.7406
161.427329 94.038 170.4896
162.597098 94.018 170.2395
163.775344 93.999 169.9907
164.962128 93.980 169.7437
166.157511 93.961 169.4988
167.361557 93.943 169.2563
168.574328 93.926 169.0158
169.795887 93.909 168.7774
171.026298 93.892 168.5409
172.265625 93.875 168.3061
173.513933 93.858 168.0729
174.771286 93.842 167.8411
176.037751 93.825 167.6105
177.313393 93.807 167.3812
178.598279 93.789 167.1532
179.892476 93.770 166.9268
181.196051 93.750 166.7025
182.509072 93.729 166.4805
183.831608 93.707 166.2607
185.163728 93.683 166.0427
186.505500 93.658 165.8260
187.856996 93.633 165.6096
189.218285 93.607 165.3928
190.589439 93.581 165.1751
191.970529 93.554 164.9566
193.361626 93.528 164.7375
194.762804 93.502 164.5183
196.174136 93.476 164.2999
197.595694 93.450 164.0832
199.027554 93.425 163.8696
200.469790 93.400 163.6602
201.922477 93.374 163.4561
203.385690 93.349 163.2576
204.859507 93.325 163.0647
206.344003 93.300 162.8765
207.839257 93.275 162.6921
209.345346 93.250 162.5099
210.862348 93.225 162.3290
212.390344 93.201 162.1483
213.929412 93.176 161.9667
215.479633 93.152 161.7835
217.041087 93.128 161.5981
218.613856 93.105 161.4106
220.198022 93.082 161.2215
221.793668 93.060 161.0317
223.400876 93.039 160.8427
225.019731 93.019 160.6557
226.650317 93.000 160.4720
228.292718 92.982 160.2923
229.947022 92.966 160.1168
231.613312 92.951 159.9452
233.291678 92.937 159.7772
234.982206 92.924 159.6125
236.684984 92.913 159.4504
238.400101 92.903 159.2904
240.127646 92.894 159.1316
241.867710 92.886 158.9732
243.620383 92.879 158.8145
245.385757 92.872 158.6551
247.163923 92.866 158.4947
248.954975 92.861 158.3334
250.759005 92.855 158.1718
252.576108 92.850 158.0101
254.406379 92.845 157.8488
256.249912 92.839 157.6879
258.106805 92.834 157.5273
259.977153 92.828 157.3669
261.861055 92.822 157.2072
263.758608 92.816 157.0485
265.669911 92.810 156.8917
267.595065 92.803 156.7377
269.534169 92.796 156.5871
271.487325 92.789 156.4402
273.454634 92.781 156.2965
275.436199 92.774 156.1550
277.432123 92.767 156.0148
279.442511 92.760 155.8752
281.467467 92.754 155.7360
283.507096 92.748 155.5978
285.561505 92.742 155.4613
287.630801 92.737 155.3275
289.715093 92.732 155.1969
291.814488 92.727 155.0701
293.929096 92.721 154.9468
296.059027 92.716 154.8266
298.204393 92.711 154.7088
300.365305 92.705 154.5926
302.541876 92.699 154.4774
304.734219 92.694 154.3630
306.942449 92.689 154.2498
309.166680 92.684 154.1378
311.407029 92.680 154.0276
313.663613 92.676 153.9194
315.936549 92.673 153.8132
318.225955 92.670 153.7094
320.531952 92.667 153.6078
322.854659 92.664 153.5088
325.194197 92.661 153.4123
327.550688 92.659 153.3182
329.924255 92.656 153.2263
332.315022 92.652 153.1360
334.723114 92.648 153.0466
337.148655 92.644 152.9575
339.591774 92.638 152.8685
342.052596 92.631 152.7799
344.531250 92.624 152.6921
347.027865 92.615 152.6057
349.542572 92.605 152.5212
352.075502 92.594 152.4388
354.626786 92.582 152.3583
357.196558 92.569 152.2796
359.784951 92.556 152.2020
362.392101 92.542 152.1254
365.018144 92.527 152.0492
367.663216 92.512 151.9734
370.327455 92.496 151.8978
373.011000 92.480 151.8223
375.713992 92.463 151.7471
378.436570 92.446 151.6722
381.178878 92.430 151.5978
383.941057 92.413 151.5240
386.723252 92.396 151.4513
389.525608 92.379 151.3795
392.348271 92.362 151.3087
395.191389 92.345 151.2385
398.055108 92.327 151.1689
400.939580 92.308 151.0996
403.844953 92.289 151.0305
406.771380 92.268 150.9619
409.719013 92.245 150.8940
412.688006 92.222 150.8274
415.678514 92.198 150.7622
418.690692 92.172 150.6985
421.724697 92.146 150.6363
424.780688 92.119 150.5752
427.858824 92.090 150.5153
430.959265 92.061 150.4567
434.082174 92.029 150.3993
437.227712 91.997 150.3432
440.396044 91.963 150.2886
443.587336 91.927 150.2354
446.801752 91.890 150.1838
450.039462 91.852 150.1342
453.300634 91.812 150.0871
456.585437 91.772 150.0428
459.894043 91.731 150.0016
463.226625 91.690 149.9634
466.583356 91.650 149.9279
469.964411 91.610 149.8946
473.369967 91.570 149.8632
476.800201 91.532 149.8335
480.255292 91.495 149.8054
483.735420 91.459 149.7786
487.240766 91.424 149.7531
490.771513 91.392 149.7289
494.327846 91.360 149.7059
497.909949 91.330 149.6840
501.518010 91.302 149.6632
505.152216 91.275 149.6435
508.812758 91.250 149.6247
512.499825 91.227 149.6066
516.213610 91.205 149.5890
519.954306 91.185 149.5713
523.722109 91.167 149.5532
527.517216 91.152 149.5345
531.339823 91.138 149.5151
535.190130 91.126 149.4953
539.068339 91.116 149.4754
542.974650 91.108 149.4554
546.909268 91.103 149.4355
550.872398 91.099 149.4155
554.864247 91.098 149.3954
558.885022 91.098 149.3751
562.934933 91.100 149.3544
567.014192 91.103 149.3331
571.123010 91.108 149.3110
575.261603 91.115 149.2881
579.430186 91.122 149.2645
583.628976 91.130 149.2406
587.858192 91.138 149.2170
592.118055 91.146 149.1945
596.408786 91.153 149.1739
600.730610 91.160 149.1562
605.083752 91.166 149.1420
609.468438 91.171 149.1315
613.884897 91.176 149.1245
618.333360 91.180 149.1205
622.814059 91.183 149.1187
627.327226 91.186 149.1179
631.873098 91.188 149.1172
636.451911 91.189 149.1157
641.063904 91.189 149.1127
645.709317 91.188 149.1078
650.388393 91.186 149.1011
655.101375 91.183 149.0930
659.848510 91.178 149.0840
664.630044 91.172 149.0754
669.446228 91.164 149.0682
674.297311 91.155 149.0636
679.183547 91.146 149.0627
684.105191 91.135 149.0660
689.062499 91.123 149.0734
694.055730 91.112 149.0843
699.085144 91.100 149.0970
704.151003 91.088 149.1095
709.253572 91.076 149.1191
714.393116 91.064 149.1234
719.569903 91.052 149.1199
724.784203 91.039 149.1073
730.036288 91.024 149.0849
735.326432 91.008 149.0530
740.654910 90.990 149.0129
746.022001 90.969 148.9665
751.427984 90.945 148.9169
756.873141 90.917 148.8677
762.357756 90.887 148.8232
767.882114 90.853 148.7877
773.446504 90.818 148.7645
779.051217 90.780 148.7564
784.696543 90.742 148.7641
790.382778 90.704 148.7869
796.110217 90.667 148.8222
801.879160 90.632 148.8662
807.689907 90.600 148.9139
813.542761 90.570 148.9599
819.438027 90.542 148.9987
825.376013 90.517 149.0257
831.357028 90.494 149.0369
837.381383 90.472 149.0296
843.449394 90.451 149.0027
849.561376 90.430 148.9567
855.717648 90.408 148.8938
861.918531 90.384 148.8181
868.164348 90.357 148.7350
874.455424 90.328 148.6517
880.792089 90.297 148.5758
887.174671 90.262 148.5154
893.603505 90.224 148.4784
900.078924 90.185 148.4720
906.601267 90.144 148.5024
913.170874 90.104 148.5739
919.788086 90.066 148.6883
926.453250 90.031 148.8448
933.166712 90.002 149.0396
939.928823 89.979 149.2658
946.739934 89.965 149.5145
953.600402 89.959 149.7751
960.510584 89.963 150.0370
967.470839 89.975 150.2902
974.481532 89.996 150.5265
981.543027 90.024 150.7396
988.655692 90.060 150.9250
995.819899 90.101 151.0805
1003.036020 90.147 151.2052
1010.304433 90.197 151.2998
1017.625515 90.249 151.3660
1024.999649 90.304 151.4065
1032.427219 90.360 151.4249
1039.908612 90.417 151.4248
1047.444219 90.474 151.4096
1055.034432 90.532 151.3818
1062.679646 90.591 151.3430
1070.380261 90.650 151.2940
1078.136677 90.709 151.2348
1085.949300 90.767 151.1653
1093.818536 90.826 151.0853
1101.744796 90.884 150.9952
1109.728493 90.942 150.8959
1117.770043 90.998 150.7885
1125.869866 91.052 150.6749
1134.028383 91.106 150.5566
1142.246020 91.158 150.4348
1150.523206 91.209 150.3107
1158.860371 91.258 150.1846
1167.257951 91.306 150.0568
1175.716383 91.353 149.9272
1184.236109 91.398 149.7963
1192.817572 91.441 149.6648
1201.461220 91.483 149.5341
1210.167503 91.524 149.4061
1218.936876 91.563 149.2827
1227.769795 91.601 149.1653
1236.666721 91.638 149.0546
1245.628118 91.676 148.9501
1254.654453 91.713 148.8504
1263.746196 91.751 148.7538
1272.903822 91.789 148.6585
1282.127808 91.827 148.5635
1291.418634 91.865 148.4686
1300.776786 91.902 148.3738
1310.202751 91.940 148.2801
1319.697020 91.976 148.1882
1329.260089 92.012 148.0994
1338.892455 92.047 148.0145
1348.594622 92.082 147.9344
1358.367094 92.117 147.8600
1368.210382 92.152 147.7919
1378.124999 92.187 147.7308
1388.111461 92.224 147.6765
1398.170288 92.261 147.6287
1408.302007 92.300 147.5864
1418.507144 92.341 147.5486
1428.786231 92.383 147.5144
1439.139805 92.426 147.4840
1449.568405 92.471 147.4576
1460.072576 92.517 147.4360
1470.652863 92.564 147.4200
1481.309820 92.613 147.4098
1492.044002 92.663 147.4053
1502.855968 92.715 147.4052
1513.746282 92.768 147.4075
1524.715511 92.822 147.4095
1535.764228 92.875 147.4085
1546.893009 92.929 147.4025
1558.102433 92.980 147.3909
1569.393086 93.029 147.3743
1580.765555 93.074 147.3539
1592.220434 93.116 147.3318
1603.758320 93.153 147.3098
1615.379813 93.187 147.2900
1627.085521 93.215 147.2748
1638.876054 93.239 147.2662
1650.752025 93.258 147.2664
1662.714055 93.273 147.2774
1674.762766 93.284 147.3011
1686.898788 93.292 147.3389
1699.122752 93.296 147.3922
1711.435296 93.298 147.4618
1723.837061 93.298 147.5483
1736.328695 93.296 147.6519
1748.910849 93.294 147.7719
1761.584178 93.291 147.9069
1774.349343 93.288 148.0547
1787.207010 93.286 148.2127
1800.157848 93.284 148.3777
1813.202534 93.283 148.5466
1826.341747 93.282 148.7161
1839.576172 93.281 148.8835
1852.906500 93.280 149.0466
1866.333424 93.277 149.2042
1879.857645 93.273 149.3568
1893.479869 93.266 149.5060
1907.200804 93.256 149.6542
1921.021168 93.243 149.8043
1934.941679 93.227 149.9590
1948.963064 93.209 150.1206
1963.086054 93.187 150.2914
1977.311384 93.163 150.4731
1991.639798 93.137 150.6665
2006.072041 93.110 150.8713
2020.608866 93.083 151.0858
2035.251031 93.056 151.3067
2049.999299 93.029 151.5302
2064.854438 93.003 151.7523
2079.817225 92.978 151.9695
2094.888438 92.953 152.1790
2110.068863 92.930 152.3785
2125.359292 92.906 152.5667
2140.760521 92.884 152.7437
2156.273355 92.861 152.9106
2171.898600 92.838 153.0693
2187.637073 92.816 153.2221
2203.489593 92.794 153.3703
2219.456987 92.772 153.5151
2235.540087 92.750 153.6570
2251.739732 92.730 153.7969
2268.056766 92.709 153.9363
2284.492041 92.689 154.0771
2301.046412 92.670 154.2219
2317.720742 92.652 154.3736
2334.515902 92.635 154.5350
2351.432767 92.620 154.7083
2368.472218 92.607 154.8946
2385.635144 92.597 155.0938
2402.922440 92.592 155.3045
2420.335006 92.591 155.5247
2437.873752 92.596 155.7512
2455.539590 92.606 155.9799
2473.333442 92.622 156.2061
2491.256235 92.644 156.4255
2509.308905 92.671 156.6347
2527.492392 92.703 156.8322
2545.807644 92.740 157.0187
2564.255615 92.781 157.1964
2582.837268 92.826 157.3685
2601.553572 92.875 157.5381
2620.405502 92.928 157.7084
2639.394040 92.985 157.8810
2658.520177 93.047 158.0565
2677.784910 93.115 158.2343
2697.189244 93.187 158.4125
2716.734189 93.265 158.5889
2736.420765 93.348 158.7614
2756.249998 93.436 158.9276
2776.222921 93.528 159.0855
2796.340577 93.625 159.2325
2816.604013 93.726 159.3661
2837.014287 93.830 159.4844
2857.572462 93.936 159.5861
2878.279610 94.045 159.6705
2899.136811 94.154 159.7377
2920.145151 94.264 159.7880
2941.305727 94.374 159.8215
2962.619641 94.483 159.8379
2984.088004 94.592 159.8368
3005.711935 94.698 159.8177
3027.492563 94.801 159.7806
3049.431022 94.900 159.7257
3071.528457 94.996 159.6539
3093.786018 95.086 159.5666
3116.204867 95.170 159.4653
3138.786172 95.248 159.3517
3161.531110 95.320 159.2278
3184.440868 95.384 159.0955
3207.516639 95.442 158.9564
3230.759627 95.492 158.8117
3254.171043 95.535 158.6619
3277.752108 95.572 158.5062
3301.504051 95.601 158.3434
3325.428110 95.624 158.1718
3349.525533 95.640 157.9897
3373.797576 95.649 157.7968
3398.245504 95.651 157.5933
3422.870591 95.645 157.3811
3447.674123 95.632 157.1630
3472.657391 95.613 156.9426
