* Measurement data measured by REW V5.31.3
* Source: EXCL: Headset (USB-C to 3.5mm Headphone Jack Adapter), MICROPHONE (Master Volume), 0, volume: 0.750
* Format: 256k Log Swept Sine, 1 sweep at -12.0 dBFS with no timing reference
* Dated: Apr 7, 2025 5:20:56 PM
* REW Settings:
*  C-weighting compensation: Off
*  Target level: 75.0 dB
* Note: ; 
* Measurement: HD 6XX (Geekeria) R1
* Smoothing: 1/6 octave
* Frequency Step: 96 ppo
* Start Frequency: 20.0 Hz
*
* Freq(Hz) SPL(dB) Phase(degrees)
20.187378 77.767 -98.8960
20.333664 77.809 -98.9165
20.481010 77.866 -98.9482
20.629424 77.936 -98.9958
20.778913 78.018 -99.0649
20.929486 78.110 -99.1613
21.081150 78.210 -99.2908
21.233912 78.315 -99.4585
21.387782 78.424 -99.6688
21.542767 78.534 -99.9246
21.698874 78.644 -100.2278
21.856113 78.753 -100.5783
22.014492 78.857 -100.9751
22.174018 78.958 -101.4153
22.334700 79.053 -101.8949
22.496546 79.141 -102.4085
22.659566 79.224 -102.9495
22.823766 79.300 -103.5102
22.989157 79.371 -104.0822
23.155745 79.436 -104.6563
23.323542 79.496 -105.2230
23.492554 79.552 -105.7729
23.662790 79.605 -106.2971
23.834261 79.656 -106.7878
24.006973 79.707 -107.2388
24.180938 79.758 -107.6459
24.356163 79.809 -108.0072
24.532658 79.862 -108.3234
24.710431 79.916 -108.5978
24.889493 79.971 -108.8356
25.069853 80.027 -109.0440
25.251519 80.083 -109.2313
25.434502 80.137 -109.4062
25.618811 80.191 -109.5776
25.804456 80.241 -109.7536
25.991445 80.288 -109.9413
26.179790 80.330 -110.1466
26.369500 80.369 -110.3741
26.560584 80.403 -110.6271
26.753053 80.433 -110.9073
26.946917 80.460 -111.2156
27.142185 80.484 -111.5513
27.338869 80.507 -111.9128
27.536977 80.529 -112.2970
27.736522 80.552 -112.6999
27.937512 80.575 -113.1160
28.139959 80.600 -113.5394
28.343872 80.627 -113.9633
28.549264 80.655 -114.3810
28.756143 80.684 -114.7864
28.964522 80.716 -115.1745
29.174411 80.749 -115.5423
29.385821 80.783 -115.8887
29.598763 80.819 -116.2153
29.813248 80.857 -116.5256
30.029287 80.896 -116.8250
30.246891 80.937 -117.1200
30.466073 80.980 -117.4171
30.686842 81.025 -117.7223
30.909212 81.072 -118.0402
31.133193 81.122 -118.3736
31.358797 81.175 -118.7232
31.586035 81.231 -119.0881
31.814921 81.292 -119.4658
32.045465 81.357 -119.8529
32.277680 81.427 -120.2457
32.511577 81.503 -120.6404
32.747169 81.584 -121.0340
32.984469 81.671 -121.4236
33.223488 81.762 -121.8074
33.464239 81.857 -122.1842
33.706735 81.956 -122.5533
33.950987 82.058 -122.9150
34.197010 82.161 -123.2703
34.444816 82.265 -123.6208
34.694417 82.371 -123.9690
34.945827 82.476 -124.3177
35.199059 82.581 -124.6697
35.454126 82.685 -125.0276
35.711041 82.788 -125.3931
35.969818 82.889 -125.7665
36.230470 82.988 -126.1472
36.493011 83.084 -126.5336
36.757455 83.177 -126.9233
37.023814 83.268 -127.3138
37.292104 83.355 -127.7030
37.562338 83.439 -128.0895
37.834530 83.521 -128.4727
38.108695 83.599 -128.8530
38.384846 83.674 -129.2312
38.662999 83.746 -129.6083
38.943167 83.815 -129.9853
39.225365 83.881 -130.3630
39.509608 83.945 -130.7414
39.795911 84.006 -131.1204
40.084289 84.067 -131.4992
40.374756 84.126 -131.8768
40.667328 84.185 -132.2521
40.962020 84.244 -132.6241
41.258848 84.304 -132.9922
41.557827 84.364 -133.3558
41.858972 84.425 -133.7144
42.162299 84.485 -134.0678
42.467824 84.544 -134.4157
42.775564 84.602 -134.7579
43.085533 84.659 -135.0942
43.397749 84.713 -135.4253
43.712227 84.765 -135.7523
44.028983 84.815 -136.0773
44.348036 84.863 -136.4028
44.669400 84.909 -136.7316
44.993093 84.953 -137.0657
45.319131 84.996 -137.4066
45.647532 85.039 -137.7546
45.978313 85.080 -138.1089
46.311491 85.121 -138.4682
46.647083 85.161 -138.8309
46.985107 85.200 -139.1954
47.325581 85.237 -139.5598
47.668521 85.273 -139.9223
48.013947 85.306 -140.2810
48.361876 85.335 -140.6340
48.712326 85.361 -140.9798
49.065315 85.384 -141.3178
49.420863 85.403 -141.6484
49.778987 85.418 -141.9729
50.139706 85.432 -142.2933
50.503039 85.443 -142.6118
50.869005 85.453 -142.9305
51.237623 85.461 -143.2508
51.608912 85.469 -143.5740
51.982891 85.477 -143.9011
52.359580 85.484 -144.2329
52.739000 85.492 -144.5699
53.121168 85.500 -144.9125
53.506106 85.509 -145.2605
53.893833 85.520 -145.6132
54.284370 85.531 -145.9695
54.677737 85.544 -146.3280
55.073955 85.559 -146.6875
55.473043 85.576 -147.0472
55.875024 85.594 -147.4066
56.279917 85.615 -147.7656
56.687745 85.638 -148.1242
57.098527 85.662 -148.4821
57.512287 85.689 -148.8385
57.929045 85.718 -149.1924
58.348822 85.747 -149.5421
58.771642 85.778 -149.8853
59.197525 85.808 -150.2194
59.626495 85.837 -150.5419
60.058573 85.865 -150.8511
60.493782 85.892 -151.1470
60.932145 85.918 -151.4320
61.373685 85.946 -151.7103
61.818424 85.975 -151.9870
62.266386 86.006 -152.2673
62.717593 86.040 -152.5544
63.172071 86.077 -152.8499
63.629842 86.117 -153.1539
64.090930 86.160 -153.4650
64.555359 86.205 -153.7815
65.023154 86.250 -154.1012
65.494339 86.297 -154.4219
65.968938 86.344 -154.7417
66.446976 86.391 -155.0594
66.928478 86.437 -155.3747
67.413469 86.483 -155.6880
67.901975 86.528 -156.0004
68.394021 86.573 -156.3128
68.889632 86.616 -156.6263
69.388835 86.659 -156.9412
69.891655 86.700 -157.2576
70.398118 86.740 -157.5748
70.908252 86.778 -157.8924
71.422083 86.814 -158.2095
71.939636 86.848 -158.5257
72.460941 86.879 -158.8406
72.986023 86.907 -159.1539
73.514909 86.933 -159.4659
74.047629 86.956 -159.7768
74.584208 86.977 -160.0874
75.124676 86.996 -160.3985
75.669061 87.013 -160.7109
76.217390 87.028 -161.0250
76.769692 87.042 -161.3410
77.325997 87.054 -161.6585
77.886333 87.065 -161.9773
78.450730 87.074 -162.2971
79.019216 87.082 -162.6179
79.591822 87.088 -162.9398
80.168577 87.094 -163.2632
80.749512 87.099 -163.5880
81.334656 87.103 -163.9144
81.924040 87.107 -164.2419
82.517696 87.110 -164.5700
83.115653 87.114 -164.8982
83.717943 87.117 -165.2262
84.324598 87.120 -165.5536
84.935649 87.123 -165.8805
85.551128 87.126 -166.2072
86.171066 87.128 -166.5341
86.795497 87.131 -166.8616
87.424453 87.133 -167.1902
88.057967 87.135 -167.5201
88.696071 87.137 -167.8514
89.338800 87.139 -168.1837
89.986185 87.140 -168.5164
90.638262 87.142 -168.8491
91.295065 87.143 -169.1813
91.956626 87.144 -169.5130
92.622982 87.144 -169.8443
93.294166 87.143 -170.1756
93.970214 87.142 -170.5074
94.651161 87.140 -170.8401
95.337042 87.138 -171.1742
96.027894 87.135 -171.5097
96.723752 87.132 -171.8465
97.424652 87.128 -172.1843
98.130631 87.125 -172.5226
98.841726 87.121 -172.8608
99.557974 87.118 -173.1980
100.279412 87.115 -173.5337
101.006078 87.112 -173.8672
101.738010 87.110 -174.1982
102.475245 87.107 -174.5266
103.217823 87.106 -174.8519
103.965782 87.105 -175.1742
104.719161 87.105 -175.4934
105.477999 87.105 -175.8096
106.242336 87.107 -176.1237
107.012212 87.109 -176.4363
107.787666 87.113 -176.7483
108.568740 87.117 -177.0599
109.355474 87.122 -177.3712
110.147909 87.129 -177.6818
110.946086 87.135 -177.9912
111.750047 87.142 -178.2988
112.559834 87.150 -178.6038
113.375489 87.158 -178.9058
114.197055 87.166 -179.2043
115.024574 87.174 -179.4993
115.858089 87.182 -179.7910
116.697645 87.190 179.9197
117.543284 87.198 179.6321
118.395051 87.206 179.3450
119.252990 87.215 179.0577
120.117147 87.223 178.7698
120.987565 87.231 178.4813
121.864291 87.239 178.1931
122.747370 87.247 177.9057
123.636848 87.254 177.6201
124.532771 87.261 177.3367
125.435187 87.267 177.0554
126.344142 87.272 176.7758
127.259684 87.276 176.4974
128.181860 87.279 176.2193
129.110718 87.281 175.9409
130.046308 87.282 175.6613
130.988677 87.282 175.3801
131.937875 87.281 175.0968
132.893951 87.278 174.8115
133.856956 87.274 174.5247
134.826938 87.269 174.2371
135.803950 87.262 173.9498
136.788041 87.254 173.6633
137.779264 87.245 173.3783
138.777669 87.235 173.0948
139.783309 87.223 172.8127
140.796237 87.211 172.5322
141.816504 87.197 172.2527
142.844165 87.183 171.9740
143.879273 87.167 171.6958
144.921881 87.151 171.4179
145.972045 87.133 171.1404
147.029819 87.115 170.8635
148.095257 87.096 170.5874
149.168417 87.077 170.3125
150.249353 87.057 170.0387
151.338121 87.037 169.7659
152.434780 87.016 169.4939
153.539385 86.995 169.2225
154.651995 86.974 168.9514
155.772667 86.952 168.6808
156.901460 86.930 168.4109
158.038432 86.908 168.1423
159.183644 86.885 167.8754
160.337154 86.863 167.6104
161.499023 86.840 167.3474
162.669312 86.818 167.0864
163.848081 86.796 166.8273
165.035392 86.775 166.5699
166.231306 86.754 166.3145
167.435887 86.733 166.0609
168.649196 86.712 165.8092
169.871298 86.692 165.5598
171.102255 86.672 165.3127
172.342133 86.652 165.0685
173.590995 86.632 164.8274
174.848907 86.611 164.5896
176.115934 86.591 164.3551
177.392143 86.570 164.1237
178.677599 86.549 163.8949
179.972371 86.528 163.6681
181.276525 86.506 163.4425
182.590129 86.484 163.2175
183.913252 86.461 162.9925
185.245964 86.437 162.7675
186.588332 86.413 162.5425
187.940428 86.388 162.3180
189.302322 86.362 162.0944
190.674085 86.335 161.8722
192.055788 86.307 161.6519
193.447503 86.279 161.4340
194.849303 86.250 161.2186
196.261262 86.220 161.0057
197.683452 86.190 160.7954
199.115948 86.159 160.5873
200.558824 86.129 160.3811
202.012156 86.098 160.1766
203.476019 86.067 159.9738
204.950490 86.037 159.7731
206.435646 86.006 159.5754
207.931564 85.976 159.3810
209.438322 85.947 159.1899
210.955998 85.917 159.0020
212.484672 85.888 158.8174
214.024424 85.858 158.6360
215.575333 85.830 158.4584
217.137481 85.802 158.2849
218.710948 85.774 158.1156
220.295818 85.748 157.9509
221.892172 85.722 157.7909
223.500094 85.698 157.6355
225.119668 85.675 157.4845
226.750978 85.653 157.3374
228.394109 85.633 157.1936
230.049147 85.615 157.0524
231.716178 85.599 156.9126
233.395289 85.584 156.7733
235.086567 85.572 156.6333
236.790102 85.561 156.4917
238.505980 85.553 156.3477
240.234293 85.546 156.2009
241.975130 85.541 156.0510
243.728581 85.537 155.8980
245.494739 85.533 155.7423
247.273695 85.530 155.5842
249.065542 85.527 155.4241
250.870374 85.524 155.2619
252.688284 85.521 155.0977
254.519367 85.517 154.9310
256.363720 85.514 154.7620
258.221437 85.509 154.5907
260.092616 85.504 154.4175
261.977354 85.499 154.2427
263.875750 85.493 154.0671
265.787903 85.486 153.8913
267.713911 85.479 153.7162
269.653877 85.472 153.5427
271.607900 85.463 153.3715
273.576083 85.455 153.2031
275.558528 85.446 153.0378
277.555338 85.437 152.8756
279.566619 85.428 152.7162
281.592474 85.419 152.5594
283.633009 85.411 152.4052
285.688331 85.402 152.2531
287.758546 85.394 152.1032
289.843763 85.387 151.9554
291.944090 85.379 151.8095
294.059638 85.372 151.6656
296.190515 85.365 151.5237
298.336833 85.359 151.3839
300.498705 85.353 151.2458
302.676243 85.347 151.1093
304.869559 85.342 150.9741
307.078770 85.337 150.8400
309.303989 85.333 150.7068
311.545334 85.329 150.5748
313.802919 85.325 150.4440
316.076865 85.321 150.3145
318.367288 85.318 150.1865
320.674309 85.314 150.0601
322.998047 85.311 149.9354
325.338624 85.307 149.8125
327.696162 85.303 149.6917
330.070783 85.298 149.5732
332.462612 85.293 149.4574
334.871773 85.287 149.3441
337.298392 85.280 149.2330
339.742595 85.272 149.1236
342.204510 85.263 149.0150
344.684265 85.253 148.9062
347.181989 85.242 148.7963
349.697813 85.230 148.6847
352.231868 85.216 148.5711
354.784285 85.202 148.4559
357.355198 85.186 148.3395
359.944741 85.170 148.2228
362.553049 85.152 148.1066
365.180258 85.133 147.9916
367.826505 85.114 147.8781
370.491927 85.094 147.7665
373.176665 85.073 147.6571
375.880856 85.051 147.5499
378.604644 85.029 147.4449
381.348169 85.007 147.3420
384.111575 84.985 147.2405
386.895006 84.963 147.1398
389.698607 84.941 147.0394
392.522524 84.918 146.9391
395.366904 84.896 146.8393
398.231895 84.873 146.7408
401.117648 84.849 146.6448
404.024312 84.825 146.5522
406.952038 84.801 146.4637
409.900981 84.776 146.3792
412.871292 84.750 146.2986
415.863128 84.723 146.2208
418.876643 84.695 146.1449
421.911996 84.666 146.0696
424.969344 84.636 145.9943
428.048847 84.604 145.9185
431.150666 84.571 145.8422
434.274961 84.536 145.7656
437.421897 84.499 145.6893
440.591636 84.461 145.6136
443.784345 84.422 145.5388
447.000189 84.381 145.4648
450.239337 84.339 145.3915
453.501956 84.297 145.3190
456.788219 84.254 145.2471
460.098294 84.210 145.1762
463.432356 84.167 145.1065
466.790578 84.123 145.0385
470.173135 84.080 144.9726
473.580203 84.037 144.9091
477.011961 83.994 144.8483
480.468586 83.953 144.7898
483.950259 83.912 144.7332
487.457163 83.873 144.6777
490.989478 83.835 144.6224
494.547390 83.800 144.5662
498.131084 83.766 144.5081
501.740748 83.734 144.4473
505.376568 83.704 144.3837
509.038735 83.676 144.3170
512.727439 83.649 144.2479
516.442874 83.624 144.1768
520.185232 83.601 144.1045
523.954708 83.580 144.0316
527.751500 83.560 143.9586
531.575805 83.542 143.8862
535.427822 83.527 143.8146
539.307753 83.512 143.7441
543.215800 83.500 143.6748
547.152165 83.490 143.6070
551.117055 83.481 143.5406
555.110677 83.474 143.4758
559.133237 83.469 143.4123
563.184947 83.465 143.3501
567.266018 83.462 143.2893
571.376661 83.460 143.2302
575.517092 83.459 143.1731
579.687526 83.459 143.1185
583.888181 83.459 143.0665
588.119275 83.459 143.0175
592.381030 83.460 142.9714
596.673667 83.460 142.9282
600.997410 83.461 142.8876
605.352485 83.461 142.8495
609.739119 83.461 142.8134
614.157540 83.460 142.7791
618.607979 83.459 142.7460
623.090667 83.456 142.7137
627.605839 83.453 142.6819
632.153730 83.449 142.6504
636.734576 83.444 142.6189
641.348617 83.437 142.5876
645.996094 83.430 142.5566
650.677248 83.421 142.5261
655.392323 83.412 142.4959
660.141566 83.402 142.4658
664.925224 83.392 142.4351
669.743546 83.380 142.4030
674.596784 83.369 142.3686
679.485191 83.356 142.3309
684.409020 83.343 142.2892
689.368530 83.330 142.2427
694.363979 83.315 142.1913
699.395626 83.300 142.1347
704.463736 83.283 142.0729
709.568570 83.265 142.0059
714.710396 83.246 141.9340
719.889483 83.225 141.8576
725.106099 83.202 141.7775
730.360516 83.177 141.6945
735.653010 83.150 141.6099
740.983855 83.121 141.5254
746.353329 83.089 141.4423
751.761713 83.056 141.3622
757.209288 83.020 141.2863
762.696339 82.982 141.2155
768.223151 82.942 141.1501
773.790013 82.901 141.0905
779.397214 82.858 141.0369
785.045047 82.815 140.9894
790.733808 82.771 140.9485
796.463791 82.727 140.9139
802.235296 82.684 140.8851
808.048623 82.642 140.8609
813.904077 82.601 140.8388
819.801961 82.562 140.8158
825.742584 82.525 140.7882
831.726255 82.490 140.7527
837.753287 82.456 140.7062
843.823992 82.424 140.6470
849.938689 82.392 140.5741
856.097695 82.361 140.4880
862.301332 82.328 140.3901
868.549922 82.295 140.2828
874.843793 82.260 140.1696
881.183272 82.223 140.0549
887.568689 82.184 139.9442
894.000378 82.142 139.8438
900.478673 82.099 139.7604
907.003913 82.053 139.7010
913.576437 82.006 139.6719
920.196588 81.960 139.6783
926.864712 81.915 139.7231
933.581156 81.872 139.8063
940.346270 81.835 139.9252
947.160407 81.804 140.0738
954.023921 81.780 140.2437
960.937172 81.764 140.4256
967.900519 81.757 140.6094
974.914325 81.758 140.7859
981.978956 81.767 140.9476
989.094780 81.783 141.0886
996.262169 81.805 141.2049
1003.481495 81.832 141.2945
1010.753136 81.864 141.3570
1018.077470 81.899 141.3931
1025.454879 81.937 141.4045
1032.885748 81.977 141.3934
1040.370463 82.018 141.3622
1047.909417 82.060 141.3132
1055.503000 82.103 141.2484
1063.151610 82.147 141.1698
1070.855645 82.190 141.0792
1078.615506 82.233 140.9786
1086.431599 82.275 140.8698
1094.304330 82.316 140.7543
1102.234110 82.357 140.6336
1110.221353 82.397 140.5085
1118.266475 82.437 140.3799
1126.369895 82.475 140.2482
1134.532035 82.513 140.1136
1142.753322 82.550 139.9762
1151.034184 82.586 139.8355
1159.375052 82.621 139.6909
1167.776361 82.656 139.5419
1176.238550 82.690 139.3879
1184.762060 82.722 139.2289
1193.347334 82.754 139.0648
1201.994821 82.784 138.8960
1210.704971 82.813 138.7230
1219.478238 82.840 138.5466
1228.315080 82.867 138.3680
1237.215957 82.891 138.1880
1246.181334 82.915 138.0076
1255.211678 82.937 137.8279
1264.307459 82.957 137.6495
1273.469152 82.977 137.4735
1282.697235 82.995 137.3007
1291.992188 83.013 137.1318
1301.354495 83.029 136.9673
1310.784647 83.044 136.8075
1320.283132 83.059 136.6525
1329.850448 83.073 136.5021
1339.487093 83.086 136.3557
1349.193569 83.099 136.2131
1358.970381 83.111 136.0737
1368.818041 83.122 135.9375
1378.737061 83.132 135.8047
1388.727958 83.142 135.6761
1398.791253 83.151 135.5527
1408.927471 83.159 135.4358
1419.137140 83.168 135.3271
1429.420793 83.176 135.2279
1439.778965 83.185 135.1395
1450.212197 83.193 135.0630
1460.721033 83.202 134.9995
1471.306019 83.212 134.9500
1481.967709 83.221 134.9157
1492.706658 83.231 134.8981
1503.523426 83.241 134.8982
1514.418576 83.251 134.9171
1525.392678 83.260 134.9549
1536.446302 83.269 135.0116
1547.580025 83.278 135.0868
1558.794428 83.286 135.1802
1570.090095 83.292 135.2916
1581.467615 83.298 135.4213
1592.927581 83.301 135.5694
1604.470591 83.303 135.7357
1616.097246 83.304 135.9196
1627.808153 83.303 136.1196
1639.603922 83.300 136.3340
1651.485168 83.297 136.5600
1663.452510 83.293 136.7952
1675.506573 83.287 137.0374
1687.647984 83.280 137.2853
1699.877377 83.272 137.5386
1712.195390 83.262 137.7989
1724.602663 83.251 138.0685
1737.099845 83.238 138.3505
1749.687587 83.225 138.6476
1762.366544 83.212 138.9612
1775.137379 83.199 139.2910
1788.000756 83.188 139.6349
1800.957346 83.179 139.9891
1814.007826 83.172 140.3492
1827.152874 83.168 140.7106
1840.393177 83.165 141.0696
1853.729425 83.163 141.4234
1867.162312 83.162 141.7701
1880.692540 83.162 142.1086
1894.320813 83.162 142.4385
1908.047843 83.162 142.7599
1921.874344 83.161 143.0732
1935.801038 83.159 143.3785
1949.828650 83.157 143.6757
1963.957912 83.154 143.9637
1978.189561 83.151 144.2408
1992.524338 83.147 144.5045
2006.962991 83.143 144.7524
2021.506272 83.138 144.9821
2036.154940 83.132 145.1924
2050.909758 83.125 145.3828
2065.771495 83.117 145.5539
2080.740927 83.107 145.7076
2095.818833 83.094 145.8465
2111.006001 83.081 145.9738
2126.303220 83.065 146.0927
2141.711290 83.048 146.2063
2157.231013 83.031 146.3166
2172.863198 83.014 146.4246
2188.608660 82.996 146.5303
2204.468221 82.980 146.6328
2220.442706 82.965 146.7304
2236.532950 82.952 146.8214
2252.739789 82.940 146.9039
2269.064070 82.929 146.9771
2285.506644 82.920 147.0399
2302.068367 82.912 147.0923
2318.750104 82.906 147.1343
2335.552723 82.901 147.1660
2352.477101 82.897 147.1877
2369.524119 82.895 147.2001
2386.694668 82.893 147.2042
2403.989641 82.893 147.2010
2421.409941 82.894 147.1920
2438.956476 82.897 147.1783
2456.630160 82.902 147.1609
2474.431915 82.909 147.1409
2492.362668 82.917 147.1187
2510.423356 82.929 147.0948
2528.614918 82.942 147.0702
2546.938304 82.958 147.0453
2565.394469 82.977 147.0208
2583.984375 82.999 146.9969
2602.708991 83.024 146.9741
2621.569293 83.052 146.9521
2640.566265 83.083 146.9313
2659.700897 83.117 146.9116
2678.974186 83.154 146.8932
2698.387137 83.195 146.8759
2717.940763 83.239 146.8591
2737.636082 83.285 146.8421
2757.474121 83.335 146.8239
2777.455915 83.387 146.8032
2797.582506 83.442 146.7790
2817.854942 83.499 146.7501
2838.274281 83.557 146.7155
2858.841586 83.616 146.6744
2879.557931 83.676 146.6266
2900.424394 83.735 146.5724
2921.442065 83.793 146.5126
2942.612039 83.850 146.4483
2963.935418 83.905 146.3807
2985.413316 83.957 146.3112
3007.046852 84.006 146.2414
3028.837153 84.050 146.1726
3050.785356 84.091 146.1063
3072.892604 84.127 146.0439
3095.160050 84.158 145.9867
3117.588856 84.183 145.9358
3140.180190 84.202 145.8923
3162.935230 84.215 145.8570
3185.855163 84.223 145.8307
3208.941182 84.223 145.8144
3232.194493 84.218 145.8086
3255.616307 84.206 145.8141
3279.207844 84.187 145.8315
3302.970336 84.163 145.8612
3326.905021 84.132 145.9033
3351.013146 84.096 145.9575
3375.295969 84.055 146.0234
3399.754755 84.008 146.1001
3424.390779 83.957 146.1872
3449.205326 83.902 146.2843
3474.199690 83.844 146.3916
3499.375173 83.782 146.5096
