* Measurement data measured by REW V5.31.3
* Source: EXCL: Headset (USB-C to 3.5mm Headphone Jack Adapter), MICROPHONE (Master Volume), 0, volume: 0.750
* Format: 256k Log Swept Sine, 1 sweep at -12.0 dBFS with no timing reference
* Dated: Apr 7, 2025 5:18:20 PM
* REW Settings:
*  C-weighting compensation: Off
*  Target level: 75.0 dB
* Note: ; 
* Measurement: HD 6XX (Soulwit) R1
* Smoothing: 1/6 octave
* Frequency Step: 96 ppo
* Start Frequency: 20.0 Hz
*
* Freq(Hz) SPL(dB) Phase(degrees)
20.187378 76.528 -102.3008
20.333664 76.559 -102.3487
20.481010 76.601 -102.4160
20.629424 76.653 -102.5046
20.778913 76.715 -102.6169
20.929486 76.785 -102.7552
21.081150 76.863 -102.9214
21.233912 76.948 -103.1172
21.387782 77.040 -103.3433
21.542767 77.137 -103.5995
21.698874 77.239 -103.8849
21.856113 77.345 -104.1975
22.014492 77.455 -104.5349
22.174018 77.568 -104.8940
22.334700 77.683 -105.2717
22.496546 77.800 -105.6650
22.659566 77.916 -106.0711
22.823766 78.031 -106.4876
22.989157 78.144 -106.9125
23.155745 78.253 -107.3440
23.323542 78.356 -107.7806
23.492554 78.453 -108.2208
23.662790 78.541 -108.6627
23.834261 78.619 -109.1042
24.006973 78.688 -109.5427
24.180938 78.746 -109.9752
24.356163 78.792 -110.3987
24.532658 78.828 -110.8100
24.710431 78.854 -111.2064
24.889493 78.871 -111.5863
25.069853 78.881 -111.9491
25.251519 78.886 -112.2960
25.434502 78.887 -112.6300
25.618811 78.887 -112.9557
25.804456 78.888 -113.2795
25.991445 78.891 -113.6084
26.179790 78.898 -113.9496
26.369500 78.909 -114.3096
26.560584 78.926 -114.6930
26.753053 78.947 -115.1020
26.946917 78.972 -115.5357
27.142185 79.000 -115.9902
27.338869 79.032 -116.4587
27.536977 79.065 -116.9326
27.736522 79.100 -117.4021
27.937512 79.137 -117.8579
28.139959 79.174 -118.2916
28.343872 79.213 -118.6974
28.549264 79.254 -119.0726
28.756143 79.297 -119.4175
28.964522 79.342 -119.7353
29.174411 79.388 -120.0316
29.385821 79.436 -120.3132
29.598763 79.485 -120.5872
29.813248 79.533 -120.8599
30.029287 79.582 -121.1363
30.246891 79.630 -121.4199
30.466073 79.677 -121.7126
30.686842 79.724 -122.0154
30.909212 79.772 -122.3285
31.133193 79.821 -122.6519
31.358797 79.873 -122.9859
31.586035 79.929 -123.3307
31.814921 79.990 -123.6865
32.045465 80.055 -124.0528
32.277680 80.126 -124.4284
32.511577 80.202 -124.8111
32.747169 80.283 -125.1976
32.984469 80.369 -125.5845
33.223488 80.458 -125.9682
33.464239 80.551 -126.3461
33.706735 80.646 -126.7168
33.950987 80.744 -127.0802
34.197010 80.843 -127.4377
34.444816 80.943 -127.7909
34.694417 81.042 -128.1419
34.945827 81.140 -128.4921
35.199059 81.235 -128.8424
35.454126 81.329 -129.1927
35.711041 81.419 -129.5430
35.969818 81.507 -129.8933
36.230470 81.592 -130.2442
36.493011 81.675 -130.5972
36.757455 81.755 -130.9541
37.023814 81.833 -131.3169
37.292104 81.909 -131.6868
37.562338 81.982 -132.0641
37.834530 82.053 -132.4474
38.108695 82.121 -132.8341
38.384846 82.187 -133.2206
38.662999 82.251 -133.6026
38.943167 82.314 -133.9765
39.225365 82.375 -134.3387
39.509608 82.435 -134.6870
39.795911 82.494 -135.0202
40.084289 82.553 -135.3386
40.374756 82.611 -135.6436
40.667328 82.668 -135.9380
40.962020 82.724 -136.2257
41.258848 82.779 -136.5116
41.557827 82.831 -136.8007
41.858972 82.882 -137.0982
42.162299 82.930 -137.4084
42.467824 82.976 -137.7346
42.775564 83.019 -138.0790
43.085533 83.061 -138.4420
43.397749 83.100 -138.8227
43.712227 83.137 -139.2189
44.028983 83.173 -139.6274
44.348036 83.208 -140.0442
44.669400 83.244 -140.4654
44.993093 83.279 -140.8871
45.319131 83.315 -141.3058
45.647532 83.352 -141.7184
45.978313 83.390 -142.1218
46.311491 83.429 -142.5129
46.647083 83.468 -142.8885
46.985107 83.508 -143.2457
47.325581 83.546 -143.5823
47.668521 83.583 -143.8975
48.013947 83.618 -144.1925
48.361876 83.651 -144.4703
48.712326 83.681 -144.7359
49.065315 83.707 -144.9949
49.420863 83.730 -145.2535
49.778987 83.749 -145.5166
50.139706 83.765 -145.7879
50.503039 83.780 -146.0691
50.869005 83.792 -146.3602
51.237623 83.803 -146.6601
51.608912 83.815 -146.9673
51.982891 83.827 -147.2805
52.359580 83.840 -147.5984
52.739000 83.855 -147.9198
53.121168 83.872 -148.2436
53.506106 83.890 -148.5682
53.893833 83.909 -148.8921
54.284370 83.929 -149.2142
54.677737 83.951 -149.5344
55.073955 83.975 -149.8532
55.473043 83.999 -150.1719
55.875024 84.026 -150.4919
56.279917 84.054 -150.8143
56.687745 84.085 -151.1398
57.098527 84.118 -151.4681
57.512287 84.154 -151.7983
57.929045 84.193 -152.1284
58.348822 84.233 -152.4564
58.771642 84.273 -152.7801
59.197525 84.312 -153.0981
59.626495 84.349 -153.4103
60.058573 84.382 -153.7181
60.493782 84.411 -154.0241
60.932145 84.437 -154.3324
61.373685 84.461 -154.6469
61.818424 84.485 -154.9713
62.266386 84.511 -155.3071
62.717593 84.539 -155.6543
63.172071 84.571 -156.0109
63.629842 84.607 -156.3738
64.090930 84.647 -156.7401
64.555359 84.690 -157.1077
65.023154 84.736 -157.4751
65.494339 84.785 -157.8424
65.968938 84.834 -158.2098
66.446976 84.885 -158.5778
66.928478 84.936 -158.9466
67.413469 84.987 -159.3158
67.901975 85.036 -159.6851
68.394021 85.085 -160.0540
68.889632 85.133 -160.4222
69.388835 85.179 -160.7902
69.891655 85.224 -161.1584
70.398118 85.266 -161.5280
70.908252 85.307 -161.8999
71.422083 85.345 -162.2747
71.939636 85.379 -162.6531
72.460941 85.410 -163.0351
72.986023 85.436 -163.4207
73.514909 85.459 -163.8098
74.047629 85.478 -164.2019
74.584208 85.493 -164.5956
75.124676 85.506 -164.9892
75.669061 85.516 -165.3802
76.217390 85.525 -165.7666
76.769692 85.532 -166.1468
77.325997 85.537 -166.5204
77.886333 85.542 -166.8878
78.450730 85.545 -167.2501
79.019216 85.547 -167.6085
79.591822 85.549 -167.9644
80.168577 85.550 -168.3188
80.749512 85.551 -168.6721
81.334656 85.550 -169.0246
81.924040 85.550 -169.3762
82.517696 85.548 -169.7268
83.115653 85.547 -170.0766
83.717943 85.545 -170.4259
84.324598 85.542 -170.7749
84.935649 85.540 -171.1242
85.551128 85.537 -171.4739
86.171066 85.533 -171.8240
86.795497 85.530 -172.1740
87.424453 85.526 -172.5234
88.057967 85.521 -172.8716
88.696071 85.517 -173.2180
89.338800 85.512 -173.5625
89.986185 85.507 -173.9049
90.638262 85.502 -174.2456
91.295065 85.496 -174.5849
91.956626 85.491 -174.9229
92.622982 85.484 -175.2599
93.294166 85.477 -175.5960
93.970214 85.470 -175.9314
94.651161 85.463 -176.2663
95.337042 85.455 -176.6008
96.027894 85.447 -176.9354
96.723752 85.440 -177.2705
97.424652 85.433 -177.6068
98.130631 85.427 -177.9446
98.841726 85.421 -178.2841
99.557974 85.415 -178.6250
100.279412 85.410 -178.9666
101.006078 85.405 -179.3079
101.738010 85.401 -179.6479
102.475245 85.397 -179.9857
103.217823 85.394 179.6793
103.965782 85.391 179.3476
104.719161 85.390 179.0192
105.477999 85.389 178.6937
106.242336 85.390 178.3705
107.012212 85.391 178.0488
107.787666 85.394 177.7278
108.568740 85.398 177.4070
109.355474 85.403 177.0858
110.147909 85.409 176.7642
110.946086 85.415 176.4427
111.750047 85.422 176.1216
112.559834 85.429 175.8018
113.375489 85.437 175.4835
114.197055 85.444 175.1675
115.024574 85.451 174.8539
115.858089 85.457 174.5432
116.697645 85.463 174.2350
117.543284 85.468 173.9289
118.395051 85.472 173.6241
119.252990 85.476 173.3201
120.117147 85.480 173.0164
120.987565 85.485 172.7133
121.864291 85.489 172.4109
122.747370 85.493 172.1096
123.636848 85.497 171.8096
124.532771 85.500 171.5109
125.435187 85.502 171.2137
126.344142 85.503 170.9178
127.259684 85.503 170.6234
128.181860 85.502 170.3306
129.110718 85.500 170.0397
130.046308 85.496 169.7509
130.988677 85.492 169.4645
131.937875 85.485 169.1798
132.893951 85.477 168.8961
133.856956 85.468 168.6122
134.826938 85.457 168.3268
135.803950 85.445 168.0391
136.788041 85.431 167.7489
137.779264 85.416 167.4571
138.777669 85.400 167.1648
139.783309 85.383 166.8733
140.796237 85.365 166.5836
141.816504 85.345 166.2968
142.844165 85.325 166.0134
143.879273 85.304 165.7338
144.921881 85.282 165.4581
145.972045 85.259 165.1862
147.029819 85.235 164.9177
148.095257 85.211 164.6519
149.168417 85.187 164.3877
150.249353 85.162 164.1245
151.338121 85.138 163.8613
152.434780 85.113 163.5978
153.539385 85.088 163.3341
154.651995 85.063 163.0707
155.772667 85.038 162.8081
156.901460 85.013 162.5471
158.038432 84.988 162.2881
159.183644 84.963 162.0314
160.337154 84.937 161.7773
161.499023 84.912 161.5255
162.669312 84.887 161.2760
163.848081 84.863 161.0284
165.035392 84.838 160.7823
166.231306 84.814 160.5375
167.435887 84.790 160.2935
168.649196 84.767 160.0496
169.871298 84.743 159.8058
171.102255 84.720 159.5618
172.342133 84.696 159.3181
173.590995 84.673 159.0749
174.848907 84.649 158.8331
176.115934 84.626 158.5933
177.392143 84.603 158.3562
178.677599 84.579 158.1221
179.972371 84.555 157.8909
181.276525 84.530 157.6626
182.590129 84.505 157.4370
183.913252 84.479 157.2137
185.245964 84.452 156.9928
186.588332 84.425 156.7744
187.940428 84.398 156.5586
189.302322 84.370 156.3459
190.674085 84.341 156.1368
192.055788 84.313 155.9318
193.447503 84.284 155.7310
194.849303 84.255 155.5345
196.261262 84.227 155.3416
197.683452 84.197 155.1513
199.115948 84.168 154.9620
200.558824 84.139 154.7718
202.012156 84.109 154.5785
203.476019 84.079 154.3802
204.950490 84.049 154.1758
206.435646 84.018 153.9654
207.931564 83.988 153.7501
209.438322 83.957 153.5320
210.955998 83.926 153.3135
212.484672 83.895 153.0967
214.024424 83.864 152.8835
215.575333 83.833 152.6756
217.137481 83.803 152.4739
218.710948 83.773 152.2791
220.295818 83.744 152.0913
221.892172 83.717 151.9107
223.500094 83.691 151.7371
225.119668 83.666 151.5704
226.750978 83.644 151.4099
228.394109 83.623 151.2549
230.049147 83.605 151.1043
231.716178 83.588 150.9569
233.395289 83.573 150.8114
235.086567 83.561 150.6665
236.790102 83.549 150.5210
238.505980 83.540 150.3735
240.234293 83.532 150.2230
241.975130 83.525 150.0685
243.728581 83.519 149.9096
245.494739 83.513 149.7464
247.273695 83.508 149.5794
249.065542 83.503 149.4096
250.870374 83.497 149.2382
252.688284 83.492 149.0665
254.519367 83.486 148.8957
256.363720 83.480 148.7265
258.221437 83.473 148.5593
260.092616 83.466 148.3937
261.977354 83.459 148.2292
263.875750 83.450 148.0646
265.787903 83.442 147.8988
267.713911 83.433 147.7312
269.653877 83.423 147.5617
271.607900 83.413 147.3904
273.576083 83.404 147.2178
275.558528 83.394 147.0440
277.555338 83.384 146.8690
279.566619 83.375 146.6929
281.592474 83.366 146.5165
283.633009 83.357 146.3405
285.688331 83.349 146.1663
287.758546 83.341 145.9955
289.843763 83.333 145.8300
291.944090 83.326 145.6710
294.059638 83.319 145.5192
296.190515 83.313 145.3743
298.336833 83.307 145.2353
300.498705 83.301 145.1011
302.676243 83.296 144.9705
304.869559 83.290 144.8425
307.078770 83.285 144.7164
309.303989 83.280 144.5920
311.545334 83.274 144.4693
313.802919 83.269 144.3484
316.076865 83.264 144.2292
318.367288 83.259 144.1116
320.674309 83.254 143.9952
322.998047 83.249 143.8795
325.338624 83.244 143.7641
327.696162 83.239 143.6489
330.070783 83.234 143.5338
332.462612 83.228 143.4189
334.871773 83.222 143.3043
337.298392 83.215 143.1899
339.742595 83.206 143.0755
342.204510 83.197 142.9607
344.684265 83.187 142.8451
347.181989 83.176 142.7283
349.697813 83.164 142.6101
352.231868 83.150 142.4902
354.784285 83.136 142.3687
357.355198 83.120 142.2456
359.944741 83.104 142.1214
362.553049 83.086 141.9969
365.180258 83.068 141.8732
367.826505 83.050 141.7520
370.491927 83.031 141.6346
373.176665 83.012 141.5225
375.880856 82.992 141.4163
378.604644 82.973 141.3156
381.348169 82.953 141.2196
384.111575 82.933 141.1274
386.895006 82.913 141.0381
389.698607 82.892 140.9510
392.522524 82.870 140.8657
395.366904 82.848 140.7814
398.231895 82.826 140.6977
401.117648 82.803 140.6136
404.024312 82.779 140.5286
406.952038 82.755 140.4420
409.900981 82.731 140.3533
412.871292 82.705 140.2625
415.863128 82.678 140.1697
418.876643 82.650 140.0754
421.911996 82.621 139.9805
424.969344 82.590 139.8857
428.048847 82.558 139.7914
431.150666 82.524 139.6979
434.274961 82.488 139.6050
437.421897 82.451 139.5125
440.591636 82.412 139.4202
443.784345 82.371 139.3280
447.000189 82.330 139.2360
450.239337 82.287 139.1445
453.501956 82.244 139.0542
456.788219 82.200 138.9658
460.098294 82.156 138.8801
463.432356 82.112 138.7979
466.790578 82.069 138.7198
470.173135 82.027 138.6457
473.580203 81.986 138.5753
477.011961 81.946 138.5079
480.468586 81.908 138.4429
483.950259 81.871 138.3793
487.457163 81.835 138.3165
490.989478 81.801 138.2539
494.547390 81.769 138.1912
498.131084 81.738 138.1280
501.740748 81.708 138.0641
505.376568 81.680 137.9992
509.038735 81.653 137.9330
512.727439 81.628 137.8651
516.442874 81.605 137.7952
520.185232 81.583 137.7231
523.954708 81.563 137.6487
527.751500 81.544 137.5721
531.575805 81.528 137.4936
535.427822 81.513 137.4135
539.307753 81.499 137.3323
543.215800 81.488 137.2503
547.152165 81.479 137.1680
551.117055 81.471 137.0855
555.110677 81.465 137.0032
559.133237 81.460 136.9214
563.184947 81.457 136.8410
567.266018 81.455 136.7628
571.376661 81.454 136.6880
575.517092 81.453 136.6177
579.687526 81.454 136.5528
583.888181 81.454 136.4938
588.119275 81.455 136.4411
592.381030 81.456 136.3945
596.673667 81.457 136.3536
600.997410 81.459 136.3172
605.352485 81.461 136.2839
609.739119 81.462 136.2520
614.157540 81.464 136.2198
618.607979 81.465 136.1858
623.090667 81.466 136.1491
627.605839 81.467 136.1091
632.153730 81.466 136.0657
636.734576 81.464 136.0193
641.348617 81.461 135.9707
645.996094 81.457 135.9207
650.677248 81.452 135.8699
655.392323 81.445 135.8186
660.141566 81.438 135.7668
664.925224 81.429 135.7140
669.743546 81.420 135.6594
674.596784 81.410 135.6023
679.485191 81.399 135.5421
684.409020 81.387 135.4787
689.368530 81.374 135.4120
694.363979 81.360 135.3426
699.395626 81.345 135.2711
704.463736 81.327 135.1985
709.568570 81.309 135.1257
714.710396 81.289 135.0538
719.889483 81.267 134.9838
725.106099 81.243 134.9167
730.360516 81.218 134.8533
735.653010 81.192 134.7946
740.983855 81.165 134.7406
746.353329 81.137 134.6913
751.761713 81.108 134.6459
757.209288 81.078 134.6028
762.696339 81.049 134.5600
768.223151 81.019 134.5150
773.790013 80.990 134.4658
779.397214 80.960 134.4105
785.045047 80.931 134.3478
790.733808 80.902 134.2766
796.463791 80.873 134.1961
802.235296 80.845 134.1052
808.048623 80.817 134.0027
813.904077 80.789 133.8870
819.801961 80.761 133.7566
825.742584 80.733 133.6102
831.726255 80.704 133.4473
837.753287 80.674 133.2689
843.823992 80.642 133.0771
849.938689 80.606 132.8756
856.097695 80.567 132.6698
862.301332 80.525 132.4663
868.549922 80.478 132.2732
874.843793 80.426 132.0994
881.183272 80.371 131.9541
887.568689 80.312 131.8466
894.000378 80.251 131.7849
900.478673 80.191 131.7745
907.003913 80.132 131.8178
913.576437 80.077 131.9131
920.196588 80.028 132.0543
926.864712 79.987 132.2320
933.581156 79.956 132.4342
940.346270 79.935 132.6478
947.160407 79.923 132.8601
954.023921 79.922 133.0596
960.937172 79.929 133.2374
967.900519 79.944 133.3869
974.914325 79.967 133.5039
981.978956 79.994 133.5864
989.094780 80.027 133.6339
996.262169 80.063 133.6473
1003.481495 80.101 133.6282
1010.753136 80.141 133.5792
1018.077470 80.182 133.5034
1025.454879 80.224 133.4042
1032.885748 80.266 133.2851
1040.370463 80.308 133.1491
1047.909417 80.349 132.9991
1055.503000 80.389 132.8376
1063.151610 80.429 132.6670
1070.855645 80.468 132.4897
1078.615506 80.505 132.3079
1086.431599 80.542 132.1239
1094.304330 80.577 131.9395
1102.234110 80.611 131.7562
1110.221353 80.645 131.5752
1118.266475 80.677 131.3971
1126.369895 80.708 131.2224
1134.532035 80.739 131.0511
1142.753322 80.769 130.8826
1151.034184 80.798 130.7162
1159.375052 80.826 130.5508
1167.776361 80.854 130.3852
1176.238550 80.881 130.2186
1184.762060 80.907 130.0500
1193.347334 80.933 129.8789
1201.994821 80.957 129.7053
1210.704971 80.981 129.5292
1219.478238 81.003 129.3513
1228.315080 81.024 129.1726
1237.215957 81.044 128.9941
1246.181334 81.063 128.8170
1255.211678 81.081 128.6425
1264.307459 81.098 128.4714
1273.469152 81.114 128.3046
1282.697235 81.129 128.1427
1291.992188 81.143 127.9862
1301.354495 81.156 127.8356
1310.784647 81.168 127.6915
1320.283132 81.179 127.5542
1329.850448 81.190 127.4241
1339.487093 81.200 127.3011
1349.193569 81.210 127.1851
1358.970381 81.220 127.0753
1368.818041 81.229 126.9713
1378.737061 81.239 126.8727
1388.727958 81.248 126.7794
1398.791253 81.258 126.6918
1408.927471 81.267 126.6105
1419.137140 81.277 126.5365
1429.420793 81.288 126.4707
1439.778965 81.298 126.4144
1450.212197 81.310 126.3685
1460.721033 81.322 126.3340
1471.306019 81.335 126.3116
1481.967709 81.349 126.3022
1492.706658 81.363 126.3063
1503.523426 81.377 126.3246
1514.418576 81.392 126.3576
1525.392678 81.406 126.4058
1536.446302 81.420 126.4691
1547.580025 81.434 126.5477
1558.794428 81.446 126.6414
1570.090095 81.456 126.7500
1581.467615 81.465 126.8738
1592.927581 81.472 127.0135
1604.470591 81.476 127.1699
1616.097246 81.478 127.3444
1627.808153 81.477 127.5378
1639.603922 81.475 127.7500
1651.485168 81.472 127.9799
1663.452510 81.467 128.2252
1675.506573 81.462 128.4822
1687.647984 81.456 128.7468
1699.877377 81.450 129.0152
1712.195390 81.444 129.2845
1724.602663 81.436 129.5542
1737.099845 81.427 129.8255
1749.687587 81.416 130.1017
1762.366544 81.403 130.3871
1775.137379 81.390 130.6856
1788.000756 81.375 130.9999
1800.957346 81.361 131.3308
1814.007826 81.348 131.6773
1827.152874 81.335 132.0369
1840.393177 81.324 132.4061
1853.729425 81.314 132.7809
1867.162312 81.306 133.1570
1880.692540 81.299 133.5300
1894.320813 81.292 133.8962
1908.047843 81.286 134.2523
1921.874344 81.279 134.5966
1935.801038 81.271 134.9288
1949.828650 81.261 135.2505
1963.957912 81.248 135.5647
1978.189561 81.233 135.8752
1992.524338 81.215 136.1856
2006.962991 81.195 136.4990
2021.506272 81.172 136.8168
2036.154940 81.149 137.1392
2050.909758 81.125 137.4649
2065.771495 81.101 137.7918
2080.740927 81.078 138.1176
2095.818833 81.054 138.4403
2111.006001 81.032 138.7587
2126.303220 81.009 139.0725
2141.711290 80.988 139.3823
2157.231013 80.967 139.6892
2172.863198 80.947 139.9945
2188.608660 80.928 140.3001
2204.468221 80.911 140.6075
2220.442706 80.895 140.9185
2236.532950 80.881 141.2341
2252.739789 80.869 141.5552
2269.064070 80.860 141.8820
2285.506644 80.855 142.2136
2302.068367 80.853 142.5486
2318.750104 80.855 142.8853
2335.552723 80.862 143.2214
2352.477101 80.874 143.5547
2369.524119 80.890 143.8830
2386.694668 80.911 144.2047
2403.989641 80.938 144.5184
2421.409941 80.970 144.8231
2438.956476 81.007 145.1176
2456.630160 81.050 145.4005
2474.431915 81.099 145.6701
2492.362668 81.154 145.9243
2510.423356 81.215 146.1607
2528.614918 81.281 146.3770
2546.938304 81.353 146.5710
2565.394469 81.430 146.7412
2583.984375 81.511 146.8867
2602.708991 81.597 147.0072
2621.569293 81.687 147.1035
2640.566265 81.779 147.1766
2659.700897 81.874 147.2283
2678.974186 81.972 147.2604
2698.387137 82.072 147.2746
2717.940763 82.174 147.2720
2737.636082 82.278 147.2532
2757.474121 82.383 147.2186
2777.455915 82.490 147.1684
2797.582506 82.597 147.1031
2817.854942 82.705 147.0232
2838.274281 82.813 146.9290
2858.841586 82.921 146.8205
2879.557931 83.028 146.6975
2900.424394 83.134 146.5601
2921.442065 83.238 146.4088
2942.612039 83.339 146.2445
2963.935418 83.437 146.0688
2985.413316 83.531 145.8836
3007.046852 83.620 145.6909
3028.837153 83.705 145.4929
3050.785356 83.783 145.2915
3072.892604 83.856 145.0885
3095.160050 83.922 144.8857
3117.588856 83.981 144.6850
3140.180190 84.033 144.4884
3162.935230 84.077 144.2979
3185.855163 84.114 144.1156
3208.941182 84.144 143.9430
3232.194493 84.166 143.7809
3255.616307 84.181 143.6296
3279.207844 84.188 143.4888
3302.970336 84.189 143.3574
3326.905021 84.183 143.2349
3351.013146 84.171 143.1203
3375.295969 84.152 143.0135
3399.754755 84.126 142.9147
3424.390779 84.095 142.8247
3449.205326 84.057 142.7446
3474.199690 84.015 142.6759
3499.375173 83.968 142.6200
