* Measurement data measured by REW V5.31.3
* Source: EXCL: Headset (USB-C to 3.5mm Headphone Jack Adapter), MICROPHONE (Master Volume), 0, volume: 0.750
* Format: 256k Log Swept Sine, 1 sweep at -12.0 dBFS with no timing reference
* Dated: Apr 7, 2025 5:23:55 PM
* REW Settings:
*  C-weighting compensation: Off
*  Target level: 75.0 dB
* Note: ; 
* Measurement: HD 6XX (Soulwit) L2
* Smoothing: 1/6 octave
* Frequency Step: 96 ppo
* Start Frequency: 20.0 Hz
*
* Freq(Hz) SPL(dB) Phase(degrees)
20.187378 75.066 -101.3733
20.333664 75.057 -101.5439
20.481010 75.046 -101.7730
20.629424 75.034 -102.0537
20.778913 75.023 -102.3779
20.929486 75.016 -102.7367
21.081150 75.015 -103.1211
21.233912 75.021 -103.5222
21.387782 75.037 -103.9311
21.542767 75.065 -104.3400
21.698874 75.106 -104.7421
21.856113 75.161 -105.1323
22.014492 75.231 -105.5079
22.174018 75.316 -105.8687
22.334700 75.414 -106.2174
22.496546 75.524 -106.5592
22.659566 75.645 -106.9009
22.823766 75.772 -107.2504
22.989157 75.902 -107.6153
23.155745 76.032 -108.0014
23.323542 76.158 -108.4121
23.492554 76.277 -108.8472
23.662790 76.386 -109.3028
23.834261 76.482 -109.7719
24.006973 76.564 -110.2439
24.180938 76.631 -110.7067
24.356163 76.684 -111.1473
24.532658 76.724 -111.5529
24.710431 76.751 -111.9126
24.889493 76.769 -112.2182
25.069853 76.780 -112.4652
25.251519 76.786 -112.6528
25.434502 76.789 -112.7845
25.618811 76.792 -112.8675
25.804456 76.797 -112.9120
25.991445 76.804 -112.9309
26.179790 76.816 -112.9389
26.369500 76.832 -112.9517
26.560584 76.853 -112.9856
26.753053 76.878 -113.0566
26.946917 76.909 -113.1795
27.142185 76.942 -113.3672
27.338869 76.979 -113.6293
27.536977 77.017 -113.9707
27.736522 77.054 -114.3909
27.937512 77.091 -114.8832
28.139959 77.124 -115.4348
28.343872 77.154 -116.0274
28.549264 77.179 -116.6392
28.756143 77.202 -117.2470
28.964522 77.224 -117.8289
29.174411 77.245 -118.3675
29.385821 77.271 -118.8519
29.598763 77.301 -119.2795
29.813248 77.340 -119.6559
30.029287 77.389 -119.9939
30.246891 77.447 -120.3109
30.466073 77.514 -120.6257
30.686842 77.590 -120.9548
30.909212 77.671 -121.3105
31.133193 77.757 -121.6989
31.358797 77.847 -122.1198
31.586035 77.938 -122.5681
31.814921 78.032 -123.0349
32.045465 78.128 -123.5099
32.277680 78.227 -123.9832
32.511577 78.329 -124.4461
32.747169 78.435 -124.8923
32.984469 78.543 -125.3178
33.223488 78.655 -125.7205
33.464239 78.767 -126.0995
33.706735 78.878 -126.4553
33.950987 78.988 -126.7890
34.197010 79.095 -127.1022
34.444816 79.197 -127.3980
34.694417 79.295 -127.6798
34.945827 79.389 -127.9522
35.199059 79.478 -128.2201
35.454126 79.563 -128.4887
35.711041 79.646 -128.7623
35.969818 79.725 -129.0447
36.230470 79.803 -129.3382
36.493011 79.879 -129.6440
36.757455 79.953 -129.9622
37.023814 80.027 -130.2922
37.292104 80.099 -130.6322
37.562338 80.169 -130.9798
37.834530 80.236 -131.3313
38.108695 80.301 -131.6822
38.384846 80.363 -132.0269
38.662999 80.421 -132.3593
38.943167 80.477 -132.6735
39.225365 80.531 -132.9649
39.509608 80.584 -133.2307
39.795911 80.636 -133.4706
40.084289 80.689 -133.6866
40.374756 80.743 -133.8827
40.667328 80.798 -134.0641
40.962020 80.855 -134.2365
41.258848 80.913 -134.4062
41.557827 80.973 -134.5801
41.858972 81.034 -134.7659
42.162299 81.097 -134.9721
42.467824 81.162 -135.2073
42.775564 81.229 -135.4796
43.085533 81.297 -135.7942
43.397749 81.366 -136.1530
43.712227 81.433 -136.5534
44.028983 81.499 -136.9884
44.348036 81.561 -137.4481
44.669400 81.619 -137.9212
44.993093 81.672 -138.3961
45.319131 81.720 -138.8629
45.647532 81.763 -139.3136
45.978313 81.802 -139.7426
46.311491 81.836 -140.1473
46.647083 81.866 -140.5273
46.985107 81.894 -140.8843
47.325581 81.919 -141.2210
47.668521 81.943 -141.5404
48.013947 81.965 -141.8448
48.361876 81.987 -142.1358
48.712326 82.008 -142.4139
49.065315 82.030 -142.6804
49.420863 82.052 -142.9373
49.778987 82.074 -143.1881
50.139706 82.098 -143.4368
50.503039 82.122 -143.6878
50.869005 82.146 -143.9444
51.237623 82.169 -144.2089
51.608912 82.192 -144.4831
51.982891 82.215 -144.7687
52.359580 82.236 -145.0672
52.739000 82.257 -145.3799
53.121168 82.277 -145.7065
53.506106 82.298 -146.0449
53.893833 82.318 -146.3915
54.284370 82.339 -146.7418
54.677737 82.361 -147.0921
55.073955 82.385 -147.4406
55.473043 82.410 -147.7881
55.875024 82.438 -148.1377
56.279917 82.469 -148.4942
56.687745 82.504 -148.8620
57.098527 82.544 -149.2444
57.512287 82.588 -149.6416
57.929045 82.637 -150.0504
58.348822 82.688 -150.4638
58.771642 82.741 -150.8723
59.197525 82.793 -151.2655
59.626495 82.841 -151.6336
60.058573 82.884 -151.9699
60.493782 82.921 -152.2725
60.932145 82.952 -152.5441
61.373685 82.978 -152.7919
61.818424 83.002 -153.0253
62.266386 83.025 -153.2538
62.717593 83.049 -153.4851
63.172071 83.076 -153.7244
63.629842 83.107 -153.9749
64.090930 83.142 -154.2385
64.555359 83.182 -154.5157
65.023154 83.225 -154.8067
65.494339 83.272 -155.1112
65.968938 83.321 -155.4287
66.446976 83.372 -155.7583
66.928478 83.423 -156.0992
67.413469 83.473 -156.4494
67.901975 83.522 -156.8067
68.394021 83.568 -157.1684
68.889632 83.612 -157.5326
69.388835 83.654 -157.8984
69.891655 83.692 -158.2662
70.398118 83.728 -158.6370
70.908252 83.762 -159.0122
71.422083 83.793 -159.3921
71.939636 83.822 -159.7763
72.460941 83.848 -160.1630
72.986023 83.873 -160.5496
73.514909 83.896 -160.9330
74.047629 83.917 -161.3105
74.584208 83.936 -161.6803
75.124676 83.953 -162.0415
75.669061 83.969 -162.3943
76.217390 83.983 -162.7396
76.769692 83.996 -163.0790
77.325997 84.006 -163.4140
77.886333 84.016 -163.7465
78.450730 84.023 -164.0780
79.019216 84.029 -164.4099
79.591822 84.034 -164.7431
80.168577 84.037 -165.0781
80.749512 84.038 -165.4148
81.334656 84.039 -165.7530
81.924040 84.038 -166.0918
82.517696 84.038 -166.4304
83.115653 84.037 -166.7677
83.717943 84.035 -167.1030
84.324598 84.034 -167.4360
84.935649 84.033 -167.7666
85.551128 84.033 -168.0949
86.171066 84.032 -168.4217
86.795497 84.031 -168.7477
87.424453 84.030 -169.0736
88.057967 84.028 -169.4006
88.696071 84.027 -169.7296
89.338800 84.026 -170.0615
89.986185 84.024 -170.3963
90.638262 84.022 -170.7338
91.295065 84.019 -171.0730
91.956626 84.016 -171.4125
92.622982 84.013 -171.7510
93.294166 84.009 -172.0870
93.970214 84.005 -172.4197
94.651161 84.000 -172.7483
95.337042 83.995 -173.0724
96.027894 83.991 -173.3922
96.723752 83.986 -173.7078
97.424652 83.982 -174.0197
98.130631 83.978 -174.3288
98.841726 83.975 -174.6360
99.557974 83.971 -174.9421
100.279412 83.969 -175.2481
101.006078 83.967 -175.5545
101.738010 83.966 -175.8617
102.475245 83.965 -176.1700
103.217823 83.966 -176.4794
103.965782 83.968 -176.7900
104.719161 83.971 -177.1016
105.477999 83.975 -177.4142
106.242336 83.979 -177.7276
107.012212 83.985 -178.0419
107.787666 83.991 -178.3572
108.568740 83.998 -178.6732
109.355474 84.005 -178.9898
110.147909 84.013 -179.3060
110.946086 84.021 -179.6208
111.750047 84.029 -179.9332
112.559834 84.038 179.7576
113.375489 84.046 179.4522
114.197055 84.054 179.1507
115.024574 84.062 178.8529
115.858089 84.069 178.5583
116.697645 84.076 178.2668
117.543284 84.083 177.9777
118.395051 84.090 177.6909
119.252990 84.098 177.4058
120.117147 84.105 177.1221
120.987565 84.113 176.8394
121.864291 84.121 176.5578
122.747370 84.129 176.2775
123.636848 84.136 175.9988
124.532771 84.144 175.7219
125.435187 84.150 175.4465
126.344142 84.155 175.1720
127.259684 84.159 174.8976
128.181860 84.162 174.6225
129.110718 84.163 174.3459
130.046308 84.163 174.0673
130.988677 84.162 173.7865
131.937875 84.159 173.5037
132.893951 84.156 173.2200
133.856956 84.151 172.9368
134.826938 84.145 172.6555
135.803950 84.138 172.3769
136.788041 84.130 172.1013
137.779264 84.120 171.8284
138.777669 84.109 171.5576
139.783309 84.096 171.2883
140.796237 84.082 171.0199
141.816504 84.068 170.7523
142.844165 84.052 170.4853
143.879273 84.036 170.2194
144.921881 84.019 169.9551
145.972045 84.002 169.6928
147.029819 83.984 169.4330
148.095257 83.966 169.1755
149.168417 83.947 168.9201
150.249353 83.929 168.6663
151.338121 83.909 168.4134
152.434780 83.890 168.1613
153.539385 83.870 167.9100
154.651995 83.850 167.6600
155.772667 83.830 167.4117
156.901460 83.810 167.1653
158.038432 83.789 166.9209
159.183644 83.768 166.6782
160.337154 83.747 166.4369
161.499023 83.726 166.1966
162.669312 83.705 165.9571
163.848081 83.685 165.7184
165.035392 83.664 165.4807
166.231306 83.644 165.2437
167.435887 83.625 165.0074
168.649196 83.605 164.7713
169.871298 83.586 164.5350
171.102255 83.568 164.2980
172.342133 83.549 164.0602
173.590995 83.531 163.8214
174.848907 83.512 163.5815
176.115934 83.494 163.3409
177.392143 83.475 163.1002
178.677599 83.457 162.8601
179.972371 83.438 162.6215
181.276525 83.419 162.3849
182.590129 83.400 162.1508
183.913252 83.381 161.9191
185.245964 83.360 161.6896
186.588332 83.339 161.4621
187.940428 83.318 161.2364
189.302322 83.295 161.0126
190.674085 83.271 160.7911
192.055788 83.247 160.5722
193.447503 83.221 160.3564
194.849303 83.195 160.1442
196.261262 83.169 159.9356
197.683452 83.142 159.7308
199.115948 83.115 159.5297
200.558824 83.088 159.3322
202.012156 83.062 159.1384
203.476019 83.037 158.9480
204.950490 83.011 158.7608
206.435646 82.987 158.5764
207.931564 82.962 158.3942
209.438322 82.938 158.2137
210.955998 82.915 158.0344
212.484672 82.891 157.8559
214.024424 82.869 157.6775
215.575333 82.846 157.4989
217.137481 82.825 157.3196
218.710948 82.803 157.1396
220.295818 82.783 156.9586
221.892172 82.763 156.7766
223.500094 82.744 156.5940
225.119668 82.726 156.4116
226.750978 82.709 156.2299
228.394109 82.693 156.0499
230.049147 82.679 155.8721
231.716178 82.665 155.6970
233.395289 82.653 155.5247
235.086567 82.642 155.3552
236.790102 82.632 155.1884
238.505980 82.624 155.0236
240.234293 82.616 154.8603
241.975130 82.609 154.6978
243.728581 82.604 154.5358
245.494739 82.599 154.3741
247.273695 82.595 154.2127
249.065542 82.592 154.0517
250.870374 82.589 153.8909
252.688284 82.587 153.7300
254.519367 82.585 153.5681
256.363720 82.583 153.4044
258.221437 82.581 153.2379
260.092616 82.579 153.0681
261.977354 82.576 152.8950
263.875750 82.573 152.7191
265.787903 82.569 152.5420
267.713911 82.564 152.3653
269.653877 82.558 152.1906
271.607900 82.551 152.0192
273.576083 82.544 151.8519
275.558528 82.537 151.6891
277.555338 82.531 151.5308
279.566619 82.524 151.3773
281.592474 82.518 151.2287
283.633009 82.512 151.0850
285.688331 82.507 150.9459
287.758546 82.502 150.8110
289.843763 82.498 150.6800
291.944090 82.493 150.5522
294.059638 82.489 150.4271
296.190515 82.485 150.3036
298.336833 82.481 150.1810
300.498705 82.476 150.0587
302.676243 82.473 149.9361
304.869559 82.469 149.8131
307.078770 82.466 149.6899
309.303989 82.463 149.5669
311.545334 82.461 149.4446
313.802919 82.460 149.3238
316.076865 82.459 149.2047
318.367288 82.459 149.0875
320.674309 82.460 148.9722
322.998047 82.462 148.8584
325.338624 82.463 148.7459
327.696162 82.465 148.6343
330.070783 82.466 148.5233
332.462612 82.468 148.4129
334.871773 82.468 148.3032
337.298392 82.468 148.1944
339.742595 82.467 148.0868
342.204510 82.464 147.9802
344.684265 82.460 147.8740
347.181989 82.455 147.7678
349.697813 82.448 147.6609
352.231868 82.439 147.5533
354.784285 82.429 147.4446
357.355198 82.417 147.3351
359.944741 82.404 147.2252
362.553049 82.390 147.1151
365.180258 82.375 147.0056
367.826505 82.359 146.8970
370.491927 82.343 146.7901
373.176665 82.326 146.6854
375.880856 82.309 146.5832
378.604644 82.292 146.4834
381.348169 82.275 146.3857
384.111575 82.259 146.2893
386.895006 82.243 146.1934
389.698607 82.227 146.0970
392.522524 82.212 145.9999
395.366904 82.197 145.9015
398.231895 82.181 145.8019
401.117648 82.166 145.7015
404.024312 82.150 145.6007
406.952038 82.134 145.5003
409.900981 82.117 145.4008
412.871292 82.099 145.3028
415.863128 82.080 145.2065
418.876643 82.059 145.1121
421.911996 82.037 145.0197
424.969344 82.013 144.9293
428.048847 81.988 144.8406
431.150666 81.961 144.7531
434.274961 81.932 144.6662
437.421897 81.902 144.5795
440.591636 81.870 144.4927
443.784345 81.837 144.4059
447.000189 81.803 144.3196
450.239337 81.768 144.2345
453.501956 81.733 144.1514
456.788219 81.697 144.0708
460.098294 81.660 143.9933
463.432356 81.624 143.9187
466.790578 81.588 143.8468
470.173135 81.552 143.7769
473.580203 81.517 143.7085
477.011961 81.483 143.6410
480.468586 81.450 143.5737
483.950259 81.418 143.5065
487.457163 81.388 143.4392
490.989478 81.359 143.3718
494.547390 81.332 143.3045
498.131084 81.306 143.2374
501.740748 81.282 143.1708
505.376568 81.260 143.1047
509.038735 81.239 143.0391
512.727439 81.220 142.9738
516.442874 81.203 142.9082
520.185232 81.189 142.8414
523.954708 81.176 142.7725
527.751500 81.166 142.7004
531.575805 81.157 142.6245
535.427822 81.151 142.5447
539.307753 81.147 142.4609
543.215800 81.145 142.3738
547.152165 81.144 142.2840
551.117055 81.144 142.1923
555.110677 81.146 142.0996
559.133237 81.148 142.0069
563.184947 81.151 141.9152
567.266018 81.155 141.8254
571.376661 81.159 141.7386
575.517092 81.164 141.6560
579.687526 81.169 141.5786
583.888181 81.175 141.5074
588.119275 81.180 141.4431
592.381030 81.186 141.3859
596.673667 81.193 141.3355
600.997410 81.200 141.2911
605.352485 81.207 141.2514
609.739119 81.214 141.2148
614.157540 81.222 141.1794
618.607979 81.229 141.1438
623.090667 81.237 141.1067
627.605839 81.244 141.0673
632.153730 81.250 141.0254
636.734576 81.256 140.9810
641.348617 81.261 140.9347
645.996094 81.266 140.8868
650.677248 81.269 140.8374
655.392323 81.272 140.7866
660.141566 81.274 140.7340
664.925224 81.275 140.6793
669.743546 81.274 140.6218
674.596784 81.273 140.5611
679.485191 81.271 140.4966
684.409020 81.268 140.4279
689.368530 81.264 140.3546
694.363979 81.258 140.2766
699.395626 81.251 140.1943
704.463736 81.242 140.1085
709.568570 81.232 140.0209
714.710396 81.219 139.9336
719.889483 81.205 139.8489
725.106099 81.190 139.7687
730.360516 81.173 139.6941
735.653010 81.156 139.6252
740.983855 81.138 139.5613
746.353329 81.120 139.5008
751.761713 81.103 139.4417
757.209288 81.085 139.3812
762.696339 81.067 139.3167
768.223151 81.049 139.2452
773.790013 81.031 139.1642
779.397214 81.013 139.0715
785.045047 80.994 138.9656
790.733808 80.974 138.8455
796.463791 80.954 138.7111
802.235296 80.931 138.5627
808.048623 80.908 138.4014
813.904077 80.882 138.2290
819.801961 80.854 138.0479
825.742584 80.824 137.8607
831.726255 80.791 137.6712
837.753287 80.756 137.4836
843.823992 80.717 137.3026
849.938689 80.676 137.1338
856.097695 80.632 136.9829
862.301332 80.587 136.8557
868.549922 80.540 136.7578
874.843793 80.492 136.6939
881.183272 80.446 136.6672
887.568689 80.401 136.6787
894.000378 80.361 136.7268
900.478673 80.324 136.8075
907.003913 80.294 136.9147
913.576437 80.271 137.0409
920.196588 80.255 137.1776
926.864712 80.246 137.3167
933.581156 80.245 137.4504
940.346270 80.251 137.5717
947.160407 80.264 137.6747
954.023921 80.282 137.7552
960.937172 80.306 137.8103
967.900519 80.334 137.8387
974.914325 80.365 137.8410
981.978956 80.399 137.8190
989.094780 80.435 137.7755
996.262169 80.473 137.7137
1003.481495 80.512 137.6375
1010.753136 80.553 137.5503
1018.077470 80.595 137.4551
1025.454879 80.639 137.3541
1032.885748 80.684 137.2487
1040.370463 80.731 137.1392
1047.909417 80.780 137.0248
1055.503000 80.830 136.9041
1063.151610 80.883 136.7756
1070.855645 80.936 136.6375
1078.615506 80.991 136.4886
1086.431599 81.046 136.3286
1094.304330 81.102 136.1572
1102.234110 81.157 135.9749
1110.221353 81.211 135.7826
1118.266475 81.265 135.5818
1126.369895 81.317 135.3742
1134.532035 81.367 135.1612
1142.753322 81.417 134.9443
1151.034184 81.464 134.7247
1159.375052 81.511 134.5036
1167.776361 81.555 134.2817
1176.238550 81.599 134.0599
1184.762060 81.641 133.8394
1193.347334 81.682 133.6214
1201.994821 81.722 133.4075
1210.704971 81.761 133.1988
1219.478238 81.801 132.9962
1228.315080 81.840 132.7998
1237.215957 81.881 132.6085
1246.181334 81.922 132.4204
1255.211678 81.965 132.2329
1264.307459 82.009 132.0432
1273.469152 82.054 131.8486
1282.697235 82.101 131.6466
1291.992188 82.148 131.4356
1301.354495 82.195 131.2143
1310.784647 82.241 130.9822
1320.283132 82.287 130.7393
1329.850448 82.332 130.4863
1339.487093 82.376 130.2244
1349.193569 82.418 129.9550
1358.970381 82.459 129.6792
1368.818041 82.499 129.3984
1378.737061 82.537 129.1140
1388.727958 82.573 128.8275
1398.791253 82.609 128.5405
1408.927471 82.644 128.2550
1419.137140 82.678 127.9724
1429.420793 82.712 127.6935
1439.778965 82.746 127.4185
1450.212197 82.780 127.1472
1460.721033 82.814 126.8797
1471.306019 82.848 126.6171
1481.967709 82.882 126.3609
1492.706658 82.915 126.1130
1503.523426 82.947 125.8748
1514.418576 82.979 125.6469
1525.392678 83.009 125.4296
1536.446302 83.038 125.2224
1547.580025 83.065 125.0252
1558.794428 83.090 124.8381
1570.090095 83.113 124.6618
1581.467615 83.132 124.4971
1592.927581 83.149 124.3445
1604.470591 83.162 124.2044
1616.097246 83.172 124.0764
1627.808153 83.179 123.9591
1639.603922 83.183 123.8511
1651.485168 83.184 123.7505
1663.452510 83.181 123.6559
1675.506573 83.175 123.5663
1687.647984 83.166 123.4815
1699.877377 83.153 123.4020
1712.195390 83.136 123.3289
1724.602663 83.116 123.2638
1737.099845 83.092 123.2086
1749.687587 83.066 123.1658
1762.366544 83.036 123.1382
1775.137379 83.003 123.1287
1788.000756 82.967 123.1402
1800.957346 82.930 123.1752
1814.007826 82.891 123.2351
1827.152874 82.852 123.3202
1840.393177 82.812 123.4296
1853.729425 82.772 123.5607
1867.162312 82.733 123.7097
1880.692540 82.694 123.8716
1894.320813 82.656 124.0418
1908.047843 82.618 124.2167
1921.874344 82.580 124.3939
1935.801038 82.540 124.5725
1949.828650 82.500 124.7523
1963.957912 82.457 124.9336
1978.189561 82.413 125.1166
1992.524338 82.367 125.3026
2006.962991 82.318 125.4940
2021.506272 82.267 125.6945
2036.154940 82.214 125.9082
2050.909758 82.159 126.1380
2065.771495 82.104 126.3858
2080.740927 82.049 126.6515
2095.818833 81.995 126.9338
2111.006001 81.943 127.2303
2126.303220 81.894 127.5378
2141.711290 81.849 127.8530
2157.231013 81.806 128.1719
2172.863198 81.768 128.4907
2188.608660 81.734 128.8058
2204.468221 81.705 129.1140
2220.442706 81.679 129.4125
2236.532950 81.657 129.6993
2252.739789 81.638 129.9730
2269.064070 81.623 130.2333
2285.506644 81.610 130.4815
2302.068367 81.600 130.7198
2318.750104 81.593 130.9512
2335.552723 81.588 131.1789
2352.477101 81.587 131.4052
2369.524119 81.589 131.6309
2386.694668 81.596 131.8552
2403.989641 81.608 132.0752
2421.409941 81.625 132.2863
2438.956476 81.649 132.4827
2456.630160 81.678 132.6583
2474.431915 81.712 132.8079
2492.362668 81.750 132.9287
2510.423356 81.792 133.0214
2528.614918 81.836 133.0893
2546.938304 81.881 133.1382
2565.394469 81.928 133.1749
2583.984375 81.977 133.2057
2602.708991 82.028 133.2360
2621.569293 82.081 133.2692
2640.566265 82.138 133.3068
2659.700897 82.199 133.3483
2678.974186 82.264 133.3917
2698.387137 82.334 133.4341
2717.940763 82.408 133.4722
2737.636082 82.487 133.5023
2757.474121 82.570 133.5208
2777.455915 82.656 133.5247
2797.582506 82.745 133.5117
2817.854942 82.835 133.4807
2838.274281 82.927 133.4317
2858.841586 83.018 133.3662
2879.557931 83.109 133.2866
2900.424394 83.199 133.1964
2921.442065 83.287 133.0994
2942.612039 83.373 132.9992
2963.935418 83.457 132.8981
2985.413316 83.539 132.7971
3007.046852 83.619 132.6953
3028.837153 83.697 132.5908
3050.785356 83.771 132.4812
3072.892604 83.842 132.3645
3095.160050 83.909 132.2395
3117.588856 83.971 132.1058
3140.180190 84.026 131.9640
3162.935230 84.075 131.8154
3185.855163 84.117 131.6615
3208.941182 84.151 131.5045
3232.194493 84.178 131.3464
3255.616307 84.197 131.1895
3279.207844 84.208 131.0353
3302.970336 84.211 130.8853
3326.905021 84.207 130.7400
3351.013146 84.195 130.5997
3375.295969 84.177 130.4645
3399.754755 84.152 130.3350
3424.390779 84.121 130.2128
3449.205326 84.083 130.1004
3474.199690 84.039 130.0016
3499.375173 83.989 129.9203
