* Measurement data measured by REW V5.31.3
* Source: EXCL: Headset (USB-C to 3.5mm Headphone Jack Adapter), MICROPHONE (Master Volume), 0, volume: 0.750
* Format: 256k Log Swept Sine, 1 sweep at -12.0 dBFS with no timing reference
* Dated: Apr 1, 2025 10:13:55 PM
* REW Settings:
*  C-weighting compensation: Off
*  Target level: 75.0 dB
* Note: ; 
* Measurement: HD6XX L2
* Smoothing: 1/6 octave
* Frequency Step: 96 ppo
* Start Frequency: 20.0 Hz
*
* Freq(Hz) SPL(dB) Phase(degrees)
20.033247 84.175 -95.0180
20.178416 84.238 -95.3282
20.324637 84.306 -95.6283
20.471918 84.379 -95.9228
20.620266 84.457 -96.2162
20.769689 84.540 -96.5134
20.920195 84.628 -96.8185
21.071791 84.720 -97.1346
21.224486 84.814 -97.4636
21.378287 84.911 -97.8056
21.533203 85.009 -98.1591
21.689242 85.106 -98.5212
21.846411 85.203 -98.8878
22.004719 85.298 -99.2540
22.164174 85.391 -99.6150
22.324785 85.481 -99.9665
22.486559 85.570 -100.3056
22.649506 85.656 -100.6310
22.813634 85.741 -100.9436
22.978951 85.824 -101.2465
23.145466 85.906 -101.5448
23.313188 85.986 -101.8450
23.482124 86.064 -102.1545
23.652286 86.140 -102.4802
23.823680 86.211 -102.8280
23.996316 86.279 -103.2017
24.170203 86.340 -103.6027
24.345351 86.395 -104.0292
24.521767 86.443 -104.4772
24.699462 86.483 -104.9400
24.878444 86.515 -105.4094
25.058724 86.540 -105.8769
25.240310 86.559 -106.3338
25.423211 86.573 -106.7732
25.607438 86.583 -107.1898
25.793000 86.592 -107.5810
25.979907 86.600 -107.9468
26.168168 86.610 -108.2896
26.357794 86.622 -108.6135
26.548793 86.637 -108.9237
26.741176 86.656 -109.2255
26.934954 86.677 -109.5235
27.130136 86.702 -109.8208
27.326732 86.728 -110.1189
27.524753 86.757 -110.4179
27.724208 86.787 -110.7165
27.925110 86.818 -111.0127
28.127466 86.850 -111.3047
28.331290 86.884 -111.5913
28.536590 86.919 -111.8724
28.743378 86.957 -112.1493
28.951664 86.997 -112.4243
29.161460 87.040 -112.7007
29.372776 87.085 -112.9819
29.585623 87.133 -113.2714
29.800013 87.183 -113.5716
30.015956 87.235 -113.8841
30.233464 87.288 -114.2093
30.452548 87.343 -114.5466
30.673220 87.399 -114.8951
30.895490 87.456 -115.2531
31.119372 87.516 -115.6195
31.344876 87.577 -115.9932
31.572014 87.641 -116.3736
31.800797 87.708 -116.7602
32.031239 87.777 -117.1527
32.263351 87.849 -117.5500
32.497144 87.923 -117.9508
32.732632 88.000 -118.3526
32.969826 88.078 -118.7524
33.208739 88.160 -119.1466
33.449383 88.244 -119.5318
33.691771 88.331 -119.9051
33.935916 88.421 -120.2653
34.181829 88.515 -120.6127
34.429525 88.614 -120.9494
34.679015 88.717 -121.2796
34.930314 88.825 -121.6084
35.183433 88.936 -121.9416
35.438387 89.050 -122.2841
35.695188 89.165 -122.6400
35.953850 89.281 -123.0112
36.214387 89.396 -123.3977
36.476811 89.510 -123.7979
36.741137 89.620 -124.2086
37.007378 89.727 -124.6263
37.275549 89.830 -125.0474
37.545663 89.928 -125.4688
37.817734 90.023 -125.8876
38.091777 90.112 -126.3019
38.367806 90.197 -126.7094
38.645835 90.277 -127.1077
38.925879 90.352 -127.4941
39.207952 90.422 -127.8657
39.492069 90.487 -128.2200
39.778244 90.549 -128.5556
40.066494 90.607 -128.8723
40.356832 90.663 -129.1721
40.649275 90.717 -129.4585
40.943836 90.770 -129.7357
41.240532 90.821 -130.0079
41.539378 90.871 -130.2788
41.840389 90.920 -130.5507
42.143582 90.968 -130.8254
42.448972 91.016 -131.1042
42.756574 91.063 -131.3894
43.066406 91.110 -131.6836
43.378483 91.157 -131.9904
43.692822 91.203 -132.3129
44.009438 91.250 -132.6525
44.328348 91.295 -133.0086
44.649570 91.339 -133.3779
44.973119 91.381 -133.7554
45.299013 91.421 -134.1354
45.627268 91.460 -134.5133
45.957902 91.499 -134.8859
46.290932 91.538 -135.2518
46.626375 91.577 -135.6110
46.964249 91.616 -135.9639
47.304571 91.654 -136.3105
47.647360 91.693 -136.6498
47.992632 91.730 -136.9801
48.340407 91.767 -137.2990
48.690701 91.802 -137.6045
49.043534 91.836 -137.8955
49.398924 91.868 -138.1720
49.756889 91.900 -138.4361
50.117447 91.931 -138.6909
50.480619 91.961 -138.9405
50.846423 91.989 -139.1891
51.214877 92.015 -139.4401
51.586001 92.039 -139.6956
51.959814 92.059 -139.9560
52.336336 92.077 -140.2205
52.715587 92.091 -140.4878
53.097586 92.102 -140.7566
53.482353 92.112 -141.0264
53.869908 92.120 -141.2972
54.260272 92.128 -141.5696
54.653464 92.135 -141.8447
55.049506 92.144 -142.1237
55.448417 92.154 -142.4078
55.850219 92.166 -142.6983
56.254933 92.181 -142.9961
56.662579 92.199 -143.3019
57.073180 92.219 -143.6158
57.486755 92.243 -143.9371
57.903328 92.270 -144.2641
58.322919 92.299 -144.5939
58.745551 92.331 -144.9230
59.171246 92.365 -145.2475
59.600025 92.403 -145.5642
60.031911 92.443 -145.8712
60.466927 92.487 -146.1684
60.905096 92.534 -146.4577
61.346439 92.585 -146.7420
61.790981 92.639 -147.0248
62.238744 92.695 -147.3091
62.689751 92.753 -147.5976
63.144027 92.813 -147.8920
63.601595 92.873 -148.1932
64.062478 92.934 -148.5016
64.526701 92.995 -148.8172
64.994288 93.055 -149.1394
65.465264 93.114 -149.4674
65.939652 93.173 -149.8002
66.417478 93.231 -150.1368
66.898766 93.287 -150.4761
67.383542 93.343 -150.8173
67.871831 93.397 -151.1596
68.363659 93.450 -151.5028
68.859050 93.502 -151.8466
69.358031 93.551 -152.1909
69.860628 93.599 -152.5352
70.366867 93.645 -152.8792
70.876774 93.689 -153.2227
71.390376 93.731 -153.5656
71.907700 93.770 -153.9082
72.428773 93.806 -154.2508
72.953622 93.840 -154.5940
73.482274 93.872 -154.9381
74.014757 93.901 -155.2833
74.551098 93.927 -155.6298
75.091326 93.951 -155.9776
75.635469 93.973 -156.3269
76.183555 93.993 -156.6777
76.735612 94.011 -157.0304
77.291670 94.027 -157.3849
77.851757 94.041 -157.7415
78.415903 94.054 -158.1002
78.984137 94.065 -158.4608
79.556489 94.075 -158.8230
80.132988 94.084 -159.1860
80.713665 94.092 -159.5494
81.298549 94.099 -159.9125
81.887672 94.105 -160.2749
82.481064 94.111 -160.6364
83.078756 94.117 -160.9966
83.680778 94.123 -161.3555
84.287164 94.128 -161.7128
84.897943 94.134 -162.0684
85.513149 94.140 -162.4218
86.132812 94.146 -162.7728
86.756966 94.152 -163.1208
87.385643 94.157 -163.4655
88.018875 94.162 -163.8066
88.656696 94.166 -164.1440
89.299139 94.169 -164.4777
89.946238 94.172 -164.8078
90.598025 94.173 -165.1348
91.254536 94.173 -165.4596
91.915804 94.172 -165.7834
92.581864 94.170 -166.1074
93.252750 94.167 -166.4327
93.928498 94.164 -166.7603
94.609143 94.161 -167.0907
95.294719 94.157 -167.4243
95.985264 94.154 -167.7609
96.680813 94.150 -168.0998
97.381402 94.148 -168.4404
98.087068 94.146 -168.7815
98.797847 94.145 -169.1220
99.513777 94.144 -169.4606
100.234895 94.145 -169.7964
100.961238 94.146 -170.1283
101.692845 94.148 -170.4562
102.429753 94.151 -170.7799
103.172002 94.154 -171.1001
103.919628 94.159 -171.4176
104.672673 94.164 -171.7334
105.431174 94.169 -172.0485
106.195172 94.175 -172.3635
106.964706 94.182 -172.6789
107.739816 94.189 -172.9946
108.520543 94.197 -173.3105
109.306928 94.205 -173.6265
110.099011 94.214 -173.9424
110.896834 94.224 -174.2578
111.700438 94.234 -174.5723
112.509866 94.244 -174.8853
113.325158 94.254 -175.1962
114.146359 94.265 -175.5043
114.973511 94.276 -175.8093
115.806656 94.286 -176.1110
116.645839 94.296 -176.4097
117.491103 94.307 -176.7058
118.342492 94.317 -177.0006
119.200050 94.327 -177.2952
120.063823 94.336 -177.5910
120.933855 94.346 -177.8894
121.810191 94.356 -178.1906
122.692878 94.365 -178.4946
123.581962 94.374 -178.8003
124.477487 94.382 -179.1064
125.379503 94.390 -179.4119
126.288054 94.397 -179.7158
127.203189 94.403 179.9825
128.124956 94.408 179.6829
129.053402 94.412 179.3856
129.988577 94.414 179.0905
130.930527 94.415 178.7978
131.879304 94.415 178.5076
132.834956 94.413 178.2200
133.797533 94.409 177.9352
134.767085 94.404 177.6530
135.743663 94.398 177.3733
136.727317 94.391 177.0956
137.718100 94.383 176.8192
138.716062 94.373 176.5435
139.721255 94.362 176.2682
140.733733 94.350 175.9933
141.753548 94.337 175.7194
142.780753 94.323 175.4470
143.815401 94.308 175.1768
144.857546 94.292 174.9096
145.907244 94.275 174.6456
146.964548 94.258 174.3849
148.029514 94.240 174.1270
149.102197 94.222 173.8712
150.182652 94.203 173.6169
151.270938 94.184 173.3632
152.367109 94.164 173.1095
153.471224 94.145 172.8557
154.583340 94.125 172.6016
155.703515 94.105 172.3476
156.831807 94.085 172.0939
157.968274 94.066 171.8410
159.112978 94.046 171.5895
160.265976 94.026 171.3399
161.427329 94.007 171.0927
162.597098 93.988 170.8481
163.775344 93.969 170.6063
164.962128 93.951 170.3671
166.157511 93.932 170.1301
167.361557 93.914 169.8951
168.574328 93.897 169.6616
169.795887 93.879 169.4293
171.026298 93.861 169.1982
172.265625 93.843 168.9682
173.513933 93.824 168.7393
174.771286 93.806 168.5117
176.037751 93.787 168.2854
177.313393 93.767 168.0609
178.598279 93.747 167.8382
179.892476 93.727 167.6176
181.196051 93.706 167.3994
182.509072 93.685 167.1840
183.831608 93.664 166.9713
185.163728 93.642 166.7615
186.505500 93.620 166.5543
187.856996 93.597 166.3491
189.218285 93.574 166.1457
190.589439 93.551 165.9439
191.970529 93.527 165.7438
193.361626 93.503 165.5457
194.762804 93.479 165.3497
196.174136 93.455 165.1559
197.595694 93.430 164.9640
199.027554 93.405 164.7733
200.469790 93.380 164.5828
201.922477 93.354 164.3914
203.385690 93.329 164.1985
204.859507 93.304 164.0037
206.344003 93.278 163.8071
207.839257 93.253 163.6095
209.345346 93.228 163.4116
210.862348 93.202 163.2142
212.390344 93.177 163.0182
213.929412 93.152 162.8242
215.479633 93.127 162.6328
217.041087 93.102 162.4441
218.613856 93.079 162.2585
220.198022 93.056 162.0757
221.793668 93.034 161.8959
223.400876 93.013 161.7191
225.019731 92.994 161.5455
226.650317 92.976 161.3754
228.292718 92.960 161.2086
229.947022 92.946 161.0451
231.613312 92.932 160.8845
233.291678 92.920 160.7264
234.982206 92.910 160.5707
236.684984 92.900 160.4173
238.400101 92.892 160.2660
240.127646 92.884 160.1168
241.867710 92.878 159.9695
243.620383 92.872 159.8238
245.385757 92.867 159.6793
247.163923 92.862 159.5356
248.954975 92.858 159.3926
250.759005 92.853 159.2500
252.576108 92.849 159.1078
254.406379 92.844 158.9657
256.249912 92.838 158.8237
258.106805 92.833 158.6819
259.977153 92.826 158.5407
261.861055 92.820 158.4008
263.758608 92.813 158.2628
265.669911 92.806 158.1273
267.595065 92.800 157.9944
269.534169 92.793 157.8640
271.487325 92.787 157.7359
273.454634 92.781 157.6096
275.436199 92.775 157.4850
277.432123 92.769 157.3617
279.442511 92.762 157.2398
281.467467 92.756 157.1191
283.507096 92.750 156.9998
285.561505 92.744 156.8816
287.630801 92.738 156.7642
289.715093 92.732 156.6468
291.814488 92.727 156.5290
293.929096 92.721 156.4102
296.059027 92.717 156.2904
298.204393 92.713 156.1702
300.365305 92.709 156.0505
302.541876 92.706 155.9322
304.734219 92.704 155.8163
306.942449 92.702 155.7036
309.166680 92.702 155.5944
311.407029 92.702 155.4888
313.663613 92.702 155.3865
315.936549 92.703 155.2870
318.225955 92.704 155.1895
320.531952 92.705 155.0931
322.854659 92.706 154.9977
325.194197 92.706 154.9028
327.550688 92.707 154.8086
329.924255 92.707 154.7149
332.315022 92.706 154.6219
334.723114 92.705 154.5296
337.148655 92.703 154.4381
339.591774 92.700 154.3474
342.052596 92.697 154.2578
344.531250 92.693 154.1695
347.027865 92.688 154.0829
349.542572 92.683 153.9987
352.075502 92.676 153.9169
354.626786 92.668 153.8376
357.196558 92.660 153.7606
359.784951 92.650 153.6851
362.392101 92.640 153.6105
365.018144 92.628 153.5364
367.663216 92.616 153.4626
370.327455 92.603 153.3889
373.011000 92.589 153.3154
375.713992 92.575 153.2422
378.436570 92.560 153.1691
381.178878 92.545 153.0962
383.941057 92.530 153.0234
386.723252 92.514 152.9508
389.525608 92.498 152.8787
392.348271 92.482 152.8073
395.191389 92.466 152.7370
398.055108 92.449 152.6678
400.939580 92.431 152.5995
403.844953 92.413 152.5322
406.771380 92.394 152.4656
409.719013 92.375 152.3996
412.688006 92.354 152.3339
415.678514 92.333 152.2684
418.690692 92.310 152.2027
421.724697 92.286 152.1368
424.780688 92.261 152.0709
427.858824 92.235 152.0052
430.959265 92.207 151.9404
434.082174 92.178 151.8768
437.227712 92.147 151.8150
440.396044 92.116 151.7549
443.587336 92.084 151.6967
446.801752 92.050 151.6398
450.039462 92.016 151.5841
453.300634 91.981 151.5294
456.585437 91.945 151.4756
459.894043 91.908 151.4226
463.226625 91.872 151.3707
466.583356 91.835 151.3199
469.964411 91.798 151.2703
473.369967 91.762 151.2219
476.800201 91.726 151.1747
480.255292 91.691 151.1288
483.735420 91.657 151.0843
487.240766 91.624 151.0412
490.771513 91.592 150.9992
494.327846 91.561 150.9580
497.909949 91.531 150.9173
501.518010 91.503 150.8767
505.152216 91.476 150.8359
508.812758 91.451 150.7947
512.499825 91.428 150.7528
516.213610 91.407 150.7102
519.954306 91.387 150.6667
523.722109 91.371 150.6226
527.517216 91.356 150.5781
531.339823 91.343 150.5337
535.190130 91.333 150.4901
539.068339 91.324 150.4478
542.974650 91.317 150.4073
546.909268 91.311 150.3687
550.872398 91.307 150.3321
554.864247 91.305 150.2975
558.885022 91.304 150.2652
562.934933 91.304 150.2352
567.014192 91.305 150.2081
571.123010 91.307 150.1844
575.261603 91.310 150.1650
579.430186 91.314 150.1506
583.628976 91.319 150.1424
587.858192 91.324 150.1413
592.118055 91.329 150.1480
596.408786 91.335 150.1631
600.730610 91.341 150.1865
605.083752 91.348 150.2172
609.468438 91.355 150.2536
613.884897 91.363 150.2934
618.333360 91.371 150.3339
622.814059 91.379 150.3725
627.327226 91.388 150.4069
631.873098 91.396 150.4354
636.451911 91.404 150.4568
641.063904 91.411 150.4704
645.709317 91.417 150.4759
650.388393 91.422 150.4736
655.101375 91.426 150.4640
659.848510 91.429 150.4479
664.630044 91.430 150.4263
669.446228 91.429 150.4001
674.297311 91.428 150.3700
679.183547 91.424 150.3368
684.105191 91.420 150.3007
689.062499 91.414 150.2619
694.055730 91.407 150.2205
699.085144 91.398 150.1765
704.151003 91.388 150.1303
709.253572 91.376 150.0823
714.393116 91.363 150.0329
719.569903 91.348 149.9828
724.784203 91.332 149.9323
730.036288 91.314 149.8823
735.326432 91.294 149.8335
740.654910 91.272 149.7872
746.022001 91.248 149.7446
751.427984 91.223 149.7070
756.873141 91.196 149.6757
762.357756 91.168 149.6516
767.882114 91.138 149.6350
773.446504 91.107 149.6258
779.051217 91.076 149.6229
784.696543 91.045 149.6249
790.382778 91.014 149.6297
796.110217 90.983 149.6347
801.879160 90.954 149.6372
807.689907 90.926 149.6347
813.542761 90.899 149.6246
819.438027 90.873 149.6050
825.376013 90.848 149.5745
831.357028 90.824 149.5322
837.381383 90.799 149.4780
843.449394 90.774 149.4123
849.561376 90.749 149.3371
855.717648 90.721 149.2553
861.918531 90.691 149.1715
868.164348 90.659 149.0912
874.455424 90.623 149.0211
880.792089 90.585 148.9686
887.174671 90.544 148.9414
893.603505 90.501 148.9468
900.078924 90.458 148.9912
906.601267 90.416 149.0789
913.170874 90.376 149.2117
919.788086 90.341 149.3882
926.453250 90.312 149.6032
933.166712 90.290 149.8488
939.928823 90.278 150.1149
946.739934 90.275 150.3905
953.600402 90.281 150.6650
960.510584 90.296 150.9291
967.470839 90.319 151.1751
974.481532 90.349 151.3975
981.543027 90.387 151.5925
988.655692 90.429 151.7581
995.819899 90.477 151.8934
1003.036020 90.529 151.9984
1010.304433 90.584 152.0737
1017.625515 90.641 152.1209
1024.999649 90.700 152.1418
1032.427219 90.761 152.1390
1039.908612 90.823 152.1152
1047.444219 90.885 152.0733
1055.034432 90.948 152.0162
1062.679646 91.011 151.9460
1070.380261 91.074 151.8643
1078.136677 91.137 151.7722
1085.949300 91.200 151.6700
1093.818536 91.262 151.5580
1101.744796 91.324 151.4366
1109.728493 91.384 151.3062
1117.770043 91.443 151.1678
1125.869866 91.500 151.0231
1134.028383 91.555 150.8739
1142.246020 91.609 150.7220
1150.523206 91.661 150.5690
1158.860371 91.711 150.4159
1167.257951 91.760 150.2632
1175.716383 91.808 150.1110
1184.236109 91.854 149.9590
1192.817572 91.900 149.8071
1201.461220 91.944 149.6557
1210.167503 91.987 149.5056
1218.936876 92.029 149.3582
1227.769795 92.071 149.2152
1236.666721 92.111 149.0780
1245.628118 92.151 148.9478
1254.654453 92.191 148.8248
1263.746196 92.231 148.7083
1272.903822 92.271 148.5969
1282.127808 92.312 148.4892
1291.418634 92.353 148.3837
1300.776786 92.395 148.2794
1310.202751 92.436 148.1757
1319.697020 92.478 148.0721
1329.260089 92.519 147.9684
1338.892455 92.561 147.8643
1348.594622 92.602 147.7595
1358.367094 92.643 147.6540
1368.210382 92.683 147.5482
1378.124999 92.724 147.4426
1388.111461 92.765 147.3379
1398.170288 92.805 147.2343
1408.302007 92.847 147.1317
1418.507144 92.888 147.0301
1428.786231 92.930 146.9295
1439.139805 92.972 146.8308
1449.568405 93.015 146.7357
1460.072576 93.057 146.6465
1470.652863 93.100 146.5664
1481.309820 93.142 146.4986
1492.044002 93.185 146.4460
1502.855968 93.228 146.4107
1513.746282 93.271 146.3936
1524.715511 93.315 146.3939
1535.764228 93.360 146.4100
1546.893009 93.405 146.4394
1558.102433 93.450 146.4796
1569.393086 93.495 146.5283
1580.765555 93.540 146.5837
1592.220434 93.583 146.6439
1603.758320 93.625 146.7070
1615.379813 93.665 146.7711
1627.085521 93.703 146.8346
1638.876054 93.739 146.8965
1650.752025 93.772 146.9560
1662.714055 93.803 147.0128
1674.762766 93.831 147.0668
1686.898788 93.856 147.1188
1699.122752 93.877 147.1701
1711.435296 93.896 147.2232
1723.837061 93.911 147.2816
1736.328695 93.923 147.3488
1748.910849 93.933 147.4285
1761.584178 93.941 147.5232
1774.349343 93.948 147.6339
1787.207010 93.955 147.7603
1800.157848 93.962 147.9003
1813.202534 93.969 148.0512
1826.341747 93.978 148.2093
1839.576172 93.988 148.3707
1852.906500 93.998 148.5312
1866.333424 94.010 148.6864
1879.857645 94.021 148.8328
1893.479869 94.033 148.9678
1907.200804 94.043 149.0900
1921.021168 94.052 149.1992
1934.941679 94.059 149.2957
1948.963064 94.063 149.3806
1963.086054 94.065 149.4556
1977.311384 94.063 149.5228
1991.639798 94.058 149.5847
2006.072041 94.050 149.6442
2020.608866 94.039 149.7035
2035.251031 94.027 149.7640
2049.999299 94.012 149.8255
2064.854438 93.997 149.8865
2079.817225 93.981 149.9445
2094.888438 93.965 149.9964
2110.068863 93.949 150.0390
2125.359292 93.933 150.0696
2140.760521 93.917 150.0862
2156.273355 93.900 150.0884
2171.898600 93.883 150.0772
2187.637073 93.864 150.0555
2203.489593 93.844 150.0267
2219.456987 93.822 149.9945
2235.540087 93.799 149.9623
2251.739732 93.776 149.9334
2268.056766 93.751 149.9103
2284.492041 93.727 149.8954
2301.046412 93.702 149.8906
2317.720742 93.677 149.8973
2334.515902 93.654 149.9170
2351.432767 93.632 149.9509
2368.472218 93.612 149.9997
2385.635144 93.594 150.0634
2402.922440 93.580 150.1407
2420.335006 93.570 150.2295
2437.873752 93.564 150.3273
2455.539590 93.562 150.4316
2473.333442 93.566 150.5409
2491.256235 93.574 150.6538
2509.308905 93.587 150.7697
2527.492392 93.605 150.8883
2545.807644 93.628 151.0096
2564.255615 93.657 151.1339
2582.837268 93.691 151.2610
2601.553572 93.730 151.3906
2620.405502 93.775 151.5221
2639.394040 93.826 151.6549
2658.520177 93.882 151.7881
2677.784910 93.945 151.9208
2697.189244 94.013 152.0513
2716.734189 94.088 152.1777
2736.420765 94.168 152.2973
2756.249998 94.254 152.4066
2776.222921 94.346 152.5016
2796.340577 94.442 152.5785
2816.604013 94.542 152.6335
2837.014287 94.646 152.6644
2857.572462 94.752 152.6700
2878.279610 94.859 152.6506
2899.136811 94.967 152.6075
2920.145151 95.075 152.5419
2941.305727 95.181 152.4554
2962.619641 95.286 152.3493
2984.088004 95.389 152.2247
3005.711935 95.489 152.0825
3027.492563 95.585 151.9237
3049.431022 95.677 151.7490
3071.528457 95.764 151.5593
3093.786018 95.846 151.3551
3116.204867 95.922 151.1370
3138.786172 95.992 150.9056
3161.531110 96.055 150.6613
3184.440868 96.110 150.4051
3207.516639 96.157 150.1379
3230.759627 96.196 149.8610
3254.171043 96.226 149.5760
3277.752108 96.248 149.2849
3301.504051 96.261 148.9893
3325.428110 96.265 148.6912
3349.525533 96.261 148.3918
3373.797576 96.249 148.0922
3398.245504 96.229 147.7928
3422.870591 96.201 147.4944
3447.674123 96.166 147.1978
3472.657391 96.124 146.9050
