* Measurement data measured by REW V5.31.3
* Source: EXCL: Headset (USB-C to 3.5mm Headphone Jack Adapter), MICROPHONE (Master Volume), 0, volume: 0.750
* Format: 256k Log Swept Sine, 1 sweep at -12.0 dBFS with no timing reference
* Dated: Apr 7, 2025 5:22:41 PM
* REW Settings:
*  C-weighting compensation: Off
*  Target level: 75.0 dB
* Note: ; 
* Measurement: HD 6XX (Geekeria) R6
* Smoothing: 1/6 octave
* Frequency Step: 96 ppo
* Start Frequency: 20.0 Hz
*
* Freq(Hz) SPL(dB) Phase(degrees)
20.187378 79.255 -98.0338
20.333664 79.285 -98.1135
20.481010 79.324 -98.2225
20.629424 79.372 -98.3604
20.778913 79.427 -98.5268
20.929486 79.487 -98.7209
21.081150 79.551 -98.9417
21.233912 79.618 -99.1879
21.387782 79.687 -99.4576
21.542767 79.758 -99.7486
21.698874 79.831 -100.0583
21.856113 79.906 -100.3836
22.014492 79.983 -100.7218
22.174018 80.063 -101.0700
22.334700 80.146 -101.4259
22.496546 80.232 -101.7878
22.659566 80.321 -102.1545
22.823766 80.412 -102.5253
22.989157 80.505 -102.8999
23.155745 80.599 -103.2781
23.323542 80.691 -103.6592
23.492554 80.782 -104.0420
23.662790 80.869 -104.4242
23.834261 80.950 -104.8026
24.006973 81.025 -105.1731
24.180938 81.092 -105.5310
24.356163 81.151 -105.8719
24.532658 81.203 -106.1920
24.710431 81.247 -106.4890
24.889493 81.285 -106.7624
25.069853 81.318 -107.0143
25.251519 81.347 -107.2494
25.434502 81.373 -107.4741
25.618811 81.398 -107.6968
25.804456 81.422 -107.9258
25.991445 81.446 -108.1694
26.179790 81.469 -108.4335
26.369500 81.491 -108.7221
26.560584 81.512 -109.0356
26.753053 81.530 -109.3720
26.946917 81.546 -109.7263
27.142185 81.559 -110.0923
27.338869 81.570 -110.4628
27.536977 81.578 -110.8311
27.736522 81.584 -111.1917
27.937512 81.589 -111.5412
28.139959 81.595 -111.8783
28.343872 81.602 -112.2036
28.549264 81.611 -112.5200
28.756143 81.623 -112.8311
28.964522 81.639 -113.1413
29.174411 81.659 -113.4549
29.385821 81.684 -113.7758
29.598763 81.713 -114.1070
29.813248 81.748 -114.4506
30.029287 81.788 -114.8078
30.246891 81.833 -115.1788
30.466073 81.883 -115.5625
30.686842 81.938 -115.9570
30.909212 81.997 -116.3594
31.133193 82.061 -116.7657
31.358797 82.127 -117.1715
31.586035 82.197 -117.5718
31.814921 82.270 -117.9620
32.045465 82.345 -118.3380
32.277680 82.422 -118.6967
32.511577 82.502 -119.0363
32.747169 82.585 -119.3568
32.984469 82.670 -119.6596
33.223488 82.758 -119.9475
33.464239 82.849 -120.2242
33.706735 82.942 -120.4943
33.950987 83.038 -120.7621
34.197010 83.136 -121.0317
34.444816 83.236 -121.3063
34.694417 83.336 -121.5877
34.945827 83.437 -121.8766
35.199059 83.538 -122.1722
35.454126 83.637 -122.4730
35.711041 83.736 -122.7768
35.969818 83.832 -123.0817
36.230470 83.927 -123.3868
36.493011 84.020 -123.6919
36.757455 84.110 -123.9982
37.023814 84.197 -124.3075
37.292104 84.281 -124.6220
37.562338 84.362 -124.9434
37.834530 84.440 -125.2727
38.108695 84.513 -125.6092
38.384846 84.584 -125.9514
38.662999 84.651 -126.2966
38.943167 84.716 -126.6419
39.225365 84.779 -126.9847
39.509608 84.842 -127.3232
39.795911 84.904 -127.6570
40.084289 84.967 -127.9869
40.374756 85.030 -128.3152
40.667328 85.093 -128.6449
40.962020 85.156 -128.9791
41.258848 85.217 -129.3210
41.557827 85.277 -129.6725
41.858972 85.334 -130.0349
42.162299 85.388 -130.4076
42.467824 85.440 -130.7894
42.775564 85.488 -131.1776
43.085533 85.534 -131.5694
43.397749 85.578 -131.9611
43.712227 85.621 -132.3492
44.028983 85.662 -132.7305
44.348036 85.702 -133.1022
44.669400 85.742 -133.4621
44.993093 85.781 -133.8091
45.319131 85.818 -134.1430
45.647532 85.854 -134.4646
45.978313 85.889 -134.7755
46.311491 85.923 -135.0778
46.647083 85.955 -135.3739
46.985107 85.987 -135.6666
47.325581 86.018 -135.9586
47.668521 86.049 -136.2524
48.013947 86.079 -136.5501
48.361876 86.110 -136.8529
48.712326 86.140 -137.1612
49.065315 86.169 -137.4744
49.420863 86.197 -137.7908
49.778987 86.221 -138.1083
50.139706 86.243 -138.4245
50.503039 86.262 -138.7369
50.869005 86.277 -139.0437
51.237623 86.289 -139.3436
51.608912 86.300 -139.6357
51.982891 86.308 -139.9199
52.359580 86.316 -140.1967
52.739000 86.323 -140.4666
53.121168 86.329 -140.7306
53.506106 86.336 -140.9894
53.893833 86.343 -141.2440
54.284370 86.350 -141.4948
54.677737 86.356 -141.7420
55.073955 86.363 -141.9850
55.473043 86.369 -142.2227
55.875024 86.375 -142.4536
56.279917 86.380 -142.6765
56.687745 86.385 -142.8910
57.098527 86.390 -143.0982
57.512287 86.394 -143.3006
57.929045 86.398 -143.5017
58.348822 86.403 -143.7055
58.771642 86.410 -143.9162
59.197525 86.422 -144.1378
59.626495 86.439 -144.3737
60.058573 86.463 -144.6264
60.493782 86.495 -144.8967
60.932145 86.534 -145.1828
61.373685 86.579 -145.4808
61.818424 86.630 -145.7856
62.266386 86.683 -146.0920
62.717593 86.739 -146.3963
63.172071 86.795 -146.6963
63.629842 86.852 -146.9914
64.090930 86.908 -147.2821
64.555359 86.964 -147.5693
65.023154 87.020 -147.8539
65.494339 87.076 -148.1371
65.968938 87.130 -148.4201
66.446976 87.184 -148.7042
66.928478 87.237 -148.9910
67.413469 87.288 -149.2815
67.901975 87.339 -149.5765
68.394021 87.388 -149.8760
68.889632 87.436 -150.1792
69.388835 87.483 -150.4850
69.891655 87.529 -150.7923
70.398118 87.573 -151.1002
70.908252 87.616 -151.4082
71.422083 87.658 -151.7160
71.939636 87.697 -152.0231
72.460941 87.734 -152.3293
72.986023 87.769 -152.6345
73.514909 87.801 -152.9390
74.047629 87.831 -153.2433
74.584208 87.858 -153.5479
75.124676 87.882 -153.8530
75.669061 87.904 -154.1588
76.217390 87.923 -154.4651
76.769692 87.939 -154.7720
77.325997 87.953 -155.0795
77.886333 87.965 -155.3876
78.450730 87.975 -155.6961
79.019216 87.984 -156.0048
79.591822 87.991 -156.3134
80.168577 87.996 -156.6214
80.749512 88.001 -156.9286
81.334656 88.004 -157.2349
81.924040 88.007 -157.5405
82.517696 88.010 -157.8457
83.115653 88.012 -158.1504
83.717943 88.013 -158.4549
84.324598 88.014 -158.7589
84.935649 88.014 -159.0626
85.551128 88.014 -159.3657
86.171066 88.013 -159.6683
86.795497 88.011 -159.9704
87.424453 88.009 -160.2722
88.057967 88.007 -160.5733
88.696071 88.004 -160.8737
89.338800 88.000 -161.1731
89.986185 87.997 -161.4714
90.638262 87.993 -161.7683
91.295065 87.989 -162.0638
91.956626 87.985 -162.3576
92.622982 87.981 -162.6500
93.294166 87.976 -162.9410
93.970214 87.971 -163.2310
94.651161 87.965 -163.5201
95.337042 87.959 -163.8086
96.027894 87.952 -164.0967
96.723752 87.946 -164.3847
97.424652 87.939 -164.6726
98.130631 87.932 -164.9606
98.841726 87.925 -165.2485
99.557974 87.919 -165.5362
100.279412 87.912 -165.8235
101.006078 87.906 -166.1099
101.738010 87.900 -166.3951
102.475245 87.895 -166.6785
103.217823 87.891 -166.9596
103.965782 87.887 -167.2379
104.719161 87.885 -167.5128
105.477999 87.884 -167.7832
106.242336 87.885 -168.0484
107.012212 87.887 -168.3074
107.787666 87.890 -168.5597
108.568740 87.894 -168.8055
109.355474 87.899 -169.0457
110.147909 87.905 -169.2816
110.946086 87.911 -169.5148
111.750047 87.918 -169.7468
112.559834 87.925 -169.9789
113.375489 87.933 -170.2120
114.197055 87.940 -170.4466
115.024574 87.948 -170.6826
115.858089 87.956 -170.9200
116.697645 87.964 -171.1581
117.543284 87.971 -171.3969
118.395051 87.979 -171.6360
119.252990 87.987 -171.8755
120.117147 87.995 -172.1152
120.987565 88.003 -172.3547
121.864291 88.011 -172.5935
122.747370 88.018 -172.8311
123.636848 88.025 -173.0669
124.532771 88.032 -173.3011
125.435187 88.038 -173.5334
126.344142 88.044 -173.7642
127.259684 88.048 -173.9936
128.181860 88.051 -174.2218
129.110718 88.053 -174.4491
130.046308 88.054 -174.6759
130.988677 88.053 -174.9025
131.937875 88.051 -175.1293
132.893951 88.047 -175.3565
133.856956 88.043 -175.5839
134.826938 88.037 -175.8111
135.803950 88.030 -176.0376
136.788041 88.022 -176.2631
137.779264 88.013 -176.4874
138.777669 88.002 -176.7104
139.783309 87.990 -176.9322
140.796237 87.977 -177.1527
141.816504 87.963 -177.3719
142.844165 87.948 -177.5899
143.879273 87.932 -177.8069
144.921881 87.914 -178.0233
145.972045 87.896 -178.2391
147.029819 87.877 -178.4545
148.095257 87.857 -178.6693
149.168417 87.837 -178.8833
150.249353 87.816 -179.0966
151.338121 87.794 -179.3090
152.434780 87.771 -179.5202
153.539385 87.749 -179.7302
154.651995 87.725 -179.9388
155.772667 87.702 179.8544
156.901460 87.679 179.6494
158.038432 87.655 179.4462
159.183644 87.632 179.2448
160.337154 87.608 179.0449
161.499023 87.585 178.8463
162.669312 87.562 178.6490
163.848081 87.540 178.4534
165.035392 87.518 178.2598
166.231306 87.496 178.0687
167.435887 87.474 177.8805
168.649196 87.453 177.6956
169.871298 87.431 177.5140
171.102255 87.410 177.3356
172.342133 87.388 177.1600
173.590995 87.367 176.9868
174.848907 87.345 176.8150
176.115934 87.323 176.6438
177.392143 87.301 176.4724
178.677599 87.278 176.3004
179.972371 87.255 176.1277
181.276525 87.231 175.9545
182.590129 87.207 175.7815
183.913252 87.182 175.6094
185.245964 87.156 175.4388
186.588332 87.129 175.2707
187.940428 87.102 175.1056
189.302322 87.074 174.9440
190.674085 87.045 174.7863
192.055788 87.015 174.6323
193.447503 86.985 174.4817
194.849303 86.954 174.3336
196.261262 86.922 174.1868
197.683452 86.889 174.0401
199.115948 86.856 173.8927
200.558824 86.824 173.7444
202.012156 86.791 173.5956
203.476019 86.758 173.4476
204.950490 86.726 173.3018
206.435646 86.694 173.1594
207.931564 86.662 173.0216
209.438322 86.631 172.8895
210.955998 86.600 172.7635
212.484672 86.569 172.6439
214.024424 86.539 172.5306
215.575333 86.509 172.4235
217.137481 86.480 172.3219
218.710948 86.452 172.2257
220.295818 86.425 172.1345
221.892172 86.400 172.0484
223.500094 86.376 171.9673
225.119668 86.353 171.8910
226.750978 86.332 171.8188
228.394109 86.313 171.7499
230.049147 86.296 171.6832
231.716178 86.280 171.6176
233.395289 86.266 171.5518
235.086567 86.253 171.4849
236.790102 86.241 171.4163
238.505980 86.231 171.3450
240.234293 86.221 171.2709
241.975130 86.213 171.1937
243.728581 86.205 171.1134
245.494739 86.198 171.0301
247.273695 86.191 170.9438
249.065542 86.185 170.8547
250.870374 86.178 170.7630
252.688284 86.172 170.6694
254.519367 86.165 170.5746
256.363720 86.157 170.4793
258.221437 86.150 170.3844
260.092616 86.141 170.2904
261.977354 86.132 170.1976
263.875750 86.122 170.1061
265.787903 86.111 170.0161
267.713911 86.101 169.9277
269.653877 86.090 169.8413
271.607900 86.079 169.7572
273.576083 86.068 169.6755
275.558528 86.057 169.5963
277.555338 86.046 169.5193
279.566619 86.036 169.4446
281.592474 86.026 169.3721
283.633009 86.016 169.3019
285.688331 86.007 169.2344
287.758546 85.998 169.1696
289.843763 85.989 169.1076
291.944090 85.980 169.0481
294.059638 85.972 168.9904
296.190515 85.964 168.9341
298.336833 85.956 168.8786
300.498705 85.948 168.8238
302.676243 85.940 168.7697
304.869559 85.933 168.7167
307.078770 85.926 168.6653
309.303989 85.918 168.6162
311.545334 85.912 168.5697
313.802919 85.905 168.5262
316.076865 85.898 168.4854
318.367288 85.892 168.4471
320.674309 85.886 168.4108
322.998047 85.880 168.3757
325.338624 85.873 168.3413
327.696162 85.867 168.3076
330.070783 85.860 168.2743
332.462612 85.852 168.2419
334.871773 85.844 168.2111
337.298392 85.836 168.1823
339.742595 85.826 168.1562
342.204510 85.816 168.1337
344.684265 85.804 168.1150
347.181989 85.792 168.1003
349.697813 85.778 168.0894
352.231868 85.762 168.0822
354.784285 85.746 168.0782
357.355198 85.728 168.0768
359.944741 85.709 168.0775
362.553049 85.689 168.0795
365.180258 85.668 168.0823
367.826505 85.646 168.0851
370.491927 85.623 168.0872
373.176665 85.600 168.0877
375.880856 85.576 168.0862
378.604644 85.552 168.0828
381.348169 85.528 168.0779
384.111575 85.503 168.0721
386.895006 85.479 168.0664
389.698607 85.454 168.0620
392.522524 85.428 168.0597
395.366904 85.403 168.0605
398.231895 85.377 168.0649
401.117648 85.351 168.0732
404.024312 85.324 168.0854
406.952038 85.296 168.1011
409.900981 85.267 168.1199
412.871292 85.238 168.1411
415.863128 85.207 168.1640
418.876643 85.175 168.1880
421.911996 85.142 168.2129
424.969344 85.108 168.2382
428.048847 85.072 168.2642
431.150666 85.035 168.2909
434.274961 84.997 168.3188
437.421897 84.957 168.3481
440.591636 84.916 168.3793
443.784345 84.874 168.4126
447.000189 84.831 168.4483
450.239337 84.787 168.4865
453.501956 84.742 168.5273
456.788219 84.696 168.5705
460.098294 84.651 168.6159
463.432356 84.605 168.6632
466.790578 84.561 168.7119
470.173135 84.516 168.7615
473.580203 84.473 168.8116
477.011961 84.430 168.8621
480.468586 84.389 168.9125
483.950259 84.348 168.9630
487.457163 84.309 169.0134
490.989478 84.270 169.0641
494.547390 84.232 169.1152
498.131084 84.196 169.1670
501.740748 84.161 169.2201
505.376568 84.127 169.2747
509.038735 84.094 169.3314
512.727439 84.062 169.3904
516.442874 84.032 169.4518
520.185232 84.004 169.5154
523.954708 83.978 169.5811
527.751500 83.953 169.6482
531.575805 83.931 169.7162
535.427822 83.910 169.7846
539.307753 83.892 169.8527
543.215800 83.876 169.9201
547.152165 83.863 169.9867
551.117055 83.851 170.0528
555.110677 83.842 170.1186
559.133237 83.835 170.1846
563.184947 83.829 170.2510
567.266018 83.826 170.3181
571.376661 83.824 170.3858
575.517092 83.823 170.4544
579.687526 83.824 170.5242
583.888181 83.825 170.5954
588.119275 83.827 170.6683
592.381030 83.828 170.7429
596.673667 83.830 170.8192
600.997410 83.831 170.8969
605.352485 83.832 170.9756
609.739119 83.833 171.0547
614.157540 83.832 171.1336
618.607979 83.831 171.2115
623.090667 83.829 171.2879
627.605839 83.825 171.3625
632.153730 83.821 171.4349
636.734576 83.815 171.5050
641.348617 83.808 171.5723
645.996094 83.800 171.6367
650.677248 83.791 171.6977
655.392323 83.780 171.7551
660.141566 83.768 171.8091
664.925224 83.755 171.8597
669.743546 83.740 171.9077
674.596784 83.723 171.9536
679.485191 83.705 171.9986
684.409020 83.685 172.0435
689.368530 83.663 172.0895
694.363979 83.640 172.1375
699.395626 83.615 172.1882
704.463736 83.589 172.2425
709.568570 83.561 172.3006
714.710396 83.532 172.3629
719.889483 83.501 172.4293
725.106099 83.469 172.4999
730.360516 83.436 172.5742
735.653010 83.401 172.6517
740.983855 83.365 172.7314
746.353329 83.329 172.8124
751.761713 83.291 172.8933
757.209288 83.251 172.9730
762.696339 83.211 173.0503
768.223151 83.169 173.1245
773.790013 83.125 173.1954
779.397214 83.079 173.2635
785.045047 83.032 173.3299
790.733808 82.982 173.3967
796.463791 82.931 173.4664
802.235296 82.878 173.5422
808.048623 82.823 173.6276
813.904077 82.767 173.7260
819.801961 82.711 173.8409
825.742584 82.655 173.9753
831.726255 82.599 174.1310
837.753287 82.545 174.3090
843.823992 82.493 174.5086
849.938689 82.445 174.7273
856.097695 82.401 174.9613
862.301332 82.361 175.2051
868.549922 82.326 175.4526
874.843793 82.296 175.6975
881.183272 82.270 175.9341
887.568689 82.249 176.1578
894.000378 82.232 176.3650
900.478673 82.217 176.5535
907.003913 82.206 176.7226
913.576437 82.196 176.8725
920.196588 82.187 177.0044
926.864712 82.179 177.1206
933.581156 82.172 177.2239
940.346270 82.165 177.3176
947.160407 82.158 177.4051
954.023921 82.152 177.4898
960.937172 82.146 177.5747
967.900519 82.141 177.6626
974.914325 82.138 177.7556
981.978956 82.136 177.8551
989.094780 82.137 177.9618
996.262169 82.140 178.0756
1003.481495 82.147 178.1955
1010.753136 82.157 178.3198
1018.077470 82.171 178.4466
1025.454879 82.188 178.5734
1032.885748 82.210 178.6980
1040.370463 82.234 178.8177
1047.909417 82.262 178.9302
1055.503000 82.293 179.0330
1063.151610 82.326 179.1242
1070.855645 82.362 179.2023
1078.615506 82.398 179.2662
1086.431599 82.436 179.3153
1094.304330 82.474 179.3496
1102.234110 82.511 179.3694
1110.221353 82.548 179.3753
1118.266475 82.584 179.3688
1126.369895 82.618 179.3514
1134.532035 82.651 179.3247
1142.753322 82.681 179.2908
1151.034184 82.709 179.2515
1159.375052 82.735 179.2089
1167.776361 82.759 179.1650
1176.238550 82.781 179.1217
1184.762060 82.801 179.0808
1193.347334 82.819 179.0438
1201.994821 82.835 179.0118
1210.704971 82.851 178.9857
1219.478238 82.865 178.9651
1228.315080 82.879 178.9495
1237.215957 82.892 178.9379
1246.181334 82.905 178.9294
1255.211678 82.918 178.9233
1264.307459 82.929 178.9191
1273.469152 82.940 178.9169
1282.697235 82.950 178.9169
1291.992188 82.960 178.9198
1301.354495 82.968 178.9264
1310.784647 82.975 178.9375
1320.283132 82.981 178.9541
1329.850448 82.986 178.9773
1339.487093 82.990 179.0082
1349.193569 82.993 179.0480
1358.970381 82.995 179.0981
1368.818041 82.997 179.1596
1378.737061 82.998 179.2331
1388.727958 83.000 179.3185
1398.791253 83.002 179.4154
1408.927471 83.004 179.5231
1419.137140 83.008 179.6410
1429.420793 83.013 179.7690
1439.778965 83.019 179.9079
1450.212197 83.026 -179.9410
1460.721033 83.034 -179.7762
1471.306019 83.044 -179.5962
1481.967709 83.055 -179.4002
1492.706658 83.068 -179.1880
1503.523426 83.083 -178.9604
1514.418576 83.099 -178.7183
1525.392678 83.116 -178.4632
1536.446302 83.133 -178.1961
1547.580025 83.151 -177.9175
1558.794428 83.168 -177.6277
1570.090095 83.185 -177.3267
1581.467615 83.201 -177.0146
1592.927581 83.215 -176.6920
1604.470591 83.229 -176.3597
1616.097246 83.240 -176.0191
1627.808153 83.251 -175.6719
1639.603922 83.259 -175.3193
1651.485168 83.266 -174.9625
1663.452510 83.272 -174.6024
1675.506573 83.276 -174.2401
1687.647984 83.279 -173.8770
1699.877377 83.281 -173.5143
1712.195390 83.282 -173.1532
1724.602663 83.282 -172.7945
1737.099845 83.281 -172.4386
1749.687587 83.279 -172.0851
1762.366544 83.276 -171.7328
1775.137379 83.272 -171.3800
1788.000756 83.267 -171.0246
1800.957346 83.260 -170.6642
1814.007826 83.252 -170.2963
1827.152874 83.244 -169.9191
1840.393177 83.235 -169.5318
1853.729425 83.226 -169.1350
1867.162312 83.218 -168.7307
1880.692540 83.210 -168.3222
1894.320813 83.202 -167.9132
1908.047843 83.196 -167.5079
1921.874344 83.189 -167.1100
1935.801038 83.182 -166.7225
1949.828650 83.175 -166.3476
1963.957912 83.166 -165.9866
1978.189561 83.156 -165.6399
1992.524338 83.144 -165.3071
2006.962991 83.130 -164.9870
2021.506272 83.114 -164.6779
2036.154940 83.096 -164.3776
2050.909758 83.075 -164.0839
2065.771495 83.053 -163.7950
2080.740927 83.029 -163.5094
2095.818833 83.005 -163.2263
2111.006001 82.980 -162.9454
2126.303220 82.955 -162.6668
2141.711290 82.931 -162.3913
2157.231013 82.908 -162.1197
2172.863198 82.886 -161.8530
2188.608660 82.865 -161.5918
2204.468221 82.846 -161.3369
2220.442706 82.830 -161.0889
2236.532950 82.815 -160.8485
2252.739789 82.803 -160.6169
2269.064070 82.793 -160.3958
2285.506644 82.785 -160.1869
2302.068367 82.781 -159.9922
2318.750104 82.778 -159.8132
2335.552723 82.778 -159.6510
2352.477101 82.780 -159.5060
2369.524119 82.784 -159.3784
2386.694668 82.789 -159.2677
2403.989641 82.797 -159.1734
2421.409941 82.806 -159.0944
2438.956476 82.817 -159.0298
2456.630160 82.830 -158.9782
2474.431915 82.844 -158.9386
2492.362668 82.860 -158.9096
2510.423356 82.878 -158.8900
2528.614918 82.898 -158.8783
2546.938304 82.920 -158.8732
2565.394469 82.944 -158.8729
2583.984375 82.969 -158.8760
2602.708991 82.997 -158.8809
2621.569293 83.027 -158.8867
2640.566265 83.060 -158.8930
2659.700897 83.095 -158.8997
2678.974186 83.133 -158.9073
2698.387137 83.173 -158.9160
2717.940763 83.216 -158.9264
2737.636082 83.261 -158.9387
2757.474121 83.309 -158.9531
2777.455915 83.358 -158.9701
2797.582506 83.409 -158.9898
2817.854942 83.461 -159.0127
2838.274281 83.515 -159.0387
2858.841586 83.568 -159.0674
2879.557931 83.622 -159.0980
2900.424394 83.676 -159.1298
2921.442065 83.729 -159.1619
2942.612039 83.781 -159.1939
2963.935418 83.831 -159.2253
2985.413316 83.879 -159.2558
3007.046852 83.925 -159.2849
3028.837153 83.968 -159.3122
3050.785356 84.008 -159.3369
3072.892604 84.044 -159.3584
3095.160050 84.075 -159.3762
3117.588856 84.102 -159.3903
3140.180190 84.124 -159.4007
3162.935230 84.141 -159.4077
3185.855163 84.152 -159.4118
3208.941182 84.158 -159.4131
3232.194493 84.157 -159.4116
3255.616307 84.151 -159.4072
3279.207844 84.138 -159.3995
3302.970336 84.118 -159.3879
3326.905021 84.092 -159.3720
3351.013146 84.061 -159.3510
