* Measurement data measured by REW V5.31.3
* Source: EXCL: Headset (USB-C to 3.5mm Headphone Jack Adapter), MICROPHONE (Master Volume), 0, volume: 0.750
* Format: 256k Log Swept Sine, 1 sweep at -12.0 dBFS with no timing reference
* Dated: Apr 1, 2025 10:40:19 PM
* REW Settings:
*  C-weighting compensation: Off
*  Target level: 75.0 dB
* Note: ; 
* Measurement: K361 L1
* Smoothing: 1/6 octave
* Frequency Step: 96 ppo
* Start Frequency: 20.0 Hz
*
* Freq(Hz) SPL(dB) Phase(degrees)
20.187378 98.390 -141.7260
20.333664 98.400 -141.8071
20.481010 98.414 -141.9214
20.629424 98.434 -142.0727
20.778913 98.459 -142.2658
20.929486 98.490 -142.5055
21.081150 98.528 -142.7964
21.233912 98.572 -143.1423
21.387782 98.623 -143.5451
21.542767 98.680 -144.0048
21.698874 98.742 -144.5187
21.856113 98.808 -145.0813
22.014492 98.877 -145.6844
22.174018 98.949 -146.3175
22.334700 99.022 -146.9684
22.496546 99.095 -147.6240
22.659566 99.167 -148.2714
22.823766 99.237 -148.8987
22.989157 99.305 -149.4963
23.155745 99.370 -150.0573
23.323542 99.431 -150.5783
23.492554 99.489 -151.0592
23.662790 99.542 -151.5033
23.834261 99.590 -151.9168
24.006973 99.632 -152.3075
24.180938 99.669 -152.6843
24.356163 99.698 -153.0558
24.532658 99.721 -153.4296
24.710431 99.736 -153.8114
24.889493 99.744 -154.2046
25.069853 99.744 -154.6102
25.251519 99.738 -155.0270
25.434502 99.727 -155.4521
25.618811 99.711 -155.8814
25.804456 99.691 -156.3101
25.991445 99.670 -156.7336
26.179790 99.648 -157.1478
26.369500 99.627 -157.5495
26.560584 99.606 -157.9367
26.753053 99.585 -158.3082
26.946917 99.565 -158.6640
27.142185 99.546 -159.0046
27.338869 99.525 -159.3316
27.536977 99.503 -159.6470
27.736522 99.478 -159.9536
27.937512 99.451 -160.2552
28.139959 99.422 -160.5561
28.343872 99.391 -160.8617
28.549264 99.358 -161.1777
28.756143 99.325 -161.5098
28.964522 99.293 -161.8633
29.174411 99.263 -162.2422
29.385821 99.236 -162.6484
29.598763 99.214 -163.0815
29.813248 99.196 -163.5384
30.029287 99.185 -164.0136
30.246891 99.179 -164.4998
30.466073 99.179 -164.9890
30.686842 99.184 -165.4730
30.909212 99.195 -165.9449
31.133193 99.211 -166.3996
31.358797 99.231 -166.8345
31.586035 99.254 -167.2493
31.814921 99.279 -167.6458
32.045465 99.305 -168.0276
32.277680 99.333 -168.3994
32.511577 99.361 -168.7661
32.747169 99.390 -169.1325
32.984469 99.419 -169.5025
33.223488 99.450 -169.8794
33.464239 99.482 -170.2650
33.706735 99.515 -170.6597
33.950987 99.550 -171.0630
34.197010 99.587 -171.4726
34.444816 99.626 -171.8857
34.694417 99.666 -172.2983
34.945827 99.707 -172.7064
35.199059 99.748 -173.1061
35.454126 99.789 -173.4941
35.711041 99.829 -173.8686
35.969818 99.868 -174.2289
36.230470 99.905 -174.5763
36.493011 99.942 -174.9130
36.757455 99.977 -175.2425
37.023814 100.011 -175.5683
37.292104 100.043 -175.8936
37.562338 100.073 -176.2205
37.834530 100.100 -176.5496
38.108695 100.125 -176.8798
38.384846 100.146 -177.2087
38.662999 100.163 -177.5333
38.943167 100.177 -177.8504
39.225365 100.188 -178.1578
39.509608 100.196 -178.4546
39.795911 100.203 -178.7420
40.084289 100.208 -179.0228
40.374756 100.212 -179.3012
40.667328 100.216 -179.5816
40.962020 100.220 -179.8679
41.258848 100.223 179.8375
41.557827 100.225 179.5340
41.858972 100.226 179.2230
42.162299 100.225 178.9075
42.467824 100.223 178.5916
42.775564 100.218 178.2799
43.085533 100.210 177.9766
43.397749 100.201 177.6851
43.712227 100.189 177.4077
44.028983 100.176 177.1452
44.348036 100.162 176.8973
44.669400 100.148 176.6624
44.993093 100.134 176.4381
45.319131 100.121 176.2219
45.647532 100.109 176.0111
45.978313 100.098 175.8037
46.311491 100.088 175.5982
46.647083 100.080 175.3933
46.985107 100.072 175.1884
47.325581 100.064 174.9830
47.668521 100.056 174.7770
48.013947 100.047 174.5706
48.361876 100.036 174.3643
48.712326 100.024 174.1588
49.065315 100.008 173.9545
49.420863 99.991 173.7511
49.778987 99.971 173.5477
50.139706 99.950 173.3428
50.503039 99.927 173.1348
50.869005 99.903 172.9226
51.237623 99.878 172.7063
51.608912 99.853 172.4870
51.982891 99.827 172.2670
52.359580 99.801 172.0488
52.739000 99.775 171.8350
53.121168 99.749 171.6274
53.506106 99.724 171.4266
53.893833 99.698 171.2321
54.284370 99.673 171.0423
54.677737 99.648 170.8547
55.073955 99.623 170.6663
55.473043 99.598 170.4739
55.875024 99.575 170.2748
56.279917 99.552 170.0665
56.687745 99.530 169.8474
57.098527 99.509 169.6169
57.512287 99.490 169.3757
57.929045 99.471 169.1251
58.348822 99.454 168.8671
58.771642 99.437 168.6045
59.197525 99.420 168.3402
59.626495 99.404 168.0773
60.058573 99.389 167.8185
60.493782 99.375 167.5660
60.932145 99.362 167.3208
61.373685 99.350 167.0833
61.818424 99.340 166.8528
62.266386 99.332 166.6289
62.717593 99.326 166.4109
63.172071 99.320 166.1987
63.629842 99.316 165.9920
64.090930 99.312 165.7906
64.555359 99.310 165.5944
65.023154 99.308 165.4034
65.494339 99.308 165.2182
65.968938 99.308 165.0395
66.446976 99.308 164.8680
66.928478 99.310 164.7043
67.413469 99.312 164.5482
67.901975 99.314 164.3994
68.394021 99.316 164.2564
68.889632 99.318 164.1181
69.388835 99.320 163.9831
69.891655 99.321 163.8503
70.398118 99.321 163.7191
70.908252 99.321 163.5891
71.422083 99.319 163.4601
71.939636 99.316 163.3319
72.460941 99.310 163.2039
72.986023 99.303 163.0759
73.514909 99.293 162.9475
74.047629 99.279 162.8192
74.584208 99.263 162.6916
75.124676 99.244 162.5661
75.669061 99.223 162.4445
76.217390 99.198 162.3289
76.769692 99.172 162.2219
77.325997 99.143 162.1255
77.886333 99.113 162.0420
78.450730 99.081 161.9727
79.019216 99.048 161.9184
79.591822 99.014 161.8785
80.168577 98.980 161.8522
80.749512 98.945 161.8375
81.334656 98.910 161.8324
81.924040 98.876 161.8351
82.517696 98.842 161.8438
83.115653 98.809 161.8566
83.717943 98.778 161.8718
84.324598 98.749 161.8869
84.935649 98.722 161.8996
85.551128 98.698 161.9073
86.171066 98.675 161.9078
86.795497 98.655 161.8993
87.424453 98.637 161.8802
88.057967 98.621 161.8492
88.696071 98.606 161.8051
89.338800 98.592 161.7464
89.986185 98.580 161.6721
90.638262 98.569 161.5817
91.295065 98.559 161.4750
91.956626 98.551 161.3530
92.622982 98.544 161.2170
93.294166 98.539 161.0692
93.970214 98.535 160.9120
94.651161 98.531 160.7480
95.337042 98.529 160.5795
96.027894 98.526 160.4081
96.723752 98.524 160.2345
97.424652 98.522 160.0587
98.130631 98.519 159.8796
98.841726 98.516 159.6959
99.557974 98.512 159.5058
100.279412 98.508 159.3076
101.006078 98.504 159.1000
101.738010 98.499 158.8817
102.475245 98.495 158.6520
103.217823 98.490 158.4103
103.965782 98.485 158.1561
104.719161 98.479 157.8889
105.477999 98.473 157.6086
106.242336 98.467 157.3152
107.012212 98.459 157.0091
107.787666 98.450 156.6914
108.568740 98.440 156.3635
109.355474 98.428 156.0271
110.147909 98.414 155.6841
110.946086 98.398 155.3369
111.750047 98.380 154.9879
112.559834 98.359 154.6399
113.375489 98.336 154.2955
114.197055 98.310 153.9572
115.024574 98.281 153.6273
115.858089 98.250 153.3074
116.697645 98.216 152.9991
117.543284 98.179 152.7034
118.395051 98.139 152.4209
119.252990 98.096 152.1523
120.117147 98.051 151.8985
120.987565 98.003 151.6602
121.864291 97.952 151.4386
122.747370 97.899 151.2349
123.636848 97.843 151.0499
124.532771 97.785 150.8847
125.435187 97.725 150.7396
126.344142 97.663 150.6151
127.259684 97.600 150.5114
128.181860 97.536 150.4286
129.110718 97.471 150.3668
130.046308 97.406 150.3253
130.988677 97.342 150.3034
131.937875 97.279 150.3001
132.893951 97.217 150.3138
133.856956 97.157 150.3431
134.826938 97.099 150.3861
135.803950 97.043 150.4411
136.788041 96.991 150.5063
137.779264 96.941 150.5796
138.777669 96.895 150.6587
139.783309 96.851 150.7411
140.796237 96.809 150.8241
141.816504 96.770 150.9051
142.844165 96.733 150.9817
143.879273 96.696 151.0520
144.921881 96.661 151.1147
145.972045 96.625 151.1694
147.029819 96.590 151.2159
148.095257 96.555 151.2550
149.168417 96.520 151.2876
150.249353 96.485 151.3147
151.338121 96.450 151.3373
152.434780 96.414 151.3563
153.539385 96.379 151.3721
154.651995 96.344 151.3851
155.772667 96.310 151.3951
156.901460 96.275 151.4022
158.038432 96.242 151.4062
159.183644 96.209 151.4073
160.337154 96.176 151.4055
161.499023 96.144 151.4012
162.669312 96.113 151.3950
163.848081 96.082 151.3873
165.035392 96.052 151.3786
166.231306 96.023 151.3693
167.435887 95.995 151.3591
168.649196 95.967 151.3479
169.871298 95.939 151.3355
171.102255 95.912 151.3216
172.342133 95.885 151.3062
173.590995 95.858 151.2893
174.848907 95.831 151.2714
176.115934 95.803 151.2525
177.392143 95.774 151.2329
178.677599 95.744 151.2123
179.972371 95.713 151.1904
181.276525 95.681 151.1669
182.590129 95.647 151.1415
183.913252 95.612 151.1143
185.245964 95.576 151.0854
186.588332 95.538 151.0550
187.940428 95.500 151.0236
189.302322 95.460 150.9917
190.674085 95.419 150.9601
192.055788 95.377 150.9295
193.447503 95.333 150.9006
194.849303 95.288 150.8744
196.261262 95.241 150.8521
197.683452 95.193 150.8352
199.115948 95.144 150.8255
200.558824 95.093 150.8244
202.012156 95.041 150.8332
203.476019 94.988 150.8527
204.950490 94.934 150.8831
206.435646 94.880 150.9244
207.931564 94.825 150.9769
209.438322 94.770 151.0409
210.955998 94.715 151.1167
212.484672 94.661 151.2048
214.024424 94.608 151.3055
215.575333 94.556 151.4187
217.137481 94.505 151.5441
218.710948 94.457 151.6812
220.295818 94.411 151.8288
221.892172 94.367 151.9857
223.500094 94.326 152.1498
225.119668 94.289 152.3191
226.750978 94.254 152.4911
228.394109 94.223 152.6638
230.049147 94.195 152.8348
231.716178 94.169 153.0027
233.395289 94.146 153.1663
235.086567 94.125 153.3250
236.790102 94.106 153.4791
238.505980 94.088 153.6289
240.234293 94.071 153.7755
241.975130 94.055 153.9197
243.728581 94.039 154.0626
245.494739 94.023 154.2051
247.273695 94.008 154.3483
249.065542 93.992 154.4931
250.870374 93.976 154.6407
252.688284 93.960 154.7924
254.519367 93.943 154.9493
256.363720 93.925 155.1132
258.221437 93.906 155.2859
260.092616 93.887 155.4695
261.977354 93.868 155.6662
263.875750 93.849 155.8784
265.787903 93.830 156.1080
267.713911 93.812 156.3566
269.653877 93.797 156.6249
271.607900 93.784 156.9122
273.576083 93.774 157.2165
275.558528 93.769 157.5339
277.555338 93.769 157.8592
279.566619 93.774 158.1856
281.592474 93.785 158.5055
283.633009 93.801 158.8109
285.688331 93.822 159.0942
287.758546 93.847 159.3490
289.843763 93.876 159.5707
291.944090 93.906 159.7567
294.059638 93.937 159.9066
296.190515 93.967 160.0222
298.336833 93.997 160.1065
300.498705 94.024 160.1639
302.676243 94.049 160.1996
304.869559 94.070 160.2192
307.078770 94.089 160.2280
309.303989 94.104 160.2316
311.545334 94.116 160.2345
313.802919 94.125 160.2408
316.076865 94.132 160.2539
318.367288 94.138 160.2761
320.674309 94.141 160.3090
322.998047 94.143 160.3534
325.338624 94.144 160.4094
327.696162 94.144 160.4765
330.070783 94.143 160.5539
332.462612 94.142 160.6406
334.871773 94.140 160.7353
337.298392 94.138 160.8370
339.742595 94.135 160.9448
342.204510 94.132 161.0574
344.684265 94.128 161.1743
347.181989 94.123 161.2945
349.697813 94.118 161.4174
352.231868 94.112 161.5428
354.784285 94.105 161.6700
357.355198 94.097 161.7990
359.944741 94.089 161.9296
362.553049 94.080 162.0616
365.180258 94.070 162.1952
367.826505 94.060 162.3303
370.491927 94.049 162.4671
373.176665 94.039 162.6056
375.880856 94.028 162.7457
378.604644 94.018 162.8873
381.348169 94.007 163.0304
384.111575 93.997 163.1749
386.895006 93.987 163.3206
389.698607 93.978 163.4676
392.522524 93.968 163.6157
395.366904 93.959 163.7648
398.231895 93.949 163.9148
401.117648 93.940 164.0655
404.024312 93.931 164.2168
406.952038 93.921 164.3686
409.900981 93.911 164.5209
412.871292 93.900 164.6738
415.863128 93.889 164.8272
418.876643 93.876 164.9813
421.911996 93.863 165.1361
424.969344 93.849 165.2913
428.048847 93.834 165.4469
431.150666 93.818 165.6027
434.274961 93.801 165.7585
437.421897 93.783 165.9141
440.591636 93.764 166.0694
443.784345 93.744 166.2244
447.000189 93.723 166.3791
450.239337 93.702 166.5335
453.501956 93.681 166.6877
456.788219 93.659 166.8417
460.098294 93.637 166.9954
463.432356 93.616 167.1486
466.790578 93.596 167.3010
470.173135 93.576 167.4525
473.580203 93.557 167.6028
477.011961 93.540 167.7519
480.468586 93.523 167.8997
483.950259 93.508 168.0460
487.457163 93.494 168.1909
490.989478 93.481 168.3344
494.547390 93.471 168.4763
498.131084 93.461 168.6165
501.740748 93.454 168.7549
505.376568 93.448 168.8913
509.038735 93.445 169.0256
512.727439 93.443 169.1577
516.442874 93.444 169.2875
520.185232 93.447 169.4150
523.954708 93.452 169.5402
527.751500 93.460 169.6628
531.575805 93.470 169.7828
535.427822 93.483 169.9000
539.307753 93.499 170.0139
543.215800 93.517 170.1243
547.152165 93.537 170.2307
551.117055 93.560 170.3329
555.110677 93.585 170.4304
559.133237 93.613 170.5228
563.184947 93.642 170.6099
567.266018 93.673 170.6915
571.376661 93.705 170.7672
575.517092 93.738 170.8369
579.687526 93.772 170.9007
583.888181 93.807 170.9585
588.119275 93.842 171.0105
592.381030 93.876 171.0571
596.673667 93.910 171.0987
600.997410 93.943 171.1357
605.352485 93.975 171.1687
609.739119 94.006 171.1982
614.157540 94.035 171.2246
618.607979 94.063 171.2483
623.090667 94.090 171.2696
627.605839 94.115 171.2886
632.153730 94.138 171.3055
636.734576 94.160 171.3201
641.348617 94.180 171.3323
645.996094 94.199 171.3417
650.677248 94.216 171.3483
655.392323 94.233 171.3514
660.141566 94.247 171.3510
664.925224 94.261 171.3465
669.743546 94.273 171.3380
674.596784 94.284 171.3252
679.485191 94.293 171.3084
684.409020 94.301 171.2878
689.368530 94.308 171.2638
694.363979 94.313 171.2367
699.395626 94.316 171.2069
704.463736 94.318 171.1747
709.568570 94.319 171.1404
714.710396 94.318 171.1041
719.889483 94.315 171.0659
725.106099 94.311 171.0255
730.360516 94.305 170.9829
735.653010 94.298 170.9379
740.983855 94.289 170.8902
746.353329 94.279 170.8394
751.761713 94.266 170.7850
757.209288 94.252 170.7269
762.696339 94.237 170.6645
768.223151 94.220 170.5975
773.790013 94.201 170.5255
779.397214 94.181 170.4484
785.045047 94.158 170.3658
790.733808 94.135 170.2778
796.463791 94.110 170.1841
802.235296 94.083 170.0851
808.048623 94.054 169.9810
813.904077 94.024 169.8726
819.801961 93.992 169.7609
825.742584 93.958 169.6475
831.726255 93.922 169.5347
837.753287 93.883 169.4252
843.823992 93.842 169.3226
849.938689 93.799 169.2308
856.097695 93.753 169.1549
862.301332 93.704 169.0999
868.549922 93.654 169.0716
874.843793 93.602 169.0755
881.183272 93.549 169.1168
887.568689 93.497 169.1996
894.000378 93.446 169.3266
900.478673 93.398 169.4982
907.003913 93.355 169.7120
913.576437 93.318 169.9630
920.196588 93.288 170.2434
926.864712 93.267 170.5432
933.581156 93.255 170.8510
940.346270 93.253 171.1552
947.160407 93.259 171.4455
954.023921 93.273 171.7133
960.937172 93.294 171.9526
967.900519 93.320 172.1604
974.914325 93.351 172.3360
981.978956 93.386 172.4812
989.094780 93.423 172.5991
996.262169 93.462 172.6937
1003.481495 93.503 172.7694
1010.753136 93.545 172.8304
1018.077470 93.588 172.8805
1025.454879 93.632 172.9227
1032.885748 93.678 172.9596
1040.370463 93.725 172.9930
1047.909417 93.774 173.0241
1055.503000 93.824 173.0538
1063.151610 93.876 173.0823
1070.855645 93.930 173.1094
1078.615506 93.986 173.1343
1086.431599 94.044 173.1559
1094.304330 94.104 173.1722
1102.234110 94.166 173.1812
1110.221353 94.229 173.1802
1118.266475 94.294 173.1667
1126.369895 94.360 173.1385
1134.532035 94.426 173.0936
1142.753322 94.492 173.0309
1151.034184 94.558 172.9498
1159.375052 94.623 172.8507
1167.776361 94.686 172.7345
1176.238550 94.748 172.6027
1184.762060 94.807 172.4572
1193.347334 94.865 172.3000
1201.994821 94.920 172.1335
1210.704971 94.972 171.9597
1219.478238 95.023 171.7806
1228.315080 95.072 171.5980
1237.215957 95.119 171.4135
1246.181334 95.164 171.2285
1255.211678 95.208 171.0441
1264.307459 95.250 170.8612
1273.469152 95.291 170.6805
1282.697235 95.331 170.5026
1291.992188 95.370 170.3279
1301.354495 95.408 170.1567
1310.784647 95.446 169.9893
1320.283132 95.482 169.8258
1329.850448 95.518 169.6664
1339.487093 95.554 169.5109
1349.193569 95.589 169.3592
1358.970381 95.624 169.2110
1368.818041 95.659 169.0660
1378.737061 95.695 168.9236
1388.727958 95.731 168.7834
1398.791253 95.767 168.6449
1408.927471 95.805 168.5075
1419.137140 95.843 168.3708
1429.420793 95.882 168.2347
1439.778965 95.922 168.0990
1450.212197 95.962 167.9641
1460.721033 96.003 167.8304
1471.306019 96.045 167.6988
1481.967709 96.086 167.5702
1492.706658 96.128 167.4457
1503.523426 96.170 167.3264
1514.418576 96.211 167.2134
1525.392678 96.251 167.1071
1536.446302 96.290 167.0081
1547.580025 96.328 166.9164
1558.794428 96.365 166.8315
1570.090095 96.399 166.7530
1581.467615 96.432 166.6803
1592.927581 96.462 166.6127
1604.470591 96.490 166.5496
1616.097246 96.514 166.4903
1627.808153 96.536 166.4346
1639.603922 96.554 166.3819
1651.485168 96.569 166.3322
1663.452510 96.581 166.2852
1675.506573 96.590 166.2412
1687.647984 96.596 166.2002
1699.877377 96.598 166.1626
1712.195390 96.598 166.1290
1724.602663 96.596 166.0998
1737.099845 96.592 166.0756
1749.687587 96.585 166.0567
1762.366544 96.578 166.0434
1775.137379 96.569 166.0358
1788.000756 96.559 166.0333
1800.957346 96.549 166.0350
1814.007826 96.539 166.0389
1827.152874 96.529 166.0424
1840.393177 96.519 166.0416
1853.729425 96.509 166.0327
1867.162312 96.498 166.0118
1880.692540 96.486 165.9761
1894.320813 96.471 165.9240
1908.047843 96.454 165.8554
1921.874344 96.434 165.7712
1935.801038 96.409 165.6735
1949.828650 96.379 165.5651
1963.957912 96.344 165.4492
1978.189561 96.304 165.3291
1992.524338 96.259 165.2078
2006.962991 96.209 165.0878
2021.506272 96.154 164.9715
2036.154940 96.096 164.8602
2050.909758 96.033 164.7546
2065.771495 95.967 164.6550
2080.740927 95.899 164.5610
2095.818833 95.829 164.4716
2111.006001 95.757 164.3859
2126.303220 95.684 164.3023
2141.711290 95.610 164.2198
2157.231013 95.535 164.1373
2172.863198 95.459 164.0538
2188.608660 95.383 163.9690
2204.468221 95.306 163.8829
2220.442706 95.228 163.7961
2236.532950 95.148 163.7097
2252.739789 95.067 163.6255
2269.064070 94.985 163.5459
2285.506644 94.901 163.4739
2302.068367 94.815 163.4131
2318.750104 94.728 163.3676
2335.552723 94.639 163.3416
2352.477101 94.549 163.3398
2369.524119 94.459 163.3663
2386.694668 94.369 163.4254
2403.989641 94.281 163.5202
2421.409941 94.194 163.6531
2438.956476 94.112 163.8252
2456.630160 94.035 164.0361
2474.431915 93.964 164.2836
2492.362668 93.900 164.5642
2510.423356 93.846 164.8724
2528.614918 93.802 165.2015
2546.938304 93.768 165.5433
2565.394469 93.746 165.8891
2583.984375 93.736 166.2295
2602.708991 93.737 166.5553
2621.569293 93.748 166.8578
2640.566265 93.769 167.1290
2659.700897 93.800 167.3623
2678.974186 93.837 167.5524
2698.387137 93.881 167.6956
2717.940763 93.929 167.7898
2737.636082 93.981 167.8344
2757.474121 94.033 167.8303
2777.455915 94.086 167.7795
2797.582506 94.138 167.6851
2817.854942 94.187 167.5509
2838.274281 94.232 167.3813
2858.841586 94.274 167.1812
2879.557931 94.310 166.9556
2900.424394 94.340 166.7096
2921.442065 94.363 166.4484
2942.612039 94.380 166.1774
2963.935418 94.388 165.9016
2985.413316 94.388 165.6262
3007.046852 94.380 165.3562
3028.837153 94.362 165.0964
3050.785356 94.334 164.8519
3072.892604 94.296 164.6286
3095.160050 94.247 164.4335
3117.588856 94.186 164.2762
3140.180190 94.112 164.1680
3162.935230 94.027 164.1222
3185.855163 93.931 164.1513
3208.941182 93.826 164.2654
3232.194493 93.714 164.4696
3255.616307 93.598 164.7624
3279.207844 93.480 165.1356
3302.970336 93.362 165.5749
3326.905021 93.247 166.0620
3351.013146 93.135 166.5768
3375.295969 93.025 167.1005
3399.754755 92.918 167.6171
3424.390779 92.811 168.1155
3449.205326 92.703 168.5898
3474.199690 92.592 169.0397
3499.375173 92.477 169.4703
3524.733088 92.356 169.8914
3550.274757 92.227 170.3172
3576.001511 92.090 170.7651
3601.914692 91.944 171.2559
