* Measurement data measured by REW V5.31.3
* Source: EXCL: Headset (USB-C to 3.5mm Headphone Jack Adapter), MICROPHONE (Master Volume), 0, volume: 0.750
* Format: 256k Log Swept Sine, 1 sweep at -12.0 dBFS with no timing reference
* Dated: Apr 1, 2025 10:38:52 PM
* REW Settings:
*  C-weighting compensation: Off
*  Target level: 75.0 dB
* Note: ; 
* Measurement: K361 R8
* Smoothing: 1/6 octave
* Frequency Step: 96 ppo
* Start Frequency: 20.0 Hz
*
* Freq(Hz) SPL(dB) Phase(degrees)
20.187378 89.967 -98.4726
20.333664 90.009 -98.5872
20.481010 90.064 -98.7444
20.629424 90.131 -98.9444
20.778913 90.209 -99.1877
20.929486 90.295 -99.4749
21.081150 90.388 -99.8063
21.233912 90.485 -100.1821
21.387782 90.586 -100.6016
21.542767 90.689 -101.0632
21.698874 90.793 -101.5640
21.856113 90.897 -102.1000
22.014492 91.000 -102.6654
22.174018 91.101 -103.2535
22.334700 91.200 -103.8563
22.496546 91.297 -104.4653
22.659566 91.389 -105.0720
22.823766 91.479 -105.6684
22.989157 91.564 -106.2475
23.155745 91.645 -106.8041
23.323542 91.721 -107.3350
23.492554 91.793 -107.8393
23.662790 91.859 -108.3184
23.834261 91.920 -108.7754
24.006973 91.974 -109.2150
24.180938 92.022 -109.6430
24.356163 92.062 -110.0649
24.532658 92.095 -110.4864
24.710431 92.120 -110.9120
24.889493 92.138 -111.3452
25.069853 92.149 -111.7883
25.251519 92.154 -112.2428
25.434502 92.155 -112.7094
25.618811 92.152 -113.1883
25.804456 92.148 -113.6797
25.991445 92.145 -114.1840
26.179790 92.145 -114.7018
26.369500 92.148 -115.2336
26.560584 92.157 -115.7799
26.753053 92.172 -116.3405
26.946917 92.192 -116.9146
27.142185 92.217 -117.5002
27.338869 92.247 -118.0946
27.536977 92.281 -118.6942
27.736522 92.316 -119.2951
27.937512 92.353 -119.8936
28.139959 92.390 -120.4866
28.343872 92.427 -121.0721
28.549264 92.462 -121.6495
28.756143 92.496 -122.2191
28.964522 92.528 -122.7827
29.174411 92.558 -123.3423
29.385821 92.586 -123.9003
29.598763 92.613 -124.4591
29.813248 92.638 -125.0201
30.029287 92.663 -125.5844
30.246891 92.688 -126.1524
30.466073 92.714 -126.7238
30.686842 92.742 -127.2985
30.909212 92.772 -127.8762
31.133193 92.806 -128.4568
31.358797 92.843 -129.0406
31.586035 92.885 -129.6274
31.814921 92.931 -130.2170
32.045465 92.981 -130.8086
32.277680 93.035 -131.4003
32.511577 93.092 -131.9894
32.747169 93.152 -132.5724
32.984469 93.213 -133.1451
33.223488 93.277 -133.7035
33.464239 93.341 -134.2439
33.706735 93.408 -134.7638
33.950987 93.476 -135.2619
34.197010 93.546 -135.7384
34.444816 93.617 -136.1951
34.694417 93.691 -136.6345
34.945827 93.765 -137.0601
35.199059 93.841 -137.4755
35.454126 93.918 -137.8840
35.711041 93.995 -138.2889
35.969818 94.072 -138.6931
36.230470 94.148 -139.0998
36.493011 94.223 -139.5125
36.757455 94.297 -139.9351
37.023814 94.368 -140.3721
37.292104 94.436 -140.8280
37.562338 94.499 -141.3067
37.834530 94.558 -141.8111
38.108695 94.610 -142.3418
38.384846 94.656 -142.8975
38.662999 94.696 -143.4744
38.943167 94.729 -144.0668
39.225365 94.757 -144.6676
39.509608 94.780 -145.2692
39.795911 94.799 -145.8645
40.084289 94.816 -146.4476
40.374756 94.831 -147.0141
40.667328 94.846 -147.5618
40.962020 94.861 -148.0906
41.258848 94.875 -148.6022
41.557827 94.889 -149.0994
41.858972 94.902 -149.5860
42.162299 94.912 -150.0656
42.467824 94.921 -150.5417
42.775564 94.927 -151.0164
43.085533 94.930 -151.4910
43.397749 94.930 -151.9658
43.712227 94.927 -152.4397
44.028983 94.921 -152.9110
44.348036 94.913 -153.3773
44.669400 94.903 -153.8359
44.993093 94.890 -154.2841
45.319131 94.875 -154.7196
45.647532 94.858 -155.1410
45.978313 94.840 -155.5476
46.311491 94.821 -155.9392
46.647083 94.800 -156.3160
46.985107 94.780 -156.6783
47.325581 94.759 -157.0260
47.668521 94.737 -157.3590
48.013947 94.717 -157.6776
48.361876 94.696 -157.9826
48.712326 94.675 -158.2760
49.065315 94.654 -158.5605
49.420863 94.631 -158.8387
49.778987 94.608 -159.1131
50.139706 94.582 -159.3851
50.503039 94.555 -159.6551
50.869005 94.526 -159.9229
51.237623 94.496 -160.1880
51.608912 94.465 -160.4499
51.982891 94.433 -160.7080
52.359580 94.400 -160.9616
52.739000 94.367 -161.2101
53.121168 94.334 -161.4527
53.506106 94.300 -161.6887
53.893833 94.266 -161.9184
54.284370 94.231 -162.1425
54.677737 94.195 -162.3624
55.073955 94.160 -162.5800
55.473043 94.125 -162.7967
55.875024 94.089 -163.0136
56.279917 94.055 -163.2311
56.687745 94.021 -163.4490
57.098527 93.989 -163.6667
57.512287 93.958 -163.8831
57.929045 93.931 -164.0968
58.348822 93.906 -164.3050
58.771642 93.886 -164.5044
59.197525 93.869 -164.6913
59.626495 93.856 -164.8622
60.058573 93.847 -165.0155
60.493782 93.843 -165.1521
60.932145 93.843 -165.2753
61.373685 93.847 -165.3900
61.818424 93.854 -165.5016
62.266386 93.865 -165.6148
62.717593 93.879 -165.7326
63.172071 93.895 -165.8565
63.629842 93.913 -165.9867
64.090930 93.933 -166.1221
64.555359 93.955 -166.2613
65.023154 93.978 -166.4029
65.494339 94.002 -166.5453
65.968938 94.026 -166.6875
66.446976 94.051 -166.8280
66.928478 94.075 -166.9660
67.413469 94.099 -167.1005
67.901975 94.122 -167.2313
68.394021 94.144 -167.3589
68.889632 94.164 -167.4845
69.388835 94.183 -167.6096
69.891655 94.200 -167.7356
70.398118 94.215 -167.8634
70.908252 94.228 -167.9929
71.422083 94.239 -168.1234
71.939636 94.247 -168.2535
72.460941 94.253 -168.3815
72.986023 94.257 -168.5059
73.514909 94.259 -168.6257
74.047629 94.259 -168.7405
74.584208 94.258 -168.8505
75.124676 94.256 -168.9566
75.669061 94.252 -169.0600
76.217390 94.248 -169.1619
76.769692 94.242 -169.2629
77.325997 94.235 -169.3632
77.886333 94.227 -169.4626
78.450730 94.218 -169.5607
79.019216 94.208 -169.6570
79.591822 94.198 -169.7509
80.168577 94.187 -169.8418
80.749512 94.177 -169.9288
81.334656 94.166 -170.0114
81.924040 94.156 -170.0889
82.517696 94.147 -170.1611
83.115653 94.138 -170.2283
83.717943 94.130 -170.2911
84.324598 94.122 -170.3506
84.935649 94.115 -170.4079
85.551128 94.109 -170.4643
86.171066 94.103 -170.5211
86.795497 94.097 -170.5795
87.424453 94.092 -170.6404
88.057967 94.087 -170.7048
88.696071 94.083 -170.7734
89.338800 94.079 -170.8467
89.986185 94.076 -170.9247
90.638262 94.073 -171.0072
91.295065 94.070 -171.0936
91.956626 94.068 -171.1831
92.622982 94.066 -171.2748
93.294166 94.064 -171.3682
93.970214 94.062 -171.4632
94.651161 94.060 -171.5599
95.337042 94.058 -171.6591
96.027894 94.057 -171.7619
96.723752 94.056 -171.8694
97.424652 94.055 -171.9827
98.130631 94.054 -172.1023
98.841726 94.053 -172.2284
99.557974 94.053 -172.3608
100.279412 94.054 -172.4986
101.006078 94.055 -172.6409
101.738010 94.057 -172.7869
102.475245 94.060 -172.9356
103.217823 94.064 -173.0863
103.965782 94.070 -173.2380
104.719161 94.077 -173.3900
105.477999 94.085 -173.5415
106.242336 94.093 -173.6921
107.012212 94.103 -173.8415
107.787666 94.113 -173.9899
108.568740 94.123 -174.1379
109.355474 94.133 -174.2858
110.147909 94.143 -174.4340
110.946086 94.153 -174.5827
111.750047 94.163 -174.7320
112.559834 94.172 -174.8818
113.375489 94.181 -175.0319
114.197055 94.189 -175.1825
115.024574 94.197 -175.3336
115.858089 94.205 -175.4852
116.697645 94.212 -175.6370
117.543284 94.218 -175.7886
118.395051 94.224 -175.9391
119.252990 94.229 -176.0874
120.117147 94.234 -176.2325
120.987565 94.239 -176.3735
121.864291 94.242 -176.5100
122.747370 94.246 -176.6418
123.636848 94.249 -176.7687
124.532771 94.251 -176.8910
125.435187 94.252 -177.0086
126.344142 94.253 -177.1216
127.259684 94.254 -177.2302
128.181860 94.254 -177.3346
129.110718 94.253 -177.4350
130.046308 94.253 -177.5317
130.988677 94.252 -177.6251
131.937875 94.251 -177.7160
132.893951 94.249 -177.8053
133.856956 94.246 -177.8938
134.826938 94.243 -177.9829
135.803950 94.239 -178.0736
136.788041 94.234 -178.1673
137.779264 94.228 -178.2650
138.777669 94.221 -178.3678
139.783309 94.212 -178.4762
140.796237 94.202 -178.5900
141.816504 94.190 -178.7088
142.844165 94.177 -178.8317
143.879273 94.162 -178.9575
144.921881 94.146 -179.0848
145.972045 94.127 -179.2123
147.029819 94.107 -179.3386
148.095257 94.084 -179.4624
149.168417 94.060 -179.5824
150.249353 94.034 -179.6969
151.338121 94.006 -179.8045
152.434780 93.977 -179.9033
153.539385 93.946 -179.9915
154.651995 93.913 179.9328
155.772667 93.880 179.8716
156.901460 93.846 179.8270
158.038432 93.811 179.8011
159.183644 93.777 179.7954
160.337154 93.743 179.8114
161.499023 93.710 179.8498
162.669312 93.678 179.9106
163.848081 93.649 179.9931
165.035392 93.622 -179.9040
166.231306 93.599 -179.7827
167.435887 93.579 -179.6458
168.649196 93.562 -179.4965
169.871298 93.550 -179.3386
171.102255 93.541 -179.1762
172.342133 93.536 -179.0133
173.590995 93.534 -178.8536
174.848907 93.535 -178.7004
176.115934 93.539 -178.5563
177.392143 93.545 -178.4233
178.677599 93.553 -178.3030
179.972371 93.563 -178.1968
181.276525 93.573 -178.1055
182.590129 93.584 -178.0298
183.913252 93.596 -177.9701
185.245964 93.607 -177.9263
186.588332 93.619 -177.8979
187.940428 93.630 -177.8844
189.302322 93.640 -177.8848
190.674085 93.650 -177.8983
192.055788 93.660 -177.9236
193.447503 93.668 -177.9597
194.849303 93.676 -178.0051
196.261262 93.683 -178.0591
197.683452 93.689 -178.1210
199.115948 93.693 -178.1907
200.558824 93.697 -178.2682
202.012156 93.699 -178.3535
203.476019 93.701 -178.4467
204.950490 93.701 -178.5473
206.435646 93.701 -178.6549
207.931564 93.701 -178.7687
209.438322 93.700 -178.8879
210.955998 93.699 -179.0119
212.484672 93.697 -179.1396
214.024424 93.696 -179.2703
215.575333 93.694 -179.4028
217.137481 93.693 -179.5360
218.710948 93.691 -179.6687
220.295818 93.690 -179.8000
221.892172 93.688 -179.9290
223.500094 93.686 179.9451
225.119668 93.684 179.8225
226.750978 93.682 179.7039
228.394109 93.679 179.5896
230.049147 93.677 179.4802
231.716178 93.674 179.3763
233.395289 93.671 179.2783
235.086567 93.668 179.1866
236.790102 93.665 179.1016
238.505980 93.663 179.0234
240.234293 93.661 178.9523
241.975130 93.660 178.8884
243.728581 93.660 178.8320
245.494739 93.661 178.7831
247.273695 93.663 178.7418
249.065542 93.666 178.7073
250.870374 93.670 178.6789
252.688284 93.676 178.6552
254.519367 93.682 178.6348
256.363720 93.689 178.6167
258.221437 93.696 178.6000
260.092616 93.704 178.5843
261.977354 93.711 178.5697
263.875750 93.719 178.5569
265.787903 93.726 178.5464
267.713911 93.734 178.5389
269.653877 93.741 178.5347
271.607900 93.749 178.5336
273.576083 93.758 178.5354
275.558528 93.768 178.5392
277.555338 93.778 178.5439
279.566619 93.791 178.5481
281.592474 93.804 178.5502
283.633009 93.819 178.5490
285.688331 93.835 178.5434
287.758546 93.852 178.5329
289.843763 93.871 178.5172
291.944090 93.890 178.4965
294.059638 93.910 178.4713
296.190515 93.930 178.4421
298.336833 93.951 178.4101
300.498705 93.973 178.3759
302.676243 93.994 178.3406
304.869559 94.016 178.3051
307.078770 94.038 178.2698
309.303989 94.060 178.2354
311.545334 94.082 178.2021
313.802919 94.103 178.1700
316.076865 94.125 178.1391
318.367288 94.146 178.1089
320.674309 94.167 178.0792
322.998047 94.188 178.0497
325.338624 94.208 178.0201
327.696162 94.228 177.9901
330.070783 94.247 177.9597
332.462612 94.265 177.9287
334.871773 94.283 177.8970
337.298392 94.299 177.8644
339.742595 94.315 177.8307
342.204510 94.331 177.7953
344.684265 94.345 177.7579
347.181989 94.358 177.7180
349.697813 94.370 177.6753
352.231868 94.382 177.6295
354.784285 94.392 177.5804
357.355198 94.400 177.5282
359.944741 94.408 177.4732
362.553049 94.414 177.4158
365.180258 94.419 177.3566
367.826505 94.423 177.2961
370.491927 94.426 177.2351
373.176665 94.428 177.1740
375.880856 94.429 177.1133
378.604644 94.429 177.0534
381.348169 94.429 176.9944
384.111575 94.428 176.9365
386.895006 94.426 176.8798
389.698607 94.424 176.8244
392.522524 94.421 176.7701
395.366904 94.417 176.7171
398.231895 94.413 176.6652
401.117648 94.407 176.6145
404.024312 94.401 176.5651
406.952038 94.394 176.5169
409.900981 94.385 176.4703
412.871292 94.375 176.4254
415.863128 94.364 176.3824
418.876643 94.351 176.3415
421.911996 94.336 176.3026
424.969344 94.320 176.2657
428.048847 94.302 176.2310
431.150666 94.282 176.1984
434.274961 94.261 176.1680
437.421897 94.238 176.1397
440.591636 94.214 176.1136
443.784345 94.189 176.0895
447.000189 94.162 176.0676
450.239337 94.135 176.0479
453.501956 94.107 176.0303
456.788219 94.079 176.0148
460.098294 94.051 176.0015
463.432356 94.023 175.9903
466.790578 93.995 175.9810
470.173135 93.967 175.9737
473.580203 93.940 175.9683
477.011961 93.914 175.9646
480.468586 93.889 175.9626
483.950259 93.865 175.9622
487.457163 93.842 175.9633
490.989478 93.820 175.9659
494.547390 93.799 175.9701
498.131084 93.780 175.9757
501.740748 93.762 175.9827
505.376568 93.746 175.9911
509.038735 93.731 176.0007
512.727439 93.719 176.0117
516.442874 93.708 176.0237
520.185232 93.699 176.0370
523.954708 93.692 176.0513
527.751500 93.687 176.0667
531.575805 93.684 176.0830
535.427822 93.683 176.1003
539.307753 93.685 176.1185
543.215800 93.689 176.1375
547.152165 93.695 176.1574
551.117055 93.703 176.1780
555.110677 93.714 176.1992
559.133237 93.726 176.2209
563.184947 93.740 176.2429
567.266018 93.756 176.2652
571.376661 93.773 176.2876
575.517092 93.791 176.3100
579.687526 93.810 176.3324
583.888181 93.829 176.3548
588.119275 93.850 176.3772
592.381030 93.870 176.3994
596.673667 93.890 176.4217
600.997410 93.910 176.4440
605.352485 93.929 176.4666
609.739119 93.948 176.4896
614.157540 93.966 176.5132
618.607979 93.982 176.5381
623.090667 93.998 176.5645
627.605839 94.012 176.5931
632.153730 94.024 176.6243
636.734576 94.036 176.6589
641.348617 94.046 176.6974
645.996094 94.055 176.7402
650.677248 94.064 176.7878
655.392323 94.071 176.8404
660.141566 94.078 176.8978
664.925224 94.085 176.9597
669.743546 94.092 177.0255
674.596784 94.099 177.0941
679.485191 94.107 177.1642
684.409020 94.116 177.2343
689.368530 94.125 177.3024
694.363979 94.135 177.3665
699.395626 94.145 177.4244
704.463736 94.157 177.4742
709.568570 94.169 177.5140
714.710396 94.181 177.5422
719.889483 94.193 177.5578
725.106099 94.204 177.5599
730.360516 94.215 177.5485
735.653010 94.225 177.5233
740.983855 94.233 177.4849
746.353329 94.240 177.4338
751.761713 94.245 177.3706
757.209288 94.248 177.2962
762.696339 94.249 177.2114
768.223151 94.248 177.1171
773.790013 94.245 177.0141
779.397214 94.240 176.9033
785.045047 94.233 176.7857
790.733808 94.225 176.6621
796.463791 94.214 176.5333
802.235296 94.203 176.4000
808.048623 94.190 176.2631
813.904077 94.176 176.1232
819.801961 94.162 175.9809
825.742584 94.147 175.8368
831.726255 94.132 175.6913
837.753287 94.117 175.5448
843.823992 94.101 175.3975
849.938689 94.086 175.2495
856.097695 94.071 175.1008
862.301332 94.056 174.9517
868.549922 94.042 174.8020
874.843793 94.028 174.6517
881.183272 94.014 174.5006
887.568689 94.000 174.3486
894.000378 93.988 174.1954
900.478673 93.975 174.0406
907.003913 93.964 173.8839
913.576437 93.953 173.7246
920.196588 93.943 173.5623
926.864712 93.934 173.3964
933.581156 93.925 173.2261
940.346270 93.918 173.0510
947.160407 93.911 172.8704
954.023921 93.905 172.6837
960.937172 93.900 172.4905
967.900519 93.895 172.2905
974.914325 93.890 172.0837
981.978956 93.885 171.8704
989.094780 93.879 171.6512
996.262169 93.873 171.4276
1003.481495 93.864 171.2016
1010.753136 93.854 170.9760
1018.077470 93.841 170.7551
1025.454879 93.824 170.5442
1032.885748 93.804 170.3504
1040.370463 93.780 170.1822
1047.909417 93.752 170.0499
1055.503000 93.720 169.9652
1063.151610 93.684 169.9411
1070.855645 93.647 169.9908
1078.615506 93.610 170.1270
1086.431599 93.575 170.3604
1094.304330 93.546 170.6976
1102.234110 93.526 171.1391
1110.221353 93.519 171.6773
1118.266475 93.529 172.2952
1126.369895 93.558 172.9667
1134.532035 93.608 173.6581
1142.753322 93.679 174.3321
1151.034184 93.769 174.9523
1159.375052 93.875 175.4880
1167.776361 93.993 175.9172
1176.238550 94.118 176.2282
1184.762060 94.247 176.4191
1193.347334 94.374 176.4960
1201.994821 94.499 176.4704
1210.704971 94.618 176.3571
1219.478238 94.730 176.1716
1228.315080 94.834 175.9294
1237.215957 94.932 175.6443
1246.181334 95.021 175.3282
1255.211678 95.105 174.9912
1264.307459 95.181 174.6412
1273.469152 95.252 174.2844
1282.697235 95.319 173.9255
1291.992188 95.380 173.5680
1301.354495 95.438 173.2141
1310.784647 95.492 172.8654
1320.283132 95.543 172.5227
1329.850448 95.592 172.1866
1339.487093 95.638 171.8573
1349.193569 95.682 171.5347
1358.970381 95.725 171.2187
1368.818041 95.766 170.9090
1378.737061 95.806 170.6055
1388.727958 95.845 170.3079
1398.791253 95.884 170.0158
1408.927471 95.922 169.7291
1419.137140 95.961 169.4475
1429.420793 95.999 169.1707
1439.778965 96.039 168.8984
1450.212197 96.078 168.6305
1460.721033 96.119 168.3667
1471.306019 96.160 168.1069
1481.967709 96.202 167.8510
1492.706658 96.244 167.5987
1503.523426 96.286 167.3498
1514.418576 96.327 167.1042
1525.392678 96.369 166.8613
1536.446302 96.408 166.6210
1547.580025 96.447 166.3826
1558.794428 96.483 166.1454
1570.090095 96.517 165.9091
1581.467615 96.548 165.6727
1592.927581 96.575 165.4359
1604.470591 96.599 165.1983
1616.097246 96.618 164.9597
1627.808153 96.633 164.7203
1639.603922 96.643 164.4810
1651.485168 96.648 164.2428
1663.452510 96.648 164.0073
1675.506573 96.643 163.7766
1687.647984 96.632 163.5529
1699.877377 96.617 163.3389
1712.195390 96.598 163.1370
1724.602663 96.574 162.9497
1737.099845 96.548 162.7788
1749.687587 96.518 162.6258
1762.366544 96.486 162.4911
1775.137379 96.453 162.3743
1788.000756 96.419 162.2735
1800.957346 96.385 162.1857
1814.007826 96.352 162.1068
1827.152874 96.319 162.0312
1840.393177 96.287 161.9532
1853.729425 96.255 161.8672
1867.162312 96.222 161.7689
1880.692540 96.188 161.6553
1894.320813 96.151 161.5258
1908.047843 96.111 161.3813
1921.874344 96.067 161.2241
1935.801038 96.017 161.0573
1949.828650 95.963 160.8847
1963.957912 95.903 160.7097
1978.189561 95.837 160.5359
1992.524338 95.765 160.3663
2006.962991 95.688 160.2032
2021.506272 95.606 160.0488
2036.154940 95.519 159.9045
2050.909758 95.428 159.7718
2065.771495 95.333 159.6514
2080.740927 95.234 159.5444
2095.818833 95.132 159.4514
2111.006001 95.027 159.3734
2126.303220 94.920 159.3112
2141.711290 94.811 159.2658
2157.231013 94.700 159.2383
2172.863198 94.588 159.2299
2188.608660 94.475 159.2419
2204.468221 94.362 159.2759
2220.442706 94.248 159.3334
2236.532950 94.134 159.4161
2252.739789 94.020 159.5257
2269.064070 93.908 159.6638
2285.506644 93.796 159.8322
2302.068367 93.687 160.0321
2318.750104 93.580 160.2650
2335.552723 93.476 160.5314
2352.477101 93.376 160.8318
2369.524119 93.282 161.1656
2386.694668 93.194 161.5312
2403.989641 93.113 161.9261
2421.409941 93.040 162.3463
2438.956476 92.978 162.7862
2456.630160 92.926 163.2387
2474.431915 92.885 163.6954
2492.362668 92.856 164.1467
2510.423356 92.840 164.5822
2528.614918 92.835 164.9916
2546.938304 92.842 165.3649
2565.394469 92.859 165.6936
2583.984375 92.885 165.9708
2602.708991 92.919 166.1917
2621.569293 92.959 166.3540
2640.566265 93.004 166.4574
2659.700897 93.051 166.5037
2678.974186 93.100 166.4959
2698.387137 93.149 166.4385
2717.940763 93.197 166.3363
2737.636082 93.243 166.1945
2757.474121 93.287 166.0180
2777.455915 93.327 165.8119
2797.582506 93.364 165.5806
2817.854942 93.397 165.3283
2838.274281 93.426 165.0587
2858.841586 93.449 164.7753
2879.557931 93.467 164.4812
2900.424394 93.479 164.1798
2921.442065 93.484 163.8745
2942.612039 93.482 163.5695
2963.935418 93.472 163.2695
2985.413316 93.452 162.9803
3007.046852 93.423 162.7094
3028.837153 93.383 162.4650
3050.785356 93.332 162.2573
3072.892604 93.271 162.0971
3095.160050 93.198 161.9957
3117.588856 93.115 161.9637
3140.180190 93.024 162.0102
3162.935230 92.925 162.1414
3185.855163 92.820 162.3598
3208.941182 92.712 162.6632
3232.194493 92.602 163.0451
3255.616307 92.492 163.4949
3279.207844 92.384 163.9987
3302.970336 92.278 164.5412
3326.905021 92.173 165.1071
3351.013146 92.071 165.6825
3375.295969 91.969 166.2568
3399.754755 91.867 166.8229
3424.390779 91.764 167.3778
