* Measurement data measured by REW V5.31.3
* Source: EXCL: Headset (USB-C to 3.5mm Headphone Jack Adapter), MICROPHONE (Master Volume), 0, volume: 0.750
* Format: 256k Log Swept Sine, 1 sweep at -12.0 dBFS with no timing reference
* Dated: Apr 1, 2025 10:47:11 PM
* REW Settings:
*  C-weighting compensation: Off
*  Target level: 75.0 dB
* Note: ; 
* Measurement: K361 R14
* Smoothing: 1/6 octave
* Frequency Step: 96 ppo
* Start Frequency: 20.0 Hz
*
* Freq(Hz) SPL(dB) Phase(degrees)
20.187378 94.353 -129.5695
20.333664 94.358 -129.7722
20.481010 94.367 -130.0372
20.629424 94.378 -130.3485
20.778913 94.392 -130.6893
20.929486 94.411 -131.0446
21.081150 94.433 -131.4023
21.233912 94.461 -131.7545
21.387782 94.495 -132.0970
21.542767 94.533 -132.4296
21.698874 94.577 -132.7550
21.856113 94.626 -133.0777
22.014492 94.679 -133.4031
22.174018 94.735 -133.7364
22.334700 94.792 -134.0818
22.496546 94.850 -134.4422
22.659566 94.906 -134.8184
22.823766 94.962 -135.2102
22.989157 95.015 -135.6158
23.155745 95.065 -136.0330
23.323542 95.112 -136.4592
23.492554 95.157 -136.8922
23.662790 95.198 -137.3304
23.834261 95.237 -137.7729
24.006973 95.273 -138.2195
24.180938 95.305 -138.6701
24.356163 95.335 -139.1250
24.532658 95.361 -139.5839
24.710431 95.382 -140.0461
24.889493 95.400 -140.5102
25.069853 95.412 -140.9743
25.251519 95.420 -141.4364
25.434502 95.423 -141.8942
25.618811 95.422 -142.3465
25.804456 95.418 -142.7928
25.991445 95.411 -143.2336
26.179790 95.402 -143.6709
26.369500 95.393 -144.1076
26.560584 95.382 -144.5471
26.753053 95.373 -144.9929
26.946917 95.364 -145.4480
27.142185 95.355 -145.9144
27.338869 95.348 -146.3929
27.536977 95.341 -146.8826
27.736522 95.335 -147.3819
27.937512 95.331 -147.8884
28.139959 95.327 -148.3992
28.343872 95.325 -148.9122
28.549264 95.324 -149.4258
28.756143 95.326 -149.9392
28.964522 95.330 -150.4527
29.174411 95.336 -150.9668
29.385821 95.344 -151.4823
29.598763 95.354 -151.9998
29.813248 95.365 -152.5188
30.029287 95.377 -153.0383
30.246891 95.391 -153.5565
30.466073 95.405 -154.0712
30.686842 95.421 -154.5803
30.909212 95.438 -155.0825
31.133193 95.458 -155.5776
31.358797 95.479 -156.0666
31.586035 95.504 -156.5519
31.814921 95.532 -157.0366
32.045465 95.563 -157.5240
32.277680 95.597 -158.0170
32.511577 95.634 -158.5176
32.747169 95.673 -159.0262
32.984469 95.714 -159.5420
33.223488 95.757 -160.0630
33.464239 95.802 -160.5866
33.706735 95.850 -161.1096
33.950987 95.899 -161.6295
34.197010 95.950 -162.1442
34.444816 96.004 -162.6520
34.694417 96.059 -163.1523
34.945827 96.116 -163.6444
35.199059 96.173 -164.1282
35.454126 96.231 -164.6032
35.711041 96.288 -165.0694
35.969818 96.343 -165.5267
36.230470 96.396 -165.9755
36.493011 96.447 -166.4163
36.757455 96.494 -166.8504
37.023814 96.538 -167.2792
37.292104 96.579 -167.7043
37.562338 96.615 -168.1267
37.834530 96.646 -168.5470
38.108695 96.673 -168.9652
38.384846 96.695 -169.3808
38.662999 96.713 -169.7927
38.943167 96.727 -170.2004
39.225365 96.738 -170.6038
39.509608 96.745 -171.0036
39.795911 96.749 -171.4012
40.084289 96.752 -171.7986
40.374756 96.752 -172.1977
40.667328 96.751 -172.5996
40.962020 96.748 -173.0048
41.258848 96.742 -173.4123
41.557827 96.735 -173.8203
41.858972 96.726 -174.2268
42.162299 96.716 -174.6293
42.467824 96.704 -175.0262
42.775564 96.692 -175.4161
43.085533 96.680 -175.7984
43.397749 96.668 -176.1725
43.712227 96.656 -176.5376
44.028983 96.643 -176.8930
44.348036 96.631 -177.2378
44.669400 96.618 -177.5716
44.993093 96.605 -177.8947
45.319131 96.590 -178.2081
45.647532 96.573 -178.5136
45.978313 96.554 -178.8130
46.311491 96.531 -179.1080
46.647083 96.504 -179.3994
46.985107 96.473 -179.6871
47.325581 96.437 -179.9698
47.668521 96.398 179.7539
48.013947 96.355 179.4862
48.361876 96.309 179.2291
48.712326 96.262 178.9844
49.065315 96.213 178.7538
49.420863 96.164 178.5391
49.778987 96.115 178.3420
50.139706 96.067 178.1647
50.503039 96.019 178.0095
50.869005 95.973 177.8785
51.237623 95.927 177.7731
51.608912 95.883 177.6937
51.982891 95.840 177.6388
52.359580 95.798 177.6057
52.739000 95.757 177.5901
53.121168 95.717 177.5869
53.506106 95.677 177.5905
53.893833 95.638 177.5955
54.284370 95.600 177.5969
54.677737 95.563 177.5905
55.073955 95.528 177.5732
55.473043 95.495 177.5431
55.875024 95.464 177.4991
56.279917 95.437 177.4417
56.687745 95.412 177.3721
57.098527 95.390 177.2923
57.512287 95.372 177.2054
57.929045 95.356 177.1151
58.348822 95.344 177.0254
58.771642 95.335 176.9402
59.197525 95.330 176.8633
59.626495 95.329 176.7975
60.058573 95.331 176.7444
60.493782 95.336 176.7038
60.932145 95.345 176.6740
61.373685 95.357 176.6517
61.818424 95.371 176.6328
62.266386 95.388 176.6127
62.717593 95.409 176.5876
63.172071 95.431 176.5543
63.629842 95.457 176.5103
64.090930 95.485 176.4539
64.555359 95.515 176.3842
65.023154 95.547 176.3008
65.494339 95.579 176.2043
65.968938 95.613 176.0958
66.446976 95.646 175.9769
66.928478 95.679 175.8498
67.413469 95.711 175.7169
67.901975 95.742 175.5807
68.394021 95.772 175.4429
68.889632 95.800 175.3048
69.388835 95.827 175.1668
69.891655 95.852 175.0285
70.398118 95.875 174.8888
70.908252 95.896 174.7466
71.422083 95.916 174.6007
71.939636 95.933 174.4500
72.460941 95.948 174.2938
72.986023 95.960 174.1318
73.514909 95.970 173.9643
74.047629 95.977 173.7917
74.584208 95.981 173.6155
75.124676 95.982 173.4371
75.669061 95.980 173.2583
76.217390 95.974 173.0806
76.769692 95.966 172.9052
77.325997 95.956 172.7331
77.886333 95.943 172.5651
78.450730 95.928 172.4016
79.019216 95.912 172.2430
79.591822 95.895 172.0895
80.168577 95.878 171.9410
80.749512 95.861 171.7971
81.334656 95.843 171.6576
81.924040 95.826 171.5217
82.517696 95.810 171.3890
83.115653 95.793 171.2587
83.717943 95.778 171.1305
84.324598 95.763 171.0038
84.935649 95.749 170.8785
85.551128 95.735 170.7539
86.171066 95.722 170.6298
86.795497 95.709 170.5055
87.424453 95.696 170.3806
88.057967 95.683 170.2546
88.696071 95.670 170.1273
89.338800 95.656 169.9984
89.986185 95.643 169.8680
90.638262 95.630 169.7362
91.295065 95.617 169.6031
91.956626 95.604 169.4690
92.622982 95.592 169.3339
93.294166 95.580 169.1980
93.970214 95.568 169.0613
94.651161 95.557 168.9237
95.337042 95.547 168.7850
96.027894 95.538 168.6447
96.723752 95.529 168.5024
97.424652 95.520 168.3575
98.130631 95.511 168.2095
98.841726 95.503 168.0577
99.557974 95.494 167.9016
100.279412 95.486 167.7408
101.006078 95.478 167.5750
101.738010 95.470 167.4041
102.475245 95.463 167.2282
103.217823 95.457 167.0479
103.965782 95.451 166.8636
104.719161 95.446 166.6758
105.477999 95.442 166.4847
106.242336 95.439 166.2909
107.012212 95.437 166.0943
107.787666 95.435 165.8950
108.568740 95.434 165.6932
109.355474 95.432 165.4890
110.147909 95.431 165.2831
110.946086 95.430 165.0758
111.750047 95.428 164.8680
112.559834 95.427 164.6602
113.375489 95.425 164.4536
114.197055 95.422 164.2489
115.024574 95.419 164.0470
115.858089 95.415 163.8483
116.697645 95.411 163.6529
117.543284 95.406 163.4610
118.395051 95.401 163.2723
119.252990 95.395 163.0869
120.117147 95.388 162.9047
120.987565 95.381 162.7256
121.864291 95.373 162.5497
122.747370 95.364 162.3771
123.636848 95.355 162.2076
124.532771 95.344 162.0416
125.435187 95.333 161.8789
126.344142 95.321 161.7199
127.259684 95.308 161.5645
128.181860 95.294 161.4131
129.110718 95.279 161.2660
130.046308 95.263 161.1234
130.988677 95.246 160.9858
131.937875 95.229 160.8534
132.893951 95.211 160.7266
133.856956 95.193 160.6058
134.826938 95.175 160.4913
135.803950 95.156 160.3835
136.788041 95.136 160.2822
137.779264 95.116 160.1870
138.777669 95.095 160.0967
139.783309 95.073 160.0101
140.796237 95.051 159.9255
141.816504 95.028 159.8414
142.844165 95.004 159.7568
143.879273 94.978 159.6711
144.921881 94.952 159.5840
145.972045 94.925 159.4958
147.029819 94.896 159.4075
148.095257 94.866 159.3199
149.168417 94.835 159.2344
150.249353 94.802 159.1523
151.338121 94.768 159.0753
152.434780 94.732 159.0051
153.539385 94.695 158.9436
154.651995 94.657 158.8928
155.772667 94.618 158.8550
156.901460 94.579 158.8319
158.038432 94.540 158.8255
159.183644 94.502 158.8369
160.337154 94.464 158.8669
161.499023 94.428 158.9154
162.669312 94.393 158.9818
163.848081 94.360 159.0646
165.035392 94.331 159.1621
166.231306 94.304 159.2721
167.435887 94.280 159.3920
168.649196 94.260 159.5197
169.871298 94.244 159.6523
171.102255 94.232 159.7870
172.342133 94.224 159.9209
173.590995 94.219 160.0504
174.848907 94.217 160.1721
176.115934 94.218 160.2827
177.392143 94.221 160.3793
178.677599 94.226 160.4592
179.972371 94.233 160.5207
181.276525 94.240 160.5623
182.590129 94.248 160.5836
183.913252 94.255 160.5844
185.245964 94.262 160.5652
186.588332 94.268 160.5271
187.940428 94.273 160.4711
189.302322 94.277 160.3989
190.674085 94.280 160.3122
192.055788 94.281 160.2130
193.447503 94.282 160.1030
194.849303 94.281 159.9844
196.261262 94.279 159.8589
197.683452 94.275 159.7281
199.115948 94.271 159.5934
200.558824 94.265 159.4564
202.012156 94.258 159.3187
203.476019 94.249 159.1815
204.950490 94.240 159.0456
206.435646 94.229 158.9117
207.931564 94.218 158.7805
209.438322 94.206 158.6526
210.955998 94.193 158.5283
212.484672 94.180 158.4080
214.024424 94.167 158.2915
215.575333 94.153 158.1786
217.137481 94.139 158.0691
218.710948 94.125 157.9623
220.295818 94.111 157.8582
221.892172 94.096 157.7564
223.500094 94.082 157.6571
225.119668 94.068 157.5607
226.750978 94.055 157.4680
228.394109 94.042 157.3799
230.049147 94.030 157.2977
231.716178 94.019 157.2223
233.395289 94.009 157.1548
235.086567 94.000 157.0958
236.790102 93.992 157.0457
238.505980 93.986 157.0045
240.234293 93.980 156.9715
241.975130 93.976 156.9459
243.728581 93.974 156.9263
245.494739 93.973 156.9116
247.273695 93.973 156.9003
249.065542 93.975 156.8914
250.870374 93.978 156.8839
252.688284 93.982 156.8770
254.519367 93.987 156.8705
256.363720 93.992 156.8643
258.221437 93.998 156.8586
260.092616 94.004 156.8538
261.977354 94.011 156.8505
263.875750 94.017 156.8495
265.787903 94.024 156.8519
267.713911 94.031 156.8581
269.653877 94.038 156.8682
271.607900 94.047 156.8818
273.576083 94.057 156.8976
275.558528 94.068 156.9139
277.555338 94.080 156.9288
279.566619 94.094 156.9402
281.592474 94.109 156.9465
283.633009 94.125 156.9464
285.688331 94.143 156.9390
287.758546 94.162 156.9241
289.843763 94.181 156.9017
291.944090 94.201 156.8723
294.059638 94.221 156.8367
296.190515 94.241 156.7958
298.336833 94.262 156.7508
300.498705 94.283 156.7028
302.676243 94.304 156.6530
304.869559 94.325 156.6022
307.078770 94.346 156.5510
309.303989 94.367 156.4998
311.545334 94.389 156.4487
313.802919 94.410 156.3978
316.076865 94.432 156.3469
318.367288 94.454 156.2956
320.674309 94.476 156.2438
322.998047 94.497 156.1910
325.338624 94.519 156.1370
327.696162 94.540 156.0815
330.070783 94.561 156.0246
332.462612 94.581 155.9662
334.871773 94.601 155.9062
337.298392 94.620 155.8446
339.742595 94.638 155.7814
342.204510 94.655 155.7162
344.684265 94.672 155.6490
347.181989 94.687 155.5793
349.697813 94.701 155.5068
352.231868 94.714 155.4312
354.784285 94.726 155.3525
357.355198 94.737 155.2705
359.944741 94.746 155.1855
362.553049 94.755 155.0976
365.180258 94.763 155.0069
367.826505 94.770 154.9136
370.491927 94.776 154.8181
373.176665 94.782 154.7205
375.880856 94.787 154.6209
378.604644 94.791 154.5196
381.348169 94.795 154.4165
384.111575 94.799 154.3119
386.895006 94.802 154.2056
389.698607 94.804 154.0980
392.522524 94.806 153.9890
395.366904 94.807 153.8788
398.231895 94.807 153.7675
401.117648 94.807 153.6553
404.024312 94.805 153.5424
406.952038 94.803 153.4290
409.900981 94.799 153.3152
412.871292 94.794 153.2014
415.863128 94.788 153.0876
418.876643 94.780 152.9741
421.911996 94.770 152.8612
424.969344 94.759 152.7492
428.048847 94.746 152.6382
431.150666 94.731 152.5286
434.274961 94.715 152.4205
437.421897 94.697 152.3139
440.591636 94.677 152.2088
443.784345 94.656 152.1050
447.000189 94.634 152.0024
450.239337 94.611 151.9006
453.501956 94.587 151.7996
456.788219 94.562 151.6991
460.098294 94.536 151.5992
463.432356 94.511 151.5002
466.790578 94.485 151.4022
470.173135 94.459 151.3054
473.580203 94.434 151.2101
477.011961 94.409 151.1164
480.468586 94.385 151.0244
483.950259 94.361 150.9341
487.457163 94.338 150.8453
490.989478 94.316 150.7582
494.547390 94.295 150.6725
498.131084 94.275 150.5883
501.740748 94.257 150.5057
505.376568 94.239 150.4249
509.038735 94.223 150.3459
512.727439 94.209 150.2690
516.442874 94.197 150.1941
520.185232 94.186 150.1212
523.954708 94.177 150.0503
527.751500 94.170 149.9811
531.575805 94.166 149.9134
535.427822 94.163 149.8470
539.307753 94.164 149.7819
543.215800 94.166 149.7178
547.152165 94.171 149.6544
551.117055 94.179 149.5916
555.110677 94.188 149.5290
559.133237 94.200 149.4664
563.184947 94.214 149.4037
567.266018 94.229 149.3406
571.376661 94.246 149.2773
575.517092 94.264 149.2135
579.687526 94.283 149.1495
583.888181 94.303 149.0852
588.119275 94.323 149.0209
592.381030 94.343 148.9567
596.673667 94.363 148.8926
600.997410 94.383 148.8289
605.352485 94.403 148.7659
609.739119 94.421 148.7038
614.157540 94.439 148.6429
618.607979 94.456 148.5837
623.090667 94.471 148.5265
627.605839 94.486 148.4719
632.153730 94.499 148.4201
636.734576 94.511 148.3716
641.348617 94.522 148.3268
645.996094 94.532 148.2858
650.677248 94.541 148.2487
655.392323 94.550 148.2155
660.141566 94.558 148.1856
664.925224 94.567 148.1584
669.743546 94.576 148.1331
674.596784 94.585 148.1082
679.485191 94.594 148.0822
684.409020 94.604 148.0535
689.368530 94.615 148.0204
694.363979 94.627 147.9811
699.395626 94.639 147.9343
704.463736 94.651 147.8784
709.568570 94.663 147.8123
714.710396 94.675 147.7353
719.889483 94.687 147.6468
725.106099 94.698 147.5464
730.360516 94.707 147.4340
735.653010 94.716 147.3098
740.983855 94.723 147.1741
746.353329 94.729 147.0272
751.761713 94.733 146.8697
757.209288 94.735 146.7021
762.696339 94.735 146.5251
768.223151 94.733 146.3391
773.790013 94.729 146.1449
779.397214 94.724 145.9430
785.045047 94.717 145.7339
790.733808 94.708 145.5184
796.463791 94.698 145.2970
802.235296 94.686 145.0704
808.048623 94.673 144.8391
813.904077 94.660 144.6040
819.801961 94.645 144.3655
825.742584 94.630 144.1243
831.726255 94.615 143.8807
837.753287 94.599 143.6353
843.823992 94.582 143.3883
849.938689 94.566 143.1400
856.097695 94.550 142.8904
862.301332 94.533 142.6399
868.549922 94.517 142.3884
874.843793 94.501 142.1360
881.183272 94.485 141.8825
887.568689 94.469 141.6278
894.000378 94.454 141.3716
900.478673 94.439 141.1136
907.003913 94.424 140.8533
913.576437 94.410 140.5903
920.196588 94.397 140.3242
926.864712 94.384 140.0544
933.581156 94.371 139.7807
940.346270 94.359 139.5027
947.160407 94.347 139.2204
954.023921 94.336 138.9335
960.937172 94.324 138.6425
967.900519 94.312 138.3480
974.914325 94.299 138.0508
981.978956 94.286 137.7527
989.094780 94.271 137.4561
996.262169 94.254 137.1639
1003.481495 94.234 136.8804
1010.753136 94.212 136.6108
1018.077470 94.188 136.3615
1025.454879 94.160 136.1401
1032.885748 94.129 135.9556
1040.370463 94.096 135.8179
1047.909417 94.060 135.7379
1055.503000 94.025 135.7267
1063.151610 93.990 135.7945
1070.855645 93.959 135.9496
1078.615506 93.934 136.1968
1086.431599 93.919 136.5354
1094.304330 93.917 136.9579
1102.234110 93.930 137.4492
1110.221353 93.961 137.9865
1118.266475 94.012 138.5409
1126.369895 94.082 139.0805
1134.532035 94.169 139.5741
1142.753322 94.272 139.9946
1151.034184 94.385 140.3217
1159.375052 94.507 140.5438
1167.776361 94.632 140.6572
1176.238550 94.757 140.6653
1184.762060 94.880 140.5767
1193.347334 94.999 140.4031
1201.994821 95.111 140.1579
1210.704971 95.216 139.8545
1219.478238 95.314 139.5056
1228.315080 95.406 139.1225
1237.215957 95.490 138.7151
1246.181334 95.568 138.2914
1255.211678 95.640 137.8581
1264.307459 95.707 137.4202
1273.469152 95.769 136.9817
1282.697235 95.827 136.5455
1291.992188 95.881 136.1137
1301.354495 95.932 135.6878
1310.784647 95.980 135.2688
1320.283132 96.026 134.8573
1329.850448 96.069 134.4537
1339.487093 96.110 134.0581
1349.193569 96.150 133.6707
1358.970381 96.188 133.2912
1368.818041 96.225 132.9196
1378.737061 96.261 132.5557
1388.727958 96.297 132.1993
1398.791253 96.332 131.8500
1408.927471 96.368 131.5075
1419.137140 96.404 131.1715
1429.420793 96.441 130.8413
1439.778965 96.479 130.5165
1450.212197 96.518 130.1965
1460.721033 96.558 129.8807
1471.306019 96.599 129.5684
1481.967709 96.641 129.2590
1492.706658 96.683 128.9518
1503.523426 96.726 128.6460
1514.418576 96.769 128.3410
1525.392678 96.812 128.0360
1536.446302 96.853 127.7302
1547.580025 96.893 127.4230
1558.794428 96.931 127.1135
1570.090095 96.965 126.8014
1581.467615 96.997 126.4863
1592.927581 97.024 126.1681
1604.470591 97.047 125.8471
1616.097246 97.065 125.5241
1627.808153 97.077 125.2002
1639.603922 97.084 124.8772
1651.485168 97.084 124.5572
1663.452510 97.079 124.2428
1675.506573 97.067 123.9371
1687.647984 97.050 123.6432
1699.877377 97.028 123.3645
1712.195390 97.001 123.1040
1724.602663 96.969 122.8644
1737.099845 96.934 122.6476
1749.687587 96.896 122.4548
1762.366544 96.857 122.2861
1775.137379 96.816 122.1401
1788.000756 96.775 122.0146
1800.957346 96.734 121.9056
1814.007826 96.693 121.8084
1827.152874 96.654 121.7173
1840.393177 96.614 121.6265
1853.729425 96.575 121.5311
1867.162312 96.535 121.4275
1880.692540 96.493 121.3141
1894.320813 96.449 121.1909
1908.047843 96.401 121.0594
1921.874344 96.350 120.9221
1935.801038 96.294 120.7822
1949.828650 96.233 120.6428
1963.957912 96.168 120.5070
1978.189561 96.097 120.3773
1992.524338 96.022 120.2560
2006.962991 95.943 120.1448
2021.506272 95.859 120.0448
2036.154940 95.772 119.9568
2050.909758 95.681 119.8815
2065.771495 95.587 119.8191
2080.740927 95.490 119.7698
2095.818833 95.391 119.7340
2111.006001 95.290 119.7119
2126.303220 95.187 119.7041
2141.711290 95.083 119.7112
2157.231013 94.978 119.7338
2172.863198 94.872 119.7731
2188.608660 94.765 119.8302
2204.468221 94.658 119.9065
2220.442706 94.551 120.0034
2236.532950 94.444 120.1227
2252.739789 94.338 120.2658
2269.064070 94.234 120.4346
2285.506644 94.130 120.6307
2302.068367 94.029 120.8555
2318.750104 93.930 121.1102
2335.552723 93.835 121.3958
2352.477101 93.744 121.7127
2369.524119 93.658 122.0605
2386.694668 93.579 122.4379
2403.989641 93.506 122.8428
2421.409941 93.442 123.2715
2438.956476 93.387 123.7189
2456.630160 93.342 124.1784
2474.431915 93.308 124.6422
2492.362668 93.285 125.1010
2510.423356 93.274 125.5451
2528.614918 93.274 125.9648
2546.938304 93.285 126.3507
2565.394469 93.306 126.6949
2583.984375 93.335 126.9911
2602.708991 93.371 127.2352
2621.569293 93.413 127.4252
2640.566265 93.458 127.5616
2659.700897 93.506 127.6465
2678.974186 93.555 127.6835
2698.387137 93.604 127.6773
2717.940763 93.652 127.6331
2737.636082 93.699 127.5559
2757.474121 93.744 127.4509
2777.455915 93.786 127.3224
2797.582506 93.826 127.1743
2817.854942 93.863 127.0095
2838.274281 93.897 126.8305
2858.841586 93.928 126.6387
2879.557931 93.954 126.4355
2900.424394 93.976 126.2216
2921.442065 93.992 125.9980
2942.612039 94.002 125.7664
2963.935418 94.005 125.5290
2985.413316 93.999 125.2895
3007.046852 93.983 125.0534
3028.837153 93.957 124.8280
3050.785356 93.918 124.6227
3072.892604 93.868 124.4484
3095.160050 93.805 124.3173
3117.588856 93.729 124.2422
3140.180190 93.641 124.2352
3162.935230 93.542 124.3068
3185.855163 93.434 124.4648
3208.941182 93.318 124.7133
3232.194493 93.197 125.0517
3255.616307 93.073 125.4749
3279.207844 92.946 125.9734
3302.970336 92.820 126.5346
3326.905021 92.693 127.1445
3351.013146 92.568 127.7893
3375.295969 92.442 128.4571
3399.754755 92.316 129.1390
3424.390779 92.189 129.8301
3449.205326 92.060 130.5297
3474.199690 91.927 131.2415
3499.375173 91.790 131.9732
3524.733088 91.648 132.7367
3550.274757 91.502 133.5469
3576.001511 91.351 134.4219
3601.914692 91.198 135.3819
