* Measurement data measured by REW V5.31.3
* Source: EXCL: Headset (USB-C to 3.5mm Headphone Jack Adapter), MICROPHONE (Master Volume), 0, volume: 0.750
* Format: 256k Log Swept Sine, 1 sweep at -12.0 dBFS with no timing reference
* Dated: Apr 1, 2025 10:36:35 PM
* REW Settings:
*  C-weighting compensation: Off
*  Target level: 75.0 dB
* Note: ; 
* Measurement: K361 R1
* Smoothing: 1/6 octave
* Frequency Step: 96 ppo
* Start Frequency: 20.0 Hz
*
* Freq(Hz) SPL(dB) Phase(degrees)
20.187378 96.258 -143.3252
20.333664 96.293 -143.4385
20.481010 96.340 -143.5914
20.629424 96.395 -143.7811
20.778913 96.456 -144.0045
20.929486 96.520 -144.2581
21.081150 96.584 -144.5384
21.233912 96.647 -144.8418
21.387782 96.708 -145.1646
21.542767 96.764 -145.5034
21.698874 96.815 -145.8550
21.856113 96.861 -146.2165
22.014492 96.903 -146.5856
22.174018 96.940 -146.9606
22.334700 96.973 -147.3405
22.496546 97.004 -147.7249
22.659566 97.031 -148.1139
22.823766 97.057 -148.5082
22.989157 97.081 -148.9086
23.155745 97.104 -149.3161
23.323542 97.125 -149.7313
23.492554 97.144 -150.1546
23.662790 97.160 -150.5857
23.834261 97.174 -151.0241
24.006973 97.184 -151.4683
24.180938 97.189 -151.9164
24.356163 97.189 -152.3662
24.532658 97.184 -152.8150
24.710431 97.173 -153.2599
24.889493 97.155 -153.6981
25.069853 97.132 -154.1271
25.251519 97.103 -154.5447
25.434502 97.068 -154.9495
25.618811 97.029 -155.3411
25.804456 96.986 -155.7198
25.991445 96.941 -156.0870
26.179790 96.894 -156.4450
26.369500 96.847 -156.7966
26.560584 96.800 -157.1449
26.753053 96.754 -157.4929
26.946917 96.709 -157.8430
27.142185 96.666 -158.1966
27.338869 96.625 -158.5539
27.536977 96.586 -158.9141
27.736522 96.550 -159.2752
27.937512 96.515 -159.6346
28.139959 96.482 -159.9895
28.343872 96.452 -160.3374
28.549264 96.424 -160.6764
28.756143 96.399 -161.0055
28.964522 96.376 -161.3247
29.174411 96.355 -161.6348
29.385821 96.336 -161.9374
29.598763 96.318 -162.2340
29.813248 96.302 -162.5261
30.029287 96.286 -162.8151
30.246891 96.270 -163.1019
30.466073 96.255 -163.3874
30.686842 96.239 -163.6726
30.909212 96.225 -163.9587
31.133193 96.211 -164.2476
31.358797 96.199 -164.5417
31.586035 96.190 -164.8436
31.814921 96.183 -165.1561
32.045465 96.181 -165.4815
32.277680 96.183 -165.8209
32.511577 96.189 -166.1745
32.747169 96.199 -166.5407
32.984469 96.214 -166.9167
33.223488 96.234 -167.2990
33.464239 96.257 -167.6834
33.706735 96.285 -168.0661
33.950987 96.316 -168.4440
34.197010 96.350 -168.8154
34.444816 96.387 -169.1797
34.694417 96.426 -169.5374
34.945827 96.467 -169.8903
35.199059 96.509 -170.2404
35.454126 96.551 -170.5901
35.711041 96.593 -170.9416
35.969818 96.634 -171.2968
36.230470 96.673 -171.6571
36.493011 96.711 -172.0232
36.757455 96.747 -172.3957
37.023814 96.781 -172.7744
37.292104 96.812 -173.1586
37.562338 96.841 -173.5474
37.834530 96.867 -173.9391
38.108695 96.891 -174.3320
38.384846 96.911 -174.7240
38.662999 96.928 -175.1131
38.943167 96.943 -175.4975
39.225365 96.955 -175.8759
39.509608 96.964 -176.2473
39.795911 96.972 -176.6116
40.084289 96.978 -176.9693
40.374756 96.983 -177.3216
40.667328 96.987 -177.6700
40.962020 96.991 -178.0163
41.258848 96.995 -178.3622
41.557827 96.999 -178.7090
41.858972 97.002 -179.0573
42.162299 97.004 -179.4063
42.467824 97.006 -179.7547
42.775564 97.007 179.9001
43.085533 97.007 179.5612
43.397749 97.005 179.2324
43.712227 97.002 178.9171
44.028983 96.997 178.6189
44.348036 96.990 178.3406
44.669400 96.981 178.0848
44.993093 96.969 177.8532
45.319131 96.954 177.6464
45.647532 96.937 177.4639
45.978313 96.917 177.3042
46.311491 96.894 177.1644
46.647083 96.868 177.0410
46.985107 96.840 176.9299
47.325581 96.809 176.8271
47.668521 96.775 176.7292
48.013947 96.740 176.6339
48.361876 96.703 176.5401
48.712326 96.665 176.4483
49.065315 96.626 176.3602
49.420863 96.586 176.2784
49.778987 96.546 176.2058
50.139706 96.506 176.1451
50.503039 96.465 176.0981
50.869005 96.424 176.0656
51.237623 96.382 176.0472
51.608912 96.339 176.0414
51.982891 96.296 176.0465
52.359580 96.251 176.0603
52.739000 96.206 176.0810
53.121168 96.161 176.1069
53.506106 96.115 176.1368
53.893833 96.068 176.1692
54.284370 96.023 176.2031
54.677737 95.977 176.2372
55.073955 95.933 176.2702
55.473043 95.890 176.3010
55.875024 95.848 176.3282
56.279917 95.809 176.3505
56.687745 95.772 176.3664
57.098527 95.738 176.3746
57.512287 95.708 176.3737
57.929045 95.683 176.3629
58.348822 95.661 176.3419
58.771642 95.644 176.3105
59.197525 95.630 176.2693
59.626495 95.620 176.2187
60.058573 95.614 176.1591
60.493782 95.610 176.0904
60.932145 95.610 176.0121
61.373685 95.613 175.9229
61.818424 95.621 175.8216
62.266386 95.632 175.7068
62.717593 95.648 175.5781
63.172071 95.668 175.4357
63.629842 95.692 175.2811
64.090930 95.720 175.1161
64.555359 95.751 174.9426
65.023154 95.785 174.7625
65.494339 95.821 174.5767
65.968938 95.858 174.3856
66.446976 95.896 174.1890
66.928478 95.934 173.9860
67.413469 95.972 173.7761
67.901975 96.011 173.5588
68.394021 96.048 173.3345
68.889632 96.085 173.1041
69.388835 96.120 172.8691
69.891655 96.153 172.6313
70.398118 96.184 172.3925
70.908252 96.212 172.1543
71.422083 96.236 171.9179
71.939636 96.256 171.6841
72.460941 96.272 171.4534
72.986023 96.283 171.2260
73.514909 96.290 171.0020
74.047629 96.292 170.7816
74.584208 96.290 170.5651
75.124676 96.285 170.3529
75.669061 96.275 170.1456
76.217390 96.261 169.9442
76.769692 96.244 169.7502
77.325997 96.224 169.5649
77.886333 96.202 169.3896
78.450730 96.176 169.2252
79.019216 96.148 169.0722
79.591822 96.119 168.9306
80.168577 96.089 168.8000
80.749512 96.057 168.6797
81.334656 96.026 168.5687
81.924040 95.994 168.4660
82.517696 95.963 168.3707
83.115653 95.932 168.2817
83.717943 95.902 168.1983
84.324598 95.872 168.1194
84.935649 95.843 168.0442
85.551128 95.815 167.9717
86.171066 95.786 167.9012
86.795497 95.757 167.8316
87.424453 95.729 167.7618
88.057967 95.700 167.6907
88.696071 95.670 167.6171
89.338800 95.640 167.5401
89.986185 95.610 167.4587
90.638262 95.579 167.3722
91.295065 95.548 167.2799
91.956626 95.517 167.1815
92.622982 95.486 167.0765
93.294166 95.455 166.9649
93.970214 95.424 166.8467
94.651161 95.393 166.7223
95.337042 95.363 166.5920
96.027894 95.334 166.4564
96.723752 95.305 166.3160
97.424652 95.276 166.1718
98.130631 95.249 166.0246
98.841726 95.222 165.8755
99.557974 95.196 165.7257
100.279412 95.171 165.5761
101.006078 95.147 165.4279
101.738010 95.124 165.2820
102.475245 95.101 165.1392
103.217823 95.080 165.0002
103.965782 95.059 164.8655
104.719161 95.039 164.7357
105.477999 95.019 164.6113
106.242336 95.000 164.4926
107.012212 94.982 164.3801
107.787666 94.963 164.2742
108.568740 94.946 164.1750
109.355474 94.928 164.0829
110.147909 94.910 163.9979
110.946086 94.893 163.9203
111.750047 94.877 163.8502
112.559834 94.860 163.7874
113.375489 94.844 163.7318
114.197055 94.827 163.6830
115.024574 94.811 163.6401
115.858089 94.795 163.6025
116.697645 94.778 163.5696
117.543284 94.762 163.5409
118.395051 94.744 163.5164
119.252990 94.726 163.4963
120.117147 94.708 163.4812
120.987565 94.688 163.4720
121.864291 94.668 163.4694
122.747370 94.647 163.4735
123.636848 94.624 163.4842
124.532771 94.601 163.5007
125.435187 94.577 163.5223
126.344142 94.552 163.5482
127.259684 94.527 163.5778
128.181860 94.501 163.6103
129.110718 94.475 163.6452
130.046308 94.448 163.6818
130.988677 94.421 163.7188
131.937875 94.394 163.7550
132.893951 94.366 163.7885
133.856956 94.338 163.8171
134.826938 94.310 163.8387
135.803950 94.282 163.8509
136.788041 94.253 163.8514
137.779264 94.223 163.8383
138.777669 94.192 163.8100
139.783309 94.159 163.7656
140.796237 94.125 163.7044
141.816504 94.090 163.6265
142.844165 94.053 163.5320
143.879273 94.014 163.4218
144.921881 93.973 163.2969
145.972045 93.931 163.1590
147.029819 93.886 163.0103
148.095257 93.840 162.8535
149.168417 93.791 162.6920
150.249353 93.741 162.5291
151.338121 93.690 162.3683
152.434780 93.637 162.2131
153.539385 93.584 162.0668
154.651995 93.529 161.9324
155.772667 93.475 161.8129
156.901460 93.421 161.7112
158.038432 93.369 161.6297
159.183644 93.318 161.5707
160.337154 93.269 161.5359
161.499023 93.223 161.5264
162.669312 93.180 161.5424
163.848081 93.141 161.5831
165.035392 93.106 161.6470
166.231306 93.074 161.7318
167.435887 93.047 161.8344
168.649196 93.024 161.9516
169.871298 93.005 162.0797
171.102255 92.989 162.2149
172.342133 92.976 162.3536
173.590995 92.965 162.4924
174.848907 92.957 162.6282
176.115934 92.950 162.7583
177.392143 92.944 162.8807
178.677599 92.938 162.9941
179.972371 92.933 163.0978
181.276525 92.928 163.1913
182.590129 92.922 163.2750
183.913252 92.916 163.3492
185.245964 92.908 163.4150
186.588332 92.900 163.4735
187.940428 92.890 163.5259
189.302322 92.879 163.5735
190.674085 92.866 163.6175
192.055788 92.852 163.6590
193.447503 92.837 163.6991
194.849303 92.820 163.7387
196.261262 92.803 163.7790
197.683452 92.786 163.8209
199.115948 92.768 163.8652
200.558824 92.751 163.9128
202.012156 92.734 163.9637
203.476019 92.717 164.0175
204.950490 92.701 164.0731
206.435646 92.685 164.1294
207.931564 92.669 164.1856
209.438322 92.654 164.2411
210.955998 92.638 164.2960
212.484672 92.623 164.3503
214.024424 92.607 164.4045
215.575333 92.592 164.4590
217.137481 92.576 164.5137
218.710948 92.559 164.5691
220.295818 92.543 164.6254
221.892172 92.526 164.6833
223.500094 92.509 164.7434
225.119668 92.492 164.8069
226.750978 92.475 164.8749
228.394109 92.458 164.9486
230.049147 92.442 165.0290
231.716178 92.426 165.1166
233.395289 92.411 165.2115
235.086567 92.397 165.3133
236.790102 92.385 165.4211
238.505980 92.374 165.5332
240.234293 92.365 165.6475
241.975130 92.358 165.7618
243.728581 92.353 165.8738
245.494739 92.350 165.9817
247.273695 92.348 166.0842
249.065542 92.347 166.1810
250.870374 92.346 166.2723
252.688284 92.346 166.3591
254.519367 92.346 166.4432
256.363720 92.346 166.5262
258.221437 92.345 166.6104
260.092616 92.343 166.6977
261.977354 92.341 166.7903
263.875750 92.338 166.8904
265.787903 92.336 167.0002
267.713911 92.333 167.1215
269.653877 92.330 167.2560
271.607900 92.329 167.4048
273.576083 92.329 167.5681
275.558528 92.331 167.7453
277.555338 92.336 167.9346
279.566619 92.343 168.1336
281.592474 92.353 168.3393
283.633009 92.367 168.5482
285.688331 92.383 168.7568
287.758546 92.403 168.9619
289.843763 92.425 169.1608
291.944090 92.450 169.3514
294.059638 92.476 169.5324
296.190515 92.503 169.7034
298.336833 92.531 169.8646
300.498705 92.560 170.0170
302.676243 92.588 170.1616
304.869559 92.617 170.2996
307.078770 92.646 170.4322
309.303989 92.674 170.5601
311.545334 92.703 170.6838
313.802919 92.731 170.8038
316.076865 92.758 170.9202
318.367288 92.786 171.0333
320.674309 92.813 171.1431
322.998047 92.840 171.2499
325.338624 92.867 171.3536
327.696162 92.893 171.4543
330.070783 92.919 171.5519
332.462612 92.944 171.6461
334.871773 92.969 171.7366
337.298392 92.993 171.8229
339.742595 93.016 171.9049
342.204510 93.039 171.9821
344.684265 93.060 172.0543
347.181989 93.080 172.1215
349.697813 93.098 172.1837
352.231868 93.116 172.2411
354.784285 93.131 172.2941
357.355198 93.145 172.3430
359.944741 93.158 172.3883
362.553049 93.169 172.4303
365.180258 93.178 172.4694
367.826505 93.187 172.5057
370.491927 93.195 172.5396
373.176665 93.201 172.5714
375.880856 93.207 172.6013
378.604644 93.212 172.6297
381.348169 93.216 172.6569
384.111575 93.220 172.6832
386.895006 93.223 172.7088
389.698607 93.225 172.7341
392.522524 93.227 172.7594
395.366904 93.228 172.7852
398.231895 93.228 172.8119
401.117648 93.228 172.8398
404.024312 93.227 172.8691
406.952038 93.225 172.9001
409.900981 93.223 172.9326
412.871292 93.219 172.9667
415.863128 93.214 173.0020
418.876643 93.209 173.0381
421.911996 93.202 173.0750
424.969344 93.194 173.1119
428.048847 93.184 173.1488
431.150666 93.174 173.1853
434.274961 93.162 173.2213
437.421897 93.149 173.2564
440.591636 93.135 173.2907
443.784345 93.119 173.3240
447.000189 93.103 173.3564
450.239337 93.086 173.3878
453.501956 93.068 173.4184
456.788219 93.050 173.4484
460.098294 93.032 173.4781
463.432356 93.013 173.5077
466.790578 92.995 173.5377
470.173135 92.977 173.5681
473.580203 92.959 173.5993
477.011961 92.941 173.6314
480.468586 92.925 173.6644
483.950259 92.908 173.6985
487.457163 92.893 173.7335
490.989478 92.878 173.7695
494.547390 92.865 173.8063
498.131084 92.852 173.8438
501.740748 92.841 173.8819
505.376568 92.831 173.9204
509.038735 92.823 173.9591
512.727439 92.816 173.9978
516.442874 92.810 174.0361
520.185232 92.807 174.0739
523.954708 92.805 174.1108
527.751500 92.805 174.1467
531.575805 92.807 174.1816
535.427822 92.811 174.2155
539.307753 92.817 174.2484
543.215800 92.824 174.2804
547.152165 92.834 174.3116
551.117055 92.846 174.3424
555.110677 92.859 174.3726
559.133237 92.874 174.4025
563.184947 92.890 174.4319
567.266018 92.907 174.4608
571.376661 92.926 174.4890
575.517092 92.945 174.5164
579.687526 92.965 174.5430
583.888181 92.985 174.5688
588.119275 93.005 174.5938
592.381030 93.024 174.6183
596.673667 93.043 174.6425
600.997410 93.062 174.6668
605.352485 93.080 174.6918
609.739119 93.096 174.7179
614.157540 93.112 174.7457
618.607979 93.127 174.7756
623.090667 93.140 174.8080
627.605839 93.153 174.8435
632.153730 93.164 174.8823
636.734576 93.175 174.9245
641.348617 93.186 174.9703
645.996094 93.195 175.0197
650.677248 93.205 175.0722
655.392323 93.214 175.1276
660.141566 93.223 175.1851
664.925224 93.232 175.2438
669.743546 93.242 175.3028
674.596784 93.251 175.3608
679.485191 93.261 175.4168
684.409020 93.271 175.4697
689.368530 93.281 175.5183
694.363979 93.291 175.5617
699.395626 93.301 175.5992
704.463736 93.310 175.6302
709.568570 93.319 175.6541
714.710396 93.327 175.6705
719.889483 93.334 175.6795
725.106099 93.339 175.6808
730.360516 93.344 175.6744
735.653010 93.347 175.6605
740.983855 93.349 175.6393
746.353329 93.348 175.6111
751.761713 93.347 175.5760
757.209288 93.343 175.5346
762.696339 93.338 175.4870
768.223151 93.331 175.4337
773.790013 93.323 175.3751
779.397214 93.313 175.3116
785.045047 93.302 175.2437
790.733808 93.289 175.1718
796.463791 93.276 175.0962
802.235296 93.262 175.0175
808.048623 93.247 174.9357
813.904077 93.232 174.8512
819.801961 93.217 174.7642
825.742584 93.202 174.6749
831.726255 93.187 174.5834
837.753287 93.172 174.4902
843.823992 93.157 174.3953
849.938689 93.143 174.2991
856.097695 93.129 174.2017
862.301332 93.116 174.1032
868.549922 93.103 174.0037
874.843793 93.090 173.9030
881.183272 93.078 173.8007
887.568689 93.066 173.6965
894.000378 93.055 173.5900
900.478673 93.045 173.4804
907.003913 93.035 173.3673
913.576437 93.027 173.2500
920.196588 93.019 173.1278
926.864712 93.012 173.0001
933.581156 93.006 172.8664
940.346270 93.001 172.7261
947.160407 92.997 172.5788
954.023921 92.993 172.4243
960.937172 92.990 172.2625
967.900519 92.988 172.0937
974.914325 92.985 171.9182
981.978956 92.982 171.7370
989.094780 92.978 171.5512
996.262169 92.973 171.3626
1003.481495 92.967 171.1739
1010.753136 92.959 170.9882
1018.077470 92.948 170.8099
1025.454879 92.935 170.6443
1032.885748 92.918 170.4982
1040.370463 92.899 170.3795
1047.909417 92.876 170.2973
1055.503000 92.850 170.2621
1063.151610 92.823 170.2850
1070.855645 92.794 170.3768
1078.615506 92.766 170.5477
1086.431599 92.742 170.8054
1094.304330 92.724 171.1535
1102.234110 92.716 171.5901
1110.221353 92.719 172.1062
1118.266475 92.739 172.6846
1126.369895 92.776 173.3008
1134.532035 92.831 173.9250
1142.753322 92.905 174.5249
1151.034184 92.995 175.0699
1159.375052 93.099 175.5345
1167.776361 93.212 175.9012
1176.238550 93.331 176.1612
1184.762060 93.452 176.3136
1193.347334 93.571 176.3646
1201.994821 93.688 176.3245
1210.704971 93.798 176.2066
1219.478238 93.903 176.0250
1228.315080 94.000 175.7933
1237.215957 94.089 175.5240
1246.181334 94.172 175.2282
1255.211678 94.248 174.9149
1264.307459 94.318 174.5914
1273.469152 94.383 174.2636
1282.697235 94.442 173.9360
1291.992188 94.498 173.6118
1301.354495 94.549 173.2934
1310.784647 94.597 172.9824
1320.283132 94.642 172.6799
1329.850448 94.684 172.3863
1339.487093 94.724 172.1020
1349.193569 94.762 171.8270
1358.970381 94.799 171.5612
1368.818041 94.835 171.3044
1378.737061 94.869 171.0563
1388.727958 94.904 170.8165
1398.791253 94.938 170.5844
1408.927471 94.972 170.3597
1419.137140 95.008 170.1418
1429.420793 95.043 169.9301
1439.778965 95.080 169.7240
1450.212197 95.118 169.5230
1460.721033 95.157 169.3264
1471.306019 95.198 169.1336
1481.967709 95.239 168.9440
1492.706658 95.280 168.7569
1503.523426 95.322 168.5717
1514.418576 95.364 168.3876
1525.392678 95.406 168.2043
1536.446302 95.446 168.0209
1547.580025 95.485 167.8373
1558.794428 95.521 167.6528
1570.090095 95.555 167.4671
1581.467615 95.586 167.2801
1592.927581 95.613 167.0915
1604.470591 95.636 166.9014
1616.097246 95.654 166.7101
1627.808153 95.668 166.5180
1639.603922 95.677 166.3260
1651.485168 95.680 166.1353
1663.452510 95.678 165.9473
1675.506573 95.671 165.7640
1687.647984 95.658 165.5876
1699.877377 95.641 165.4204
1712.195390 95.618 165.2651
1724.602663 95.591 165.1244
1737.099845 95.560 165.0005
1749.687587 95.525 164.8957
1762.366544 95.487 164.8117
1775.137379 95.447 164.7494
1788.000756 95.405 164.7088
1800.957346 95.362 164.6888
1814.007826 95.318 164.6870
1827.152874 95.274 164.6994
1840.393177 95.230 164.7212
1853.729425 95.187 164.7469
1867.162312 95.143 164.7717
1880.692540 95.098 164.7917
1894.320813 95.051 164.8048
1908.047843 95.002 164.8107
1921.874344 94.950 164.8106
1935.801038 94.893 164.8069
1949.828650 94.833 164.8025
1963.957912 94.767 164.8008
1978.189561 94.697 164.8052
1992.524338 94.622 164.8188
2006.962991 94.542 164.8445
2021.506272 94.458 164.8849
2036.154940 94.371 164.9420
2050.909758 94.280 165.0177
2065.771495 94.186 165.1138
2080.740927 94.089 165.2316
2095.818833 93.991 165.3723
2111.006001 93.891 165.5371
2126.303220 93.791 165.7267
2141.711290 93.691 165.9420
2157.231013 93.591 166.1835
2172.863198 93.493 166.4515
2188.608660 93.396 166.7463
2204.468221 93.302 167.0676
2220.442706 93.212 167.4148
2236.532950 93.124 167.7871
2252.739789 93.042 168.1833
2269.064070 92.964 168.6016
2285.506644 92.891 169.0398
2302.068367 92.825 169.4955
2318.750104 92.766 169.9654
2335.552723 92.714 170.4462
2352.477101 92.669 170.9337
2369.524119 92.633 171.4234
2386.694668 92.606 171.9105
2403.989641 92.588 172.3895
2421.409941 92.579 172.8546
2438.956476 92.580 173.2995
2456.630160 92.590 173.7178
2474.431915 92.609 174.1031
2492.362668 92.638 174.4490
2510.423356 92.674 174.7496
2528.614918 92.719 174.9996
2546.938304 92.769 175.1951
2565.394469 92.825 175.3331
2583.984375 92.885 175.4125
2602.708991 92.948 175.4336
2621.569293 93.012 175.3983
2640.566265 93.076 175.3101
2659.700897 93.140 175.1732
2678.974186 93.203 174.9930
2698.387137 93.263 174.7752
2717.940763 93.320 174.5258
2737.636082 93.374 174.2503
2757.474121 93.424 173.9542
2777.455915 93.470 173.6425
2797.582506 93.511 173.3194
2817.854942 93.549 172.9889
2838.274281 93.581 172.6544
2858.841586 93.609 172.3186
2879.557931 93.631 171.9843
2900.424394 93.648 171.6537
2921.442065 93.659 171.3292
2942.612039 93.664 171.0133
2963.935418 93.662 170.7089
2985.413316 93.652 170.4198
3007.046852 93.634 170.1505
3028.837153 93.607 169.9070
3050.785356 93.570 169.6962
3072.892604 93.524 169.5262
3095.160050 93.468 169.4058
3117.588856 93.403 169.3435
3140.180190 93.329 169.3472
3162.935230 93.248 169.4227
3185.855163 93.160 169.5734
3208.941182 93.067 169.7992
3232.194493 92.971 170.0971
3255.616307 92.873 170.4611
3279.207844 92.774 170.8829
3302.970336 92.675 171.3528
3326.905021 92.576 171.8601
3351.013146 92.477 172.3944
3375.295969 92.379 172.9464
3399.754755 92.280 173.5082
3424.390779 92.181 174.0747
3449.205326 92.080 174.6440
3474.199690 91.977 175.2174
3499.375173 91.871 175.8000
3524.733088 91.761 176.4000
3550.274757 91.648 177.0289
3576.001511 91.531 177.7007
3601.914692 91.412 178.4315
3628.015651 91.293 179.2388
