* Measurement data measured by REW V5.31.3
* Source: EXCL: Headset (USB-C to 3.5mm Headphone Jack Adapter), MICROPHONE (Master Volume), 0, volume: 0.750
* Format: 256k Log Swept Sine, 1 sweep at -12.0 dBFS with no timing reference
* Dated: Apr 1, 2025 10:41:48 PM
* REW Settings:
*  C-weighting compensation: Off
*  Target level: 75.0 dB
* Note: ; 
* Measurement: K361 L5
* Smoothing: 1/6 octave
* Frequency Step: 96 ppo
* Start Frequency: 20.0 Hz
*
* Freq(Hz) SPL(dB) Phase(degrees)
20.187378 98.885 -143.4428
20.333664 98.897 -143.5607
20.481010 98.914 -143.7215
20.629424 98.936 -143.9238
20.778913 98.961 -144.1657
20.929486 98.989 -144.4447
21.081150 99.022 -144.7579
21.233912 99.058 -145.1019
21.387782 99.097 -145.4729
21.542767 99.140 -145.8667
21.698874 99.186 -146.2794
21.856113 99.235 -146.7069
22.014492 99.288 -147.1457
22.174018 99.343 -147.5927
22.334700 99.401 -148.0454
22.496546 99.460 -148.5020
22.659566 99.520 -148.9614
22.823766 99.580 -149.4229
22.989157 99.638 -149.8859
23.155745 99.693 -150.3501
23.323542 99.744 -150.8152
23.492554 99.790 -151.2804
23.662790 99.830 -151.7446
23.834261 99.863 -152.2066
24.006973 99.889 -152.6646
24.180938 99.907 -153.1170
24.356163 99.919 -153.5621
24.532658 99.924 -153.9988
24.710431 99.923 -154.4264
24.889493 99.918 -154.8448
25.069853 99.909 -155.2550
25.251519 99.898 -155.6584
25.434502 99.885 -156.0569
25.618811 99.872 -156.4526
25.804456 99.858 -156.8474
25.991445 99.844 -157.2426
26.179790 99.829 -157.6387
26.369500 99.814 -158.0349
26.560584 99.798 -158.4298
26.753053 99.781 -158.8209
26.946917 99.763 -159.2055
27.142185 99.743 -159.5811
27.338869 99.722 -159.9458
27.536977 99.700 -160.2992
27.736522 99.678 -160.6423
27.937512 99.656 -160.9777
28.139959 99.635 -161.3096
28.343872 99.616 -161.6431
28.549264 99.598 -161.9837
28.756143 99.582 -162.3362
28.964522 99.567 -162.7044
29.174411 99.554 -163.0905
29.385821 99.542 -163.4945
29.598763 99.532 -163.9151
29.813248 99.522 -164.3491
30.029287 99.513 -164.7928
30.246891 99.505 -165.2422
30.466073 99.499 -165.6935
30.686842 99.496 -166.1437
30.909212 99.495 -166.5907
31.133193 99.497 -167.0336
31.358797 99.502 -167.4720
31.586035 99.511 -167.9067
31.814921 99.524 -168.3386
32.045465 99.542 -168.7695
32.277680 99.563 -169.2009
32.511577 99.589 -169.6346
32.747169 99.618 -170.0721
32.984469 99.651 -170.5143
33.223488 99.687 -170.9614
33.464239 99.725 -171.4124
33.706735 99.765 -171.8654
33.950987 99.807 -172.3174
34.197010 99.849 -172.7646
34.444816 99.892 -173.2034
34.694417 99.936 -173.6301
34.945827 99.980 -174.0426
35.199059 100.025 -174.4395
35.454126 100.069 -174.8212
35.711041 100.114 -175.1891
35.969818 100.159 -175.5455
36.230470 100.203 -175.8934
36.493011 100.246 -176.2354
36.757455 100.287 -176.5739
37.023814 100.326 -176.9111
37.292104 100.362 -177.2484
37.562338 100.394 -177.5867
37.834530 100.423 -177.9265
38.108695 100.449 -178.2677
38.384846 100.470 -178.6098
38.662999 100.487 -178.9518
38.943167 100.501 -179.2921
39.225365 100.511 -179.6293
39.509608 100.518 -179.9616
39.795911 100.521 179.7122
40.084289 100.523 179.3926
40.374756 100.522 179.0793
40.667328 100.519 178.7708
40.962020 100.516 178.4650
41.258848 100.511 178.1596
41.557827 100.506 177.8525
41.858972 100.499 177.5423
42.162299 100.490 177.2291
42.467824 100.480 176.9139
42.775564 100.467 176.5990
43.085533 100.452 176.2866
43.397749 100.436 175.9786
43.712227 100.417 175.6768
44.028983 100.397 175.3822
44.348036 100.374 175.0958
44.669400 100.351 174.8190
44.993093 100.325 174.5536
45.319131 100.298 174.3019
45.647532 100.270 174.0656
45.978313 100.242 173.8452
46.311491 100.213 173.6404
46.647083 100.184 173.4493
46.985107 100.155 173.2698
47.325581 100.127 173.0994
47.668521 100.099 172.9363
48.013947 100.072 172.7790
48.361876 100.045 172.6258
48.712326 100.019 172.4749
49.065315 99.993 172.3238
49.420863 99.968 172.1698
49.778987 99.943 172.0106
50.139706 99.918 171.8451
50.503039 99.893 171.6733
50.869005 99.866 171.4963
51.237623 99.839 171.3159
51.608912 99.811 171.1334
51.982891 99.782 170.9500
52.359580 99.753 170.7659
52.739000 99.723 170.5814
53.121168 99.692 170.3965
53.506106 99.661 170.2118
53.893833 99.629 170.0276
54.284370 99.597 169.8444
54.677737 99.564 169.6619
55.073955 99.531 169.4791
55.473043 99.499 169.2942
55.875024 99.468 169.1049
56.279917 99.438 168.9091
56.687745 99.408 168.7056
57.098527 99.380 168.4937
57.512287 99.352 168.2743
57.929045 99.326 168.0495
58.348822 99.300 167.8228
58.771642 99.277 167.5980
59.197525 99.255 167.3790
59.626495 99.236 167.1691
60.058573 99.219 166.9701
60.493782 99.205 166.7827
60.932145 99.193 166.6068
61.373685 99.182 166.4417
61.818424 99.173 166.2862
62.266386 99.164 166.1392
62.717593 99.157 165.9993
63.172071 99.150 165.8651
63.629842 99.145 165.7354
64.090930 99.141 165.6092
64.555359 99.138 165.4856
65.023154 99.137 165.3635
65.494339 99.136 165.2414
65.968938 99.137 165.1178
66.446976 99.137 164.9914
66.928478 99.137 164.8615
67.413469 99.137 164.7287
67.901975 99.135 164.5943
68.394021 99.133 164.4603
68.889632 99.129 164.3288
69.388835 99.124 164.2012
69.891655 99.117 164.0787
70.398118 99.109 163.9617
70.908252 99.100 163.8505
71.422083 99.089 163.7450
71.939636 99.077 163.6452
72.460941 99.064 163.5508
72.986023 99.048 163.4613
73.514909 99.032 163.3761
74.047629 99.014 163.2947
74.584208 98.994 163.2170
75.124676 98.973 163.1436
75.669061 98.951 163.0753
76.217390 98.926 163.0132
76.769692 98.900 162.9584
77.325997 98.873 162.9115
77.886333 98.844 162.8730
78.450730 98.814 162.8433
79.019216 98.784 162.8224
79.591822 98.753 162.8101
80.168577 98.723 162.8062
80.749512 98.692 162.8100
81.334656 98.663 162.8212
81.924040 98.634 162.8388
82.517696 98.607 162.8622
83.115653 98.581 162.8904
83.717943 98.557 162.9223
84.324598 98.535 162.9566
84.935649 98.515 162.9917
85.551128 98.497 163.0259
86.171066 98.482 163.0573
86.795497 98.469 163.0842
87.424453 98.457 163.1052
88.057967 98.448 163.1191
88.696071 98.441 163.1249
89.338800 98.436 163.1220
89.986185 98.432 163.1098
90.638262 98.430 163.0879
91.295065 98.429 163.0560
91.956626 98.430 163.0136
92.622982 98.432 162.9604
93.294166 98.435 162.8955
93.970214 98.440 162.8177
94.651161 98.445 162.7256
95.337042 98.451 162.6177
96.027894 98.458 162.4927
96.723752 98.465 162.3492
97.424652 98.472 162.1860
98.130631 98.479 162.0024
98.841726 98.486 161.7979
99.557974 98.493 161.5726
100.279412 98.499 161.3269
101.006078 98.506 161.0618
101.738010 98.511 160.7784
102.475245 98.517 160.4775
103.217823 98.521 160.1602
103.965782 98.525 159.8274
104.719161 98.529 159.4803
105.477999 98.531 159.1200
106.242336 98.532 158.7479
107.012212 98.532 158.3656
107.787666 98.530 157.9744
108.568740 98.527 157.5758
109.355474 98.521 157.1711
110.147909 98.514 156.7617
110.946086 98.503 156.3489
111.750047 98.490 155.9341
112.559834 98.473 155.5190
113.375489 98.453 155.1057
114.197055 98.428 154.6969
115.024574 98.400 154.2953
115.858089 98.367 153.9038
116.697645 98.331 153.5256
117.543284 98.291 153.1637
118.395051 98.247 152.8214
119.252990 98.200 152.5020
120.117147 98.149 152.2088
120.987565 98.096 151.9448
121.864291 98.039 151.7122
122.747370 97.981 151.5128
123.636848 97.921 151.3471
124.532771 97.859 151.2151
125.435187 97.798 151.1159
126.344142 97.736 151.0481
127.259684 97.674 151.0098
128.181860 97.614 150.9990
129.110718 97.556 151.0132
130.046308 97.500 151.0496
130.988677 97.447 151.1050
131.937875 97.396 151.1760
132.893951 97.349 151.2587
133.856956 97.305 151.3489
134.826938 97.263 151.4424
135.803950 97.225 151.5355
136.788041 97.189 151.6245
137.779264 97.155 151.7063
138.777669 97.122 151.7784
139.783309 97.091 151.8388
140.796237 97.060 151.8864
141.816504 97.030 151.9207
142.844165 96.999 151.9418
143.879273 96.968 151.9510
144.921881 96.937 151.9498
145.972045 96.904 151.9404
147.029819 96.869 151.9251
148.095257 96.834 151.9061
149.168417 96.797 151.8853
150.249353 96.759 151.8647
151.338121 96.719 151.8454
152.434780 96.679 151.8286
153.539385 96.637 151.8151
154.651995 96.595 151.8055
155.772667 96.553 151.7999
156.901460 96.511 151.7985
158.038432 96.468 151.8008
159.183644 96.426 151.8061
160.337154 96.384 151.8134
161.499023 96.343 151.8213
162.669312 96.302 151.8286
163.848081 96.262 151.8338
165.035392 96.223 151.8361
166.231306 96.185 151.8345
167.435887 96.149 151.8287
168.649196 96.113 151.8181
169.871298 96.077 151.8029
171.102255 96.043 151.7830
172.342133 96.008 151.7585
173.590995 95.974 151.7299
174.848907 95.940 151.6976
176.115934 95.905 151.6623
177.392143 95.869 151.6249
178.677599 95.834 151.5862
179.972371 95.797 151.5471
181.276525 95.759 151.5083
182.590129 95.721 151.4705
183.913252 95.682 151.4342
185.245964 95.641 151.3999
186.588332 95.599 151.3676
187.940428 95.556 151.3375
189.302322 95.512 151.3093
190.674085 95.467 151.2828
192.055788 95.420 151.2578
193.447503 95.373 151.2344
194.849303 95.324 151.2129
196.261262 95.275 151.1940
197.683452 95.226 151.1789
199.115948 95.175 151.1690
200.558824 95.125 151.1658
202.012156 95.074 151.1703
203.476019 95.022 151.1836
204.950490 94.970 151.2062
206.435646 94.918 151.2385
207.931564 94.865 151.2810
209.438322 94.812 151.3345
210.955998 94.759 151.3995
212.484672 94.706 151.4767
214.024424 94.653 151.5667
215.575333 94.601 151.6696
217.137481 94.550 151.7856
218.710948 94.501 151.9145
220.295818 94.453 152.0557
221.892172 94.407 152.2080
223.500094 94.364 152.3697
225.119668 94.323 152.5383
226.750978 94.286 152.7110
228.394109 94.251 152.8850
230.049147 94.219 153.0576
231.716178 94.190 153.2268
233.395289 94.163 153.3914
235.086567 94.138 153.5505
236.790102 94.115 153.7040
238.505980 94.094 153.8522
240.234293 94.073 153.9955
241.975130 94.053 154.1350
243.728581 94.034 154.2715
245.494739 94.014 154.4062
247.273695 93.995 154.5402
249.065542 93.975 154.6749
250.870374 93.954 154.8118
252.688284 93.933 154.9529
254.519367 93.912 155.1003
256.363720 93.890 155.2563
258.221437 93.867 155.4233
260.092616 93.843 155.6039
261.977354 93.820 155.8004
263.875750 93.797 156.0150
265.787903 93.774 156.2493
267.713911 93.753 156.5044
269.653877 93.734 156.7802
271.607900 93.718 157.0754
273.576083 93.706 157.3877
275.558528 93.699 157.7128
277.555338 93.696 158.0452
279.566619 93.700 158.3779
281.592474 93.709 158.7027
283.633009 93.723 159.0116
285.688331 93.743 159.2968
287.758546 93.767 159.5522
289.843763 93.794 159.7734
291.944090 93.823 159.9583
294.059638 93.852 160.1073
296.190515 93.882 160.2229
298.336833 93.909 160.3092
300.498705 93.934 160.3716
302.676243 93.957 160.4160
304.869559 93.976 160.4482
307.078770 93.993 160.4737
309.303989 94.006 160.4973
311.545334 94.016 160.5228
313.802919 94.024 160.5532
316.076865 94.030 160.5903
318.367288 94.034 160.6355
320.674309 94.036 160.6894
322.998047 94.037 160.7520
325.338624 94.037 160.8231
327.696162 94.037 160.9021
330.070783 94.035 160.9883
332.462612 94.034 161.0808
334.871773 94.031 161.1790
337.298392 94.029 161.2822
339.742595 94.025 161.3898
342.204510 94.022 161.5016
344.684265 94.017 161.6174
347.181989 94.012 161.7370
349.697813 94.006 161.8601
352.231868 94.000 161.9865
354.784285 93.992 162.1157
357.355198 93.984 162.2476
359.944741 93.976 162.3818
362.553049 93.966 162.5182
365.180258 93.956 162.6564
367.826505 93.946 162.7964
370.491927 93.935 162.9381
373.176665 93.925 163.0813
375.880856 93.914 163.2259
378.604644 93.903 163.3718
381.348169 93.892 163.5190
384.111575 93.881 163.6673
386.895006 93.870 163.8167
389.698607 93.860 163.9672
392.522524 93.849 164.1188
395.366904 93.839 164.2713
398.231895 93.829 164.4247
401.117648 93.818 164.5789
404.024312 93.808 164.7336
406.952038 93.797 164.8887
409.900981 93.785 165.0441
412.871292 93.773 165.1998
415.863128 93.760 165.3556
418.876643 93.747 165.5116
421.911996 93.732 165.6678
424.969344 93.717 165.8240
428.048847 93.700 165.9803
431.150666 93.682 166.1366
434.274961 93.663 166.2927
437.421897 93.643 166.4484
440.591636 93.622 166.6036
443.784345 93.601 166.7582
447.000189 93.579 166.9122
450.239337 93.556 167.0655
453.501956 93.533 167.2182
456.788219 93.510 167.3705
460.098294 93.487 167.5223
463.432356 93.464 167.6739
466.790578 93.442 167.8253
470.173135 93.421 167.9763
473.580203 93.400 168.1270
477.011961 93.380 168.2772
480.468586 93.361 168.4270
483.950259 93.343 168.5762
487.457163 93.327 168.7246
490.989478 93.311 168.8723
494.547390 93.297 169.0190
498.131084 93.285 169.1647
501.740748 93.274 169.3093
505.376568 93.265 169.4529
509.038735 93.258 169.5954
512.727439 93.253 169.7371
516.442874 93.250 169.8777
520.185232 93.250 170.0172
523.954708 93.252 170.1556
527.751500 93.256 170.2926
531.575805 93.263 170.4280
535.427822 93.273 170.5614
539.307753 93.285 170.6925
543.215800 93.301 170.8209
547.152165 93.319 170.9460
551.117055 93.340 171.0673
555.110677 93.363 171.1841
559.133237 93.389 171.2960
563.184947 93.417 171.4024
567.266018 93.446 171.5029
571.376661 93.478 171.5971
575.517092 93.510 171.6848
579.687526 93.543 171.7659
583.888181 93.577 171.8405
588.119275 93.610 171.9088
592.381030 93.644 171.9711
596.673667 93.676 172.0280
600.997410 93.708 172.0800
605.352485 93.738 172.1277
609.739119 93.767 172.1718
614.157540 93.795 172.2130
618.607979 93.821 172.2519
623.090667 93.845 172.2889
627.605839 93.868 172.3246
632.153730 93.889 172.3591
636.734576 93.909 172.3924
641.348617 93.927 172.4246
645.996094 93.944 172.4554
650.677248 93.959 172.4844
655.392323 93.974 172.5114
660.141566 93.987 172.5359
664.925224 93.999 172.5578
669.743546 94.009 172.5768
674.596784 94.019 172.5927
679.485191 94.028 172.6057
684.409020 94.035 172.6156
689.368530 94.041 172.6227
694.363979 94.046 172.6272
699.395626 94.050 172.6291
704.463736 94.052 172.6285
709.568570 94.053 172.6254
714.710396 94.053 172.6198
719.889483 94.052 172.6114
725.106099 94.049 172.6000
730.360516 94.045 172.5854
735.653010 94.039 172.5674
740.983855 94.032 172.5456
746.353329 94.023 172.5197
751.761713 94.012 172.4895
757.209288 94.000 172.4546
762.696339 93.987 172.4147
768.223151 93.972 172.3695
773.790013 93.955 172.3184
779.397214 93.937 172.2612
785.045047 93.918 172.1974
790.733808 93.897 172.1266
796.463791 93.875 172.0488
802.235296 93.851 171.9638
808.048623 93.826 171.8716
813.904077 93.800 171.7726
819.801961 93.772 171.6674
825.742584 93.742 171.5568
831.726255 93.711 171.4424
837.753287 93.677 171.3261
843.823992 93.641 171.2106
849.938689 93.602 171.0993
856.097695 93.561 170.9963
862.301332 93.516 170.9065
868.549922 93.468 170.8355
874.843793 93.417 170.7896
881.183272 93.363 170.7754
887.568689 93.307 170.7996
894.000378 93.250 170.8680
900.478673 93.194 170.9855
907.003913 93.140 171.1548
913.576437 93.090 171.3759
920.196588 93.045 171.6448
926.864712 93.009 171.9542
933.581156 92.981 172.2934
940.346270 92.964 172.6489
947.160407 92.958 173.0063
954.023921 92.962 173.3520
960.937172 92.975 173.6744
967.900519 92.996 173.9655
974.914325 93.024 174.2211
981.978956 93.056 174.4409
989.094780 93.092 174.6276
996.262169 93.131 174.7864
1003.481495 93.171 174.9233
1010.753136 93.212 175.0447
1018.077470 93.255 175.1568
1025.454879 93.299 175.2642
1032.885748 93.346 175.3705
1040.370463 93.394 175.4777
1047.909417 93.446 175.5859
1055.503000 93.501 175.6942
1063.151610 93.559 175.8003
1070.855645 93.621 175.9011
1078.615506 93.686 175.9928
1086.431599 93.755 176.0717
1094.304330 93.826 176.1340
1102.234110 93.900 176.1766
1110.221353 93.975 176.1972
1118.266475 94.051 176.1942
1126.369895 94.127 176.1671
1134.532035 94.202 176.1164
1142.753322 94.276 176.0434
1151.034184 94.347 175.9500
1159.375052 94.417 175.8385
1167.776361 94.484 175.7114
1176.238550 94.548 175.5713
1184.762060 94.609 175.4207
1193.347334 94.668 175.2620
1201.994821 94.724 175.0973
1210.704971 94.778 174.9286
1219.478238 94.830 174.7576
1228.315080 94.880 174.5853
1237.215957 94.929 174.4128
1246.181334 94.976 174.2408
1255.211678 95.022 174.0698
1264.307459 95.067 173.9003
1273.469152 95.111 173.7324
1282.697235 95.155 173.5663
1291.992188 95.197 173.4022
1301.354495 95.239 173.2402
1310.784647 95.280 173.0804
1320.283132 95.321 172.9230
1329.850448 95.360 172.7679
1339.487093 95.400 172.6155
1349.193569 95.438 172.4658
1358.970381 95.476 172.3190
1368.818041 95.514 172.1750
1378.737061 95.552 172.0338
1388.727958 95.590 171.8952
1398.791253 95.628 171.7589
1408.927471 95.667 171.6246
1419.137140 95.707 171.4920
1429.420793 95.748 171.3610
1439.778965 95.789 171.2314
1450.212197 95.831 171.1036
1460.721033 95.875 170.9779
1471.306019 95.918 170.8551
1481.967709 95.963 170.7360
1492.706658 96.007 170.6216
1503.523426 96.052 170.5126
1514.418576 96.096 170.4098
1525.392678 96.140 170.3137
1536.446302 96.183 170.2245
1547.580025 96.225 170.1418
1558.794428 96.266 170.0653
1570.090095 96.305 169.9943
1581.467615 96.342 169.9278
1592.927581 96.377 169.8651
1604.470591 96.409 169.8051
1616.097246 96.438 169.7473
1627.808153 96.465 169.6908
1639.603922 96.488 169.6352
1651.485168 96.508 169.5801
1663.452510 96.525 169.5254
1675.506573 96.539 169.4711
1687.647984 96.550 169.4174
1699.877377 96.558 169.3648
1712.195390 96.563 169.3140
1724.602663 96.565 169.2656
1737.099845 96.565 169.2200
1749.687587 96.563 169.1779
1762.366544 96.559 169.1395
1775.137379 96.554 169.1049
1788.000756 96.548 169.0735
1800.957346 96.541 169.0446
1814.007826 96.533 169.0163
1827.152874 96.524 168.9863
1840.393177 96.515 168.9514
1853.729425 96.506 168.9082
1867.162312 96.494 168.8539
1880.692540 96.481 168.7864
1894.320813 96.465 168.7052
1908.047843 96.446 168.6107
1921.874344 96.422 168.5048
1935.801038 96.394 168.3900
1949.828650 96.361 168.2694
1963.957912 96.322 168.1464
1978.189561 96.278 168.0242
1992.524338 96.230 167.9057
2006.962991 96.177 167.7932
2021.506272 96.120 167.6883
2036.154940 96.059 167.5921
2050.909758 95.995 167.5048
2065.771495 95.930 167.4260
2080.740927 95.862 167.3548
2095.818833 95.793 167.2898
2111.006001 95.723 167.2292
2126.303220 95.653 167.1714
2141.711290 95.583 167.1143
2157.231013 95.513 167.0562
2172.863198 95.443 166.9956
2188.608660 95.373 166.9313
2204.468221 95.303 166.8628
2220.442706 95.233 166.7899
2236.532950 95.162 166.7134
2252.739789 95.090 166.6347
2269.064070 95.017 166.5559
2285.506644 94.943 166.4799
2302.068367 94.867 166.4101
2318.750104 94.789 166.3505
2335.552723 94.710 166.3053
2352.477101 94.629 166.2791
2369.524119 94.548 166.2761
2386.694668 94.466 166.3001
2403.989641 94.385 166.3546
2421.409941 94.306 166.4418
2438.956476 94.230 166.5627
2456.630160 94.158 166.7170
2474.431915 94.091 166.9030
2492.362668 94.031 167.1171
2510.423356 93.979 167.3548
2528.614918 93.936 167.6100
2546.938304 93.902 167.8761
2565.394469 93.878 168.1454
2583.984375 93.864 168.4103
2602.708991 93.860 168.6634
2621.569293 93.866 168.8974
2640.566265 93.881 169.1060
2659.700897 93.904 169.2841
2678.974186 93.934 169.4272
2698.387137 93.970 169.5327
2717.940763 94.010 169.5988
2737.636082 94.053 169.6251
2757.474121 94.099 169.6121
2777.455915 94.145 169.5615
2797.582506 94.191 169.4753
2817.854942 94.236 169.3564
2838.274281 94.278 169.2079
2858.841586 94.317 169.0330
2879.557931 94.352 168.8353
2900.424394 94.382 168.6184
2921.442065 94.407 168.3862
2942.612039 94.425 168.1425
2963.935418 94.437 167.8916
2985.413316 94.441 167.6377
3007.046852 94.437 167.3852
3028.837153 94.425 167.1389
3050.785356 94.402 166.9040
3072.892604 94.370 166.6870
3095.160050 94.326 166.4958
3117.588856 94.270 166.3414
3140.180190 94.202 166.2364
3162.935230 94.123 166.1950
3185.855163 94.033 166.2303
3208.941182 93.935 166.3523
3232.194493 93.831 166.5649
3255.616307 93.723 166.8652
3279.207844 93.615 167.2428
3302.970336 93.509 167.6817
3326.905021 93.405 168.1621
3351.013146 93.306 168.6634
3375.295969 93.209 169.1668
3399.754755 93.115 169.6578
3424.390779 93.022 170.1268
3449.205326 92.927 170.5701
3474.199690 92.830 170.9894
3499.375173 92.727 171.3916
3524.733088 92.619 171.7872
3550.274757 92.504 172.1905
3576.001511 92.382 172.6180
3601.914692 92.253 173.0880
