* Measurement data measured by REW V5.31.3
* Source: EXCL: Headset (USB-C to 3.5mm Headphone Jack Adapter), MICROPHONE (Master Volume), 0, volume: 0.750
* Format: 256k Log Swept Sine, 1 sweep at -12.0 dBFS with no timing reference
* Dated: Apr 1, 2025 10:43:00 PM
* REW Settings:
*  C-weighting compensation: Off
*  Target level: 75.0 dB
* Note: ; 
* Measurement: K361 L8
* Smoothing: 1/6 octave
* Frequency Step: 96 ppo
* Start Frequency: 20.0 Hz
*
* Freq(Hz) SPL(dB) Phase(degrees)
20.187378 98.506 -146.7803
20.333664 98.522 -146.9644
20.481010 98.544 -147.2125
20.629424 98.572 -147.5186
20.778913 98.605 -147.8757
20.929486 98.643 -148.2767
21.081150 98.685 -148.7141
21.233912 98.732 -149.1803
21.387782 98.783 -149.6683
21.542767 98.837 -150.1711
21.698874 98.894 -150.6825
21.856113 98.954 -151.1964
22.014492 99.016 -151.7077
22.174018 99.080 -152.2116
22.334700 99.144 -152.7047
22.496546 99.208 -153.1841
22.659566 99.271 -153.6484
22.823766 99.332 -154.0971
22.989157 99.391 -154.5310
23.155745 99.445 -154.9519
23.323542 99.496 -155.3624
23.492554 99.542 -155.7657
23.662790 99.582 -156.1651
23.834261 99.616 -156.5635
24.006973 99.643 -156.9633
24.180938 99.665 -157.3655
24.356163 99.679 -157.7701
24.532658 99.688 -158.1755
24.710431 99.690 -158.5788
24.889493 99.686 -158.9763
25.069853 99.678 -159.3638
25.251519 99.665 -159.7368
25.434502 99.649 -160.0920
25.618811 99.631 -160.4272
25.804456 99.611 -160.7421
25.991445 99.591 -161.0385
26.179790 99.571 -161.3205
26.369500 99.551 -161.5940
26.560584 99.533 -161.8666
26.753053 99.515 -162.1465
26.946917 99.498 -162.4422
27.142185 99.481 -162.7611
27.338869 99.464 -163.1092
27.536977 99.446 -163.4903
27.736522 99.428 -163.9060
27.937512 99.409 -164.3553
28.139959 99.390 -164.8350
28.343872 99.371 -165.3402
28.549264 99.353 -165.8647
28.756143 99.336 -166.4016
28.964522 99.321 -166.9442
29.174411 99.309 -167.4862
29.385821 99.300 -168.0224
29.598763 99.293 -168.5486
29.813248 99.290 -169.0620
30.029287 99.288 -169.5606
30.246891 99.288 -170.0434
30.466073 99.288 -170.5103
30.686842 99.289 -170.9617
30.909212 99.289 -171.3987
31.133193 99.289 -171.8229
31.358797 99.290 -172.2369
31.586035 99.292 -172.6437
31.814921 99.295 -173.0472
32.045465 99.301 -173.4512
32.277680 99.311 -173.8596
32.511577 99.325 -174.2755
32.747169 99.342 -174.7008
32.984469 99.364 -175.1359
33.223488 99.389 -175.5797
33.464239 99.417 -176.0300
33.706735 99.447 -176.4837
33.950987 99.478 -176.9380
34.197010 99.511 -177.3904
34.444816 99.544 -177.8397
34.694417 99.576 -178.2855
34.945827 99.608 -178.7285
35.199059 99.640 -179.1695
35.454126 99.670 -179.6089
35.711041 99.698 179.9534
35.969818 99.726 179.5192
36.230470 99.751 179.0909
36.493011 99.776 178.6719
36.757455 99.799 178.2656
37.023814 99.820 177.8746
37.292104 99.841 177.5004
37.562338 99.861 177.1433
37.834530 99.880 176.8020
38.108695 99.896 176.4744
38.384846 99.911 176.1578
38.662999 99.922 175.8500
38.943167 99.930 175.5491
39.225365 99.935 175.2537
39.509608 99.935 174.9636
39.795911 99.933 174.6789
40.084289 99.927 174.4001
40.374756 99.918 174.1277
40.667328 99.906 173.8625
40.962020 99.893 173.6052
41.258848 99.877 173.3560
41.557827 99.859 173.1154
41.858972 99.840 172.8837
42.162299 99.818 172.6606
42.467824 99.795 172.4459
42.775564 99.770 172.2387
43.085533 99.745 172.0381
43.397749 99.718 171.8428
43.712227 99.691 171.6519
44.028983 99.665 171.4650
44.348036 99.638 171.2821
44.669400 99.613 171.1046
44.993093 99.588 170.9346
45.319131 99.564 170.7752
45.647532 99.540 170.6296
45.978313 99.517 170.5009
46.311491 99.495 170.3911
46.647083 99.474 170.3006
46.985107 99.454 170.2281
47.325581 99.434 170.1703
47.668521 99.416 170.1227
48.013947 99.398 170.0801
48.361876 99.381 170.0375
48.712326 99.365 169.9904
49.065315 99.350 169.9361
49.420863 99.335 169.8727
49.778987 99.322 169.7998
50.139706 99.309 169.7177
50.503039 99.297 169.6268
50.869005 99.285 169.5283
51.237623 99.274 169.4227
51.608912 99.263 169.3109
51.982891 99.253 169.1935
52.359580 99.242 169.0704
52.739000 99.231 168.9411
53.121168 99.220 168.8041
53.506106 99.209 168.6574
53.893833 99.199 168.4987
54.284370 99.190 168.3260
54.677737 99.181 168.1387
55.073955 99.174 167.9373
55.473043 99.168 167.7241
55.875024 99.162 167.5022
56.279917 99.158 167.2756
56.687745 99.154 167.0478
57.098527 99.152 166.8215
57.512287 99.150 166.5981
57.929045 99.148 166.3766
58.348822 99.148 166.1548
58.771642 99.148 165.9286
59.197525 99.150 165.6937
59.626495 99.152 165.4461
60.058573 99.155 165.1833
60.493782 99.159 164.9046
60.932145 99.164 164.6114
61.373685 99.170 164.3064
61.818424 99.178 163.9935
62.266386 99.186 163.6764
62.717593 99.196 163.3586
63.172071 99.207 163.0425
63.629842 99.218 162.7297
64.090930 99.231 162.4209
64.555359 99.243 162.1158
65.023154 99.256 161.8138
65.494339 99.269 161.5140
65.968938 99.281 161.2163
66.446976 99.293 160.9205
66.928478 99.303 160.6269
67.413469 99.312 160.3362
67.901975 99.319 160.0492
68.394021 99.324 159.7665
68.889632 99.326 159.4892
69.388835 99.325 159.2182
69.891655 99.322 158.9548
70.398118 99.316 158.7003
70.908252 99.307 158.4561
71.422083 99.295 158.2238
71.939636 99.280 158.0046
72.460941 99.264 157.8000
72.986023 99.244 157.6106
73.514909 99.223 157.4369
74.047629 99.200 157.2788
74.584208 99.175 157.1356
75.124676 99.150 157.0064
75.669061 99.123 156.8895
76.217390 99.097 156.7830
76.769692 99.070 156.6846
77.325997 99.044 156.5919
77.886333 99.017 156.5027
78.450730 98.992 156.4152
79.019216 98.966 156.3278
79.591822 98.941 156.2399
80.168577 98.916 156.1512
80.749512 98.891 156.0617
81.334656 98.867 155.9719
81.924040 98.843 155.8824
82.517696 98.819 155.7935
83.115653 98.797 155.7058
83.717943 98.776 155.6195
84.324598 98.756 155.5346
84.935649 98.738 155.4509
85.551128 98.721 155.3678
86.171066 98.707 155.2840
86.795497 98.695 155.1980
87.424453 98.684 155.1078
88.057967 98.676 155.0115
88.696071 98.669 154.9072
89.338800 98.664 154.7937
89.986185 98.659 154.6698
90.638262 98.656 154.5350
91.295065 98.654 154.3885
91.956626 98.653 154.2299
92.622982 98.652 154.0586
93.294166 98.651 153.8744
93.970214 98.651 153.6768
94.651161 98.651 153.4656
95.337042 98.650 153.2408
96.027894 98.649 153.0024
96.723752 98.648 152.7505
97.424652 98.647 152.4855
98.130631 98.646 152.2076
98.841726 98.645 151.9174
99.557974 98.644 151.6151
100.279412 98.642 151.3009
101.006078 98.641 150.9748
101.738010 98.641 150.6367
102.475245 98.640 150.2863
103.217823 98.639 149.9235
103.965782 98.638 149.5484
104.719161 98.637 149.1613
105.477999 98.635 148.7626
106.242336 98.632 148.3527
107.012212 98.629 147.9321
107.787666 98.624 147.5015
108.568740 98.618 147.0616
109.355474 98.610 146.6133
110.147909 98.600 146.1573
110.946086 98.588 145.6946
111.750047 98.574 145.2260
112.559834 98.558 144.7524
113.375489 98.539 144.2752
114.197055 98.517 143.7957
115.024574 98.492 143.3155
115.858089 98.464 142.8365
116.697645 98.432 142.3606
117.543284 98.397 141.8896
118.395051 98.357 141.4255
119.252990 98.314 140.9705
120.117147 98.266 140.5270
120.987565 98.214 140.0974
121.864291 98.157 139.6844
122.747370 98.097 139.2906
123.636848 98.033 138.9192
124.532771 97.965 138.5729
125.435187 97.893 138.2547
126.344142 97.819 137.9673
127.259684 97.743 137.7132
128.181860 97.664 137.4943
129.110718 97.583 137.3123
130.046308 97.502 137.1680
130.988677 97.421 137.0618
131.937875 97.339 136.9931
132.893951 97.259 136.9603
133.856956 97.180 136.9609
134.826938 97.102 136.9917
135.803950 97.027 137.0487
136.788041 96.955 137.1279
137.779264 96.885 137.2250
138.777669 96.819 137.3356
139.783309 96.756 137.4557
140.796237 96.696 137.5811
141.816504 96.640 137.7083
142.844165 96.586 137.8339
143.879273 96.536 137.9553
144.921881 96.488 138.0699
145.972045 96.443 138.1760
147.029819 96.400 138.2725
148.095257 96.358 138.3587
149.168417 96.318 138.4346
150.249353 96.279 138.5007
151.338121 96.242 138.5576
152.434780 96.205 138.6063
153.539385 96.168 138.6479
154.651995 96.133 138.6833
155.772667 96.098 138.7130
156.901460 96.063 138.7375
158.038432 96.029 138.7571
159.183644 95.996 138.7719
160.337154 95.964 138.7819
161.499023 95.932 138.7868
162.669312 95.902 138.7866
163.848081 95.873 138.7808
165.035392 95.845 138.7692
166.231306 95.818 138.7511
167.435887 95.792 138.7261
168.649196 95.767 138.6933
169.871298 95.742 138.6522
171.102255 95.718 138.6022
172.342133 95.694 138.5430
173.590995 95.669 138.4745
174.848907 95.644 138.3968
176.115934 95.619 138.3104
177.392143 95.592 138.2158
178.677599 95.564 138.1139
179.972371 95.534 138.0054
181.276525 95.503 137.8915
182.590129 95.470 137.7731
183.913252 95.435 137.6515
185.245964 95.399 137.5276
186.588332 95.361 137.4026
187.940428 95.322 137.2778
189.302322 95.281 137.1543
190.674085 95.239 137.0332
192.055788 95.196 136.9153
193.447503 95.151 136.8016
194.849303 95.105 136.6927
196.261262 95.058 136.5894
197.683452 95.010 136.4925
199.115948 94.960 136.4030
200.558824 94.909 136.3218
202.012156 94.857 136.2497
203.476019 94.804 136.1871
204.950490 94.750 136.1342
206.435646 94.695 136.0909
207.931564 94.639 136.0573
209.438322 94.583 136.0338
210.955998 94.527 136.0208
212.484672 94.471 136.0187
214.024424 94.415 136.0283
215.575333 94.360 136.0501
217.137481 94.307 136.0847
218.710948 94.254 136.1323
220.295818 94.203 136.1929
221.892172 94.155 136.2657
223.500094 94.109 136.3494
225.119668 94.065 136.4421
226.750978 94.025 136.5415
228.394109 93.987 136.6453
230.049147 93.953 136.7512
231.716178 93.921 136.8575
233.395289 93.891 136.9627
235.086567 93.864 137.0661
236.790102 93.839 137.1674
238.505980 93.815 137.2672
240.234293 93.792 137.3658
241.975130 93.771 137.4643
243.728581 93.751 137.5633
245.494739 93.731 137.6633
247.273695 93.713 137.7650
249.065542 93.695 137.8686
250.870374 93.678 137.9745
252.688284 93.661 138.0833
254.519367 93.644 138.1956
256.363720 93.628 138.3124
258.221437 93.612 138.4351
260.092616 93.596 138.5651
261.977354 93.581 138.7044
263.875750 93.565 138.8549
265.787903 93.551 139.0179
267.713911 93.538 139.1948
269.653877 93.527 139.3853
271.607900 93.518 139.5885
273.576083 93.512 139.8021
275.558528 93.509 140.0224
277.555338 93.511 140.2444
279.566619 93.516 140.4623
281.592474 93.526 140.6693
283.633009 93.540 140.8588
285.688331 93.557 141.0248
287.758546 93.577 141.1629
289.843763 93.599 141.2703
291.944090 93.622 141.3464
294.059638 93.645 141.3923
296.190515 93.667 141.4107
298.336833 93.688 141.4058
300.498705 93.707 141.3821
302.676243 93.724 141.3447
304.869559 93.738 141.2986
307.078770 93.751 141.2482
309.303989 93.761 141.1974
311.545334 93.769 141.1495
313.802919 93.775 141.1070
316.076865 93.780 141.0714
318.367288 93.783 141.0437
320.674309 93.786 141.0245
322.998047 93.787 141.0135
325.338624 93.789 141.0105
327.696162 93.789 141.0145
330.070783 93.789 141.0248
332.462612 93.789 141.0404
334.871773 93.788 141.0603
337.298392 93.787 141.0839
339.742595 93.785 141.1104
342.204510 93.782 141.1395
344.684265 93.778 141.1710
347.181989 93.774 141.2047
349.697813 93.769 141.2408
352.231868 93.763 141.2791
354.784285 93.755 141.3198
357.355198 93.747 141.3630
359.944741 93.739 141.4089
362.553049 93.729 141.4576
365.180258 93.719 141.5093
367.826505 93.708 141.5639
370.491927 93.697 141.6215
373.176665 93.685 141.6817
375.880856 93.673 141.7442
378.604644 93.662 141.8087
381.348169 93.650 141.8745
384.111575 93.639 141.9411
386.895006 93.628 142.0081
389.698607 93.617 142.0750
392.522524 93.607 142.1417
395.366904 93.597 142.2080
398.231895 93.587 142.2742
401.117648 93.577 142.3405
404.024312 93.567 142.4073
406.952038 93.557 142.4752
409.900981 93.546 142.5445
412.871292 93.534 142.6154
415.863128 93.521 142.6880
418.876643 93.508 142.7623
421.911996 93.493 142.8378
424.969344 93.477 142.9143
428.048847 93.460 142.9916
431.150666 93.441 143.0692
434.274961 93.422 143.1472
437.421897 93.402 143.2252
440.591636 93.381 143.3035
443.784345 93.360 143.3820
447.000189 93.338 143.4608
450.239337 93.316 143.5399
453.501956 93.294 143.6197
456.788219 93.273 143.7002
460.098294 93.251 143.7816
463.432356 93.230 143.8638
466.790578 93.211 143.9469
470.173135 93.192 144.0310
473.580203 93.174 144.1160
477.011961 93.157 144.2020
480.468586 93.142 144.2888
483.950259 93.128 144.3761
487.457163 93.116 144.4636
490.989478 93.105 144.5507
494.547390 93.096 144.6368
498.131084 93.089 144.7213
501.740748 93.084 144.8033
505.376568 93.080 144.8824
509.038735 93.079 144.9578
512.727439 93.080 145.0291
516.442874 93.084 145.0961
520.185232 93.090 145.1584
523.954708 93.098 145.2158
527.751500 93.109 145.2683
531.575805 93.123 145.3157
535.427822 93.139 145.3579
539.307753 93.158 145.3950
543.215800 93.180 145.4268
547.152165 93.204 145.4532
551.117055 93.231 145.4741
555.110677 93.260 145.4894
559.133237 93.291 145.4990
563.184947 93.324 145.5026
567.266018 93.359 145.5000
571.376661 93.395 145.4912
575.517092 93.433 145.4758
579.687526 93.471 145.4536
583.888181 93.511 145.4243
588.119275 93.551 145.3876
592.381030 93.591 145.3432
596.673667 93.631 145.2908
600.997410 93.670 145.2302
605.352485 93.709 145.1614
609.739119 93.746 145.0844
614.157540 93.782 144.9995
618.607979 93.817 144.9070
623.090667 93.849 144.8074
627.605839 93.879 144.7012
632.153730 93.908 144.5891
636.734576 93.934 144.4717
641.348617 93.957 144.3497
645.996094 93.979 144.2236
650.677248 93.998 144.0941
655.392323 94.016 143.9615
660.141566 94.031 143.8264
664.925224 94.045 143.6890
669.743546 94.057 143.5494
674.596784 94.067 143.4078
679.485191 94.076 143.2643
684.409020 94.083 143.1189
689.368530 94.088 142.9719
694.363979 94.093 142.8234
699.395626 94.095 142.6735
704.463736 94.096 142.5225
709.568570 94.096 142.3703
714.710396 94.094 142.2172
719.889483 94.090 142.0630
725.106099 94.085 141.9078
730.360516 94.078 141.7515
735.653010 94.070 141.5937
740.983855 94.060 141.4343
746.353329 94.049 141.2730
751.761713 94.035 141.1095
757.209288 94.021 140.9434
762.696339 94.005 140.7746
768.223151 93.987 140.6027
773.790013 93.968 140.4275
779.397214 93.948 140.2488
785.045047 93.927 140.0665
790.733808 93.904 139.8801
796.463791 93.881 139.6896
802.235296 93.857 139.4944
808.048623 93.832 139.2943
813.904077 93.807 139.0887
819.801961 93.781 138.8773
825.742584 93.755 138.6597
831.726255 93.728 138.4359
837.753287 93.700 138.2057
843.823992 93.671 137.9697
849.938689 93.642 137.7282
856.097695 93.610 137.4821
862.301332 93.577 137.2327
868.549922 93.542 136.9815
874.843793 93.504 136.7308
881.183272 93.464 136.4833
887.568689 93.420 136.2428
894.000378 93.372 136.0139
900.478673 93.321 135.8022
907.003913 93.266 135.6145
913.576437 93.207 135.4585
920.196588 93.146 135.3427
926.864712 93.082 135.2757
933.581156 93.017 135.2659
940.346270 92.953 135.3203
947.160407 92.892 135.4431
954.023921 92.836 135.6351
960.937172 92.788 135.8925
967.900519 92.749 136.2064
974.914325 92.723 136.5638
981.978956 92.709 136.9485
989.094780 92.709 137.3432
996.262169 92.722 137.7317
1003.481495 92.747 138.1003
1010.753136 92.783 138.4394
1018.077470 92.829 138.7430
1025.454879 92.882 139.0089
1032.885748 92.943 139.2368
1040.370463 93.009 139.4282
1047.909417 93.080 139.5842
1055.503000 93.156 139.7059
1063.151610 93.236 139.7932
1070.855645 93.319 139.8449
1078.615506 93.405 139.8598
1086.431599 93.493 139.8365
1094.304330 93.583 139.7743
1102.234110 93.672 139.6736
1110.221353 93.760 139.5360
1118.266475 93.846 139.3641
1126.369895 93.930 139.1616
1134.532035 94.011 138.9326
1142.753322 94.088 138.6816
1151.034184 94.162 138.4128
1159.375052 94.232 138.1301
1167.776361 94.299 137.8371
1176.238550 94.362 137.5367
1184.762060 94.422 137.2311
1193.347334 94.479 136.9223
1201.994821 94.533 136.6119
1210.704971 94.585 136.3010
1219.478238 94.635 135.9906
1228.315080 94.682 135.6817
1237.215957 94.728 135.3752
1246.181334 94.772 135.0717
1255.211678 94.814 134.7722
1264.307459 94.855 134.4772
1273.469152 94.894 134.1872
1282.697235 94.932 133.9027
1291.992188 94.969 133.6239
1301.354495 95.005 133.3511
1310.784647 95.039 133.0845
1320.283132 95.073 132.8241
1329.850448 95.106 132.5701
1339.487093 95.138 132.3225
1349.193569 95.170 132.0815
1358.970381 95.201 131.8472
1368.818041 95.232 131.6198
1378.737061 95.263 131.3994
1388.727958 95.295 131.1859
1398.791253 95.327 130.9795
1408.927471 95.360 130.7799
1419.137140 95.394 130.5869
1429.420793 95.430 130.4001
1439.778965 95.467 130.2193
1450.212197 95.506 130.0438
1460.721033 95.546 129.8732
1471.306019 95.587 129.7068
1481.967709 95.630 129.5442
1492.706658 95.674 129.3849
1503.523426 95.718 129.2289
1514.418576 95.762 129.0762
1525.392678 95.806 128.9273
1536.446302 95.849 128.7826
1547.580025 95.891 128.6426
1558.794428 95.932 128.5075
1570.090095 95.970 128.3777
1581.467615 96.007 128.2531
1592.927581 96.042 128.1332
1604.470591 96.073 128.0177
1616.097246 96.103 127.9060
1627.808153 96.129 127.7972
1639.603922 96.152 127.6908
1651.485168 96.173 127.5860
1663.452510 96.190 127.4822
1675.506573 96.205 127.3792
1687.647984 96.217 127.2768
1699.877377 96.226 127.1748
1712.195390 96.232 127.0737
1724.602663 96.236 126.9735
1737.099845 96.238 126.8748
1749.687587 96.237 126.7779
1762.366544 96.235 126.6833
1775.137379 96.231 126.5911
1788.000756 96.226 126.5012
1800.957346 96.220 126.4131
1814.007826 96.212 126.3254
1827.152874 96.204 126.2359
1840.393177 96.195 126.1419
1853.729425 96.185 126.0405
1867.162312 96.173 125.9292
1880.692540 96.158 125.8068
1894.320813 96.140 125.6732
1908.047843 96.119 125.5294
1921.874344 96.093 125.3780
1935.801038 96.062 125.2218
1949.828650 96.026 125.0643
1963.957912 95.985 124.9091
1978.189561 95.939 124.7592
1992.524338 95.888 124.6174
2006.962991 95.832 124.4860
2021.506272 95.771 124.3665
2036.154940 95.708 124.2596
2050.909758 95.640 124.1657
2065.771495 95.571 124.0845
2080.740927 95.499 124.0151
2095.818833 95.425 123.9567
2111.006001 95.351 123.9080
2126.303220 95.275 123.8679
2141.711290 95.200 123.8350
2157.231013 95.124 123.8085
2172.863198 95.048 123.7874
2188.608660 94.972 123.7711
2204.468221 94.897 123.7595
2220.442706 94.822 123.7526
2236.532950 94.747 123.7510
2252.739789 94.673 123.7556
2269.064070 94.598 123.7677
2285.506644 94.525 123.7890
2302.068367 94.451 123.8214
2318.750104 94.378 123.8670
2335.552723 94.306 123.9282
2352.477101 94.235 124.0072
2369.524119 94.165 124.1061
2386.694668 94.098 124.2265
2403.989641 94.034 124.3697
2421.409941 93.973 124.5362
2438.956476 93.917 124.7257
2456.630160 93.866 124.9370
2474.431915 93.821 125.1678
2492.362668 93.783 125.4149
2510.423356 93.753 125.6741
2528.614918 93.732 125.9401
2546.938304 93.718 126.2073
2565.394469 93.714 126.4695
2583.984375 93.718 126.7203
2602.708991 93.731 126.9536
2621.569293 93.752 127.1636
2640.566265 93.780 127.3452
2659.700897 93.814 127.4942
2678.974186 93.853 127.6073
2698.387137 93.897 127.6826
2717.940763 93.943 127.7194
2737.636082 93.991 127.7179
2757.474121 94.040 127.6797
2777.455915 94.088 127.6076
2797.582506 94.133 127.5049
2817.854942 94.176 127.3759
2838.274281 94.215 127.2254
2858.841586 94.249 127.0588
2879.557931 94.278 126.8817
2900.424394 94.301 126.7002
2921.442065 94.318 126.5203
2942.612039 94.328 126.3480
2963.935418 94.331 126.1890
2985.413316 94.327 126.0486
3007.046852 94.317 125.9312
3028.837153 94.299 125.8407
3050.785356 94.274 125.7798
3072.892604 94.242 125.7516
3095.160050 94.201 125.7597
3117.588856 94.153 125.8091
3140.180190 94.097 125.9064
3162.935230 94.033 126.0594
3185.855163 93.963 126.2754
3208.941182 93.886 126.5592
3232.194493 93.805 126.9119
3255.616307 93.722 127.3293
3279.207844 93.638 127.8023
3302.970336 93.556 128.3174
3326.905021 93.475 128.8587
3351.013146 93.396 129.4092
3375.295969 93.319 129.9533
3399.754755 93.243 130.4781
3424.390779 93.167 130.9745
3449.205326 93.088 131.4375
3474.199690 93.006 131.8666
3499.375173 92.919 132.2658
3524.733088 92.824 132.6430
3550.274757 92.722 133.0099
3576.001511 92.610 133.3819
3601.914692 92.488 133.7772
3628.015651 92.357 134.2169
3654.305748 92.217 134.7241
