* Measurement data measured by REW V5.31.3
* Source: EXCL: Headset (USB-C to 3.5mm Headphone Jack Adapter), MICROPHONE (Master Volume), 0, volume: 0.750
* Format: 256k Log Swept Sine, 1 sweep at -12.0 dBFS with no timing reference
* Dated: Apr 7, 2025 5:00:16 PM
* REW Settings:
*  C-weighting compensation: Off
*  Target level: 75.0 dB
* Note: ; 
* Measurement: Maxwell (Wired) R4
* Smoothing: 1/6 octave
* Frequency Step: 96 ppo
* Start Frequency: 20.0 Hz
*
* Freq(Hz) SPL(dB) Phase(degrees)
20.187378 81.741 10.3929
20.333664 81.894 9.7065
20.481010 82.091 8.8162
20.629424 82.320 7.7686
20.778913 82.569 6.6087
20.929486 82.827 5.3754
21.081150 83.088 4.0992
21.233912 83.343 2.8017
21.387782 83.588 1.4973
21.542767 83.820 0.1943
21.698874 84.037 -1.1028
21.856113 84.236 -2.3922
22.014492 84.418 -3.6730
22.174018 84.581 -4.9444
22.334700 84.725 -6.2048
22.496546 84.850 -7.4511
22.659566 84.954 -8.6789
22.823766 85.037 -9.8823
22.989157 85.098 -11.0545
23.155745 85.137 -12.1880
23.323542 85.154 -13.2759
23.492554 85.147 -14.3123
23.662790 85.118 -15.2938
23.834261 85.066 -16.2203
24.006973 84.992 -17.0959
24.180938 84.896 -17.9299
24.356163 84.779 -18.7373
24.532658 84.642 -19.5391
24.710431 84.486 -20.3629
24.889493 84.311 -21.2429
25.069853 84.117 -22.2202
25.251519 83.907 -23.3437
25.434502 83.680 -24.6709
25.618811 83.440 -26.2702
25.804456 83.189 -28.2232
25.991445 82.933 -30.6277
26.179790 82.681 -33.5980
26.369500 82.445 -37.2612
26.560584 82.244 -41.7407
26.753053 82.097 -47.1204
26.946917 82.026 -53.3827
27.142185 82.052 -60.3377
27.338869 82.186 -67.5914
27.536977 82.428 -74.6137
27.736522 82.768 -80.8958
27.937512 83.184 -86.0948
28.139959 83.651 -90.0790
28.343872 84.141 -92.8819
28.549264 84.631 -94.6289
28.756143 85.101 -95.4794
28.964522 85.536 -95.5937
29.174411 85.923 -95.1193
29.385821 86.255 -94.1876
29.598763 86.525 -92.9150
29.813248 86.729 -91.4065
30.029287 86.864 -89.7599
30.246891 86.929 -88.0697
30.466073 86.925 -86.4315
30.686842 86.853 -84.9456
30.909212 86.717 -83.7207
31.133193 86.526 -82.8757
31.358797 86.288 -82.5387
31.586035 86.021 -82.8401
31.814921 85.743 -83.8957
32.045465 85.479 -85.7759
32.277680 85.255 -88.4620
32.511577 85.095 -91.8051
32.747169 85.014 -95.5187
32.984469 85.016 -99.2308
33.223488 85.091 -102.5850
33.464239 85.219 -105.3319
33.706735 85.375 -107.3667
33.950987 85.534 -108.7096
34.197010 85.676 -109.4629
34.444816 85.786 -109.7703
34.694417 85.856 -109.7887
34.945827 85.883 -109.6720
35.199059 85.870 -109.5601
35.454126 85.824 -109.5718
35.711041 85.757 -109.7967
35.969818 85.683 -110.2867
36.230470 85.614 -111.0493
36.493011 85.565 -112.0458
36.757455 85.544 -113.1980
37.023814 85.553 -114.4045
37.292104 85.591 -115.5639
37.562338 85.651 -116.5969
37.834530 85.723 -117.4610
38.108695 85.797 -118.1541
38.384846 85.865 -118.7089
38.662999 85.923 -119.1810
38.943167 85.968 -119.6352
39.225365 86.002 -120.1322
39.509608 86.029 -120.7170
39.795911 86.054 -121.4120
40.084289 86.083 -122.2142
40.374756 86.120 -123.0987
40.667328 86.166 -124.0260
40.962020 86.223 -124.9542
41.258848 86.286 -125.8490
41.557827 86.353 -126.6918
41.858972 86.419 -127.4823
42.162299 86.481 -128.2366
42.467824 86.538 -128.9813
42.775564 86.588 -129.7473
43.085533 86.634 -130.5629
43.397749 86.677 -131.4481
43.712227 86.720 -132.4127
44.028983 86.764 -133.4550
44.348036 86.810 -134.5647
44.669400 86.856 -135.7261
44.993093 86.901 -136.9230
45.319131 86.943 -138.1424
45.647532 86.981 -139.3760
45.978313 87.012 -140.6210
46.311491 87.038 -141.8782
46.647083 87.058 -143.1496
46.985107 87.072 -144.4360
47.325581 87.081 -145.7357
47.668521 87.084 -147.0442
48.013947 87.079 -148.3548
48.361876 87.067 -149.6606
48.712326 87.044 -150.9559
49.065315 87.011 -152.2364
49.420863 86.967 -153.4995
49.778987 86.912 -154.7428
50.139706 86.846 -155.9637
50.503039 86.772 -157.1584
50.869005 86.691 -158.3224
51.237623 86.602 -159.4511
51.608912 86.508 -160.5416
51.982891 86.407 -161.5927
52.359580 86.301 -162.6055
52.739000 86.190 -163.5827
53.121168 86.074 -164.5273
53.506106 85.954 -165.4413
53.893833 85.831 -166.3250
54.284370 85.707 -167.1768
54.677737 85.584 -167.9934
55.073955 85.463 -168.7707
55.473043 85.344 -169.5050
55.875024 85.230 -170.1930
56.279917 85.120 -170.8330
56.687745 85.014 -171.4246
57.098527 84.914 -171.9687
57.512287 84.818 -172.4674
57.929045 84.727 -172.9247
58.348822 84.640 -173.3463
58.771642 84.557 -173.7397
59.197525 84.475 -174.1138
59.626495 84.394 -174.4767
60.058573 84.312 -174.8354
60.493782 84.229 -175.1941
60.932145 84.143 -175.5547
61.373685 84.057 -175.9171
61.818424 83.971 -176.2796
62.266386 83.887 -176.6393
62.717593 83.806 -176.9926
63.172071 83.730 -177.3353
63.629842 83.658 -177.6640
64.090930 83.592 -177.9770
64.555359 83.533 -178.2751
65.023154 83.480 -178.5608
65.494339 83.433 -178.8377
65.968938 83.392 -179.1091
66.446976 83.356 -179.3767
66.928478 83.326 -179.6403
67.413469 83.299 -179.8983
67.901975 83.276 179.8516
68.394021 83.256 179.6114
68.889632 83.238 179.3826
69.388835 83.222 179.1658
69.891655 83.207 178.9614
70.398118 83.194 178.7702
70.908252 83.180 178.5932
71.422083 83.167 178.4311
71.939636 83.154 178.2835
72.460941 83.141 178.1481
72.986023 83.128 178.0205
73.514909 83.114 177.8946
74.047629 83.100 177.7633
74.584208 83.086 177.6202
75.124676 83.071 177.4610
75.669061 83.054 177.2838
76.217390 83.036 177.0891
76.769692 83.016 176.8785
77.325997 82.995 176.6541
77.886333 82.974 176.4169
78.450730 82.951 176.1677
79.019216 82.928 175.9068
79.591822 82.905 175.6342
80.168577 82.881 175.3500
80.749512 82.857 175.0551
81.334656 82.833 174.7504
81.924040 82.807 174.4373
82.517696 82.779 174.1168
83.115653 82.751 173.7889
83.717943 82.721 173.4534
84.324598 82.689 173.1089
84.935649 82.656 172.7550
85.551128 82.622 172.3914
86.171066 82.586 172.0194
86.795497 82.549 171.6414
87.424453 82.510 171.2608
88.057967 82.470 170.8812
88.696071 82.429 170.5056
89.338800 82.386 170.1359
89.986185 82.342 169.7730
90.638262 82.296 169.4170
91.295065 82.249 169.0674
91.956626 82.201 168.7236
92.622982 82.152 168.3854
93.294166 82.102 168.0527
93.970214 82.051 167.7263
94.651161 81.998 167.4075
95.337042 81.944 167.0982
96.027894 81.890 166.8002
96.723752 81.834 166.5146
97.424652 81.777 166.2424
98.130631 81.721 165.9835
98.841726 81.664 165.7378
99.557974 81.608 165.5051
100.279412 81.553 165.2856
101.006078 81.498 165.0791
101.738010 81.445 164.8854
102.475245 81.393 164.7031
103.217823 81.342 164.5300
103.965782 81.293 164.3632
104.719161 81.247 164.1998
105.477999 81.204 164.0371
106.242336 81.164 163.8734
107.012212 81.128 163.7076
107.787666 81.096 163.5400
108.568740 81.067 163.3717
109.355474 81.041 163.2041
110.147909 81.018 163.0387
110.946086 80.997 162.8769
111.750047 80.977 162.7197
112.559834 80.959 162.5677
113.375489 80.941 162.4214
114.197055 80.923 162.2802
115.024574 80.906 162.1435
115.858089 80.890 162.0102
116.697645 80.874 161.8789
117.543284 80.860 161.7479
118.395051 80.847 161.6149
119.252990 80.837 161.4771
120.117147 80.829 161.3318
120.987565 80.823 161.1764
121.864291 80.819 161.0087
122.747370 80.817 160.8275
123.636848 80.815 160.6320
124.532771 80.813 160.4221
125.435187 80.810 160.1978
126.344142 80.806 159.9594
127.259684 80.801 159.7075
128.181860 80.793 159.4421
129.110718 80.783 159.1631
130.046308 80.770 158.8699
130.988677 80.755 158.5612
131.937875 80.737 158.2366
132.893951 80.716 157.8964
133.856956 80.691 157.5424
134.826938 80.661 157.1784
135.803950 80.627 156.8093
136.788041 80.588 156.4408
137.779264 80.543 156.0781
138.777669 80.492 155.7256
139.783309 80.437 155.3860
140.796237 80.376 155.0605
141.816504 80.310 154.7496
142.844165 80.239 154.4530
143.879273 80.165 154.1703
144.921881 80.086 153.9012
145.972045 80.003 153.6451
147.029819 79.917 153.4018
148.095257 79.828 153.1715
149.168417 79.736 152.9548
150.249353 79.643 152.7529
151.338121 79.548 152.5677
152.434780 79.451 152.4014
153.539385 79.353 152.2568
154.651995 79.253 152.1371
155.772667 79.153 152.0450
156.901460 79.052 151.9836
158.038432 78.950 151.9556
159.183644 78.849 151.9632
160.337154 78.749 152.0077
161.499023 78.650 152.0897
162.669312 78.553 152.2091
163.848081 78.457 152.3652
165.035392 78.365 152.5573
166.231306 78.275 152.7841
167.435887 78.189 153.0440
168.649196 78.107 153.3351
169.871298 78.029 153.6550
171.102255 77.955 154.0012
172.342133 77.887 154.3711
173.590995 77.823 154.7621
174.848907 77.763 155.1709
176.115934 77.708 155.5938
177.392143 77.656 156.0265
178.677599 77.607 156.4650
179.972371 77.562 156.9059
181.276525 77.520 157.3461
182.590129 77.482 157.7838
183.913252 77.447 158.2175
185.245964 77.415 158.6461
186.588332 77.388 159.0690
187.940428 77.364 159.4851
189.302322 77.344 159.8934
190.674085 77.328 160.2924
192.055788 77.317 160.6802
193.447503 77.310 161.0550
194.849303 77.306 161.4142
196.261262 77.307 161.7556
197.683452 77.311 162.0766
199.115948 77.318 162.3748
200.558824 77.327 162.6484
202.012156 77.337 162.8964
203.476019 77.348 163.1189
204.950490 77.358 163.3184
206.435646 77.367 163.4985
207.931564 77.375 163.6638
209.438322 77.383 163.8182
210.955998 77.389 163.9652
212.484672 77.395 164.1071
214.024424 77.400 164.2459
215.575333 77.405 164.3833
217.137481 77.410 164.5210
218.710948 77.417 164.6602
220.295818 77.425 164.8014
221.892172 77.434 164.9445
223.500094 77.445 165.0888
225.119668 77.458 165.2335
226.750978 77.471 165.3777
228.394109 77.485 165.5204
230.049147 77.500 165.6613
231.716178 77.515 165.8005
233.395289 77.531 165.9388
235.086567 77.547 166.0773
236.790102 77.564 166.2172
238.505980 77.583 166.3597
240.234293 77.604 166.5051
241.975130 77.626 166.6533
243.728581 77.651 166.8036
245.494739 77.678 166.9549
247.273695 77.708 167.1062
249.065542 77.740 167.2569
250.870374 77.775 167.4070
252.688284 77.811 167.5569
254.519367 77.850 167.7072
256.363720 77.890 167.8581
258.221437 77.931 168.0096
260.092616 77.975 168.1609
261.977354 78.019 168.3103
263.875750 78.066 168.4551
265.787903 78.115 168.5915
267.713911 78.165 168.7156
269.653877 78.218 168.8245
271.607900 78.271 168.9164
273.576083 78.326 168.9913
275.558528 78.381 169.0499
277.555338 78.436 169.0941
279.566619 78.492 169.1257
281.592474 78.549 169.1461
283.633009 78.606 169.1560
285.688331 78.663 169.1557
287.758546 78.721 169.1447
289.843763 78.779 169.1225
291.944090 78.836 169.0887
294.059638 78.894 169.0430
296.190515 78.951 168.9857
298.336833 79.007 168.9171
300.498705 79.064 168.8381
302.676243 79.120 168.7497
304.869559 79.176 168.6529
307.078770 79.232 168.5484
309.303989 79.288 168.4368
311.545334 79.345 168.3184
313.802919 79.401 168.1933
316.076865 79.458 168.0619
318.367288 79.515 167.9242
320.674309 79.572 167.7800
322.998047 79.629 167.6291
325.338624 79.686 167.4708
327.696162 79.742 167.3046
330.070783 79.797 167.1300
332.462612 79.851 166.9469
334.871773 79.904 166.7549
337.298392 79.955 166.5538
339.742595 80.004 166.3433
342.204510 80.052 166.1235
344.684265 80.098 165.8947
347.181989 80.142 165.6572
349.697813 80.184 165.4118
352.231868 80.224 165.1592
354.784285 80.262 164.9000
357.355198 80.298 164.6346
359.944741 80.332 164.3630
362.553049 80.364 164.0855
365.180258 80.394 163.8022
367.826505 80.422 163.5132
370.491927 80.448 163.2181
373.176665 80.472 162.9169
375.880856 80.495 162.6089
378.604644 80.515 162.2941
381.348169 80.533 161.9728
384.111575 80.550 161.6457
386.895006 80.564 161.3141
389.698607 80.576 160.9795
392.522524 80.585 160.6434
395.366904 80.592 160.3075
398.231895 80.596 159.9735
401.117648 80.598 159.6436
404.024312 80.596 159.3201
406.952038 80.592 159.0055
409.900981 80.584 158.7023
412.871292 80.575 158.4127
415.863128 80.563 158.1382
418.876643 80.550 157.8795
421.911996 80.535 157.6363
424.969344 80.519 157.4072
428.048847 80.503 157.1899
431.150666 80.487 156.9814
434.274961 80.472 156.7779
437.421897 80.456 156.5757
440.591636 80.442 156.3713
443.784345 80.427 156.1617
447.000189 80.413 155.9446
450.239337 80.399 155.7184
453.501956 80.384 155.4828
456.788219 80.370 155.2375
460.098294 80.354 154.9836
463.432356 80.339 154.7219
466.790578 80.322 154.4539
470.173135 80.305 154.1812
473.580203 80.287 153.9051
477.011961 80.270 153.6268
480.468586 80.251 153.3469
483.950259 80.233 153.0656
487.457163 80.215 152.7828
490.989478 80.198 152.4976
494.547390 80.181 152.2094
498.131084 80.164 151.9169
501.740748 80.148 151.6194
505.376568 80.133 151.3159
509.038735 80.119 151.0055
512.727439 80.105 150.6878
516.442874 80.092 150.3624
520.185232 80.079 150.0293
523.954708 80.067 149.6888
527.751500 80.055 149.3415
531.575805 80.042 148.9882
535.427822 80.030 148.6301
539.307753 80.017 148.2686
543.215800 80.005 147.9049
547.152165 79.991 147.5407
551.117055 79.978 147.1776
555.110677 79.964 146.8172
559.133237 79.949 146.4615
563.184947 79.933 146.1127
567.266018 79.917 145.7728
571.376661 79.899 145.4435
575.517092 79.881 145.1268
579.687526 79.862 144.8241
583.888181 79.841 144.5367
588.119275 79.820 144.2655
592.381030 79.799 144.0109
596.673667 79.776 143.7730
600.997410 79.754 143.5511
605.352485 79.730 143.3441
609.739119 79.707 143.1501
614.157540 79.683 142.9673
618.607979 79.658 142.7932
623.090667 79.633 142.6247
627.605839 79.607 142.4592
632.153730 79.581 142.2936
636.734576 79.553 142.1255
641.348617 79.524 141.9524
645.996094 79.493 141.7728
650.677248 79.461 141.5855
655.392323 79.426 141.3902
660.141566 79.389 141.1870
664.925224 79.349 140.9766
669.743546 79.306 140.7603
674.596784 79.259 140.5401
679.485191 79.208 140.3187
684.409020 79.152 140.0994
689.368530 79.091 139.8864
694.363979 79.025 139.6845
699.395626 78.953 139.4987
704.463736 78.876 139.3348
709.568570 78.793 139.1983
714.710396 78.705 139.0948
719.889483 78.613 139.0293
725.106099 78.516 139.0067
730.360516 78.415 139.0310
735.653010 78.312 139.1057
740.983855 78.206 139.2332
746.353329 78.100 139.4153
751.761713 77.993 139.6528
757.209288 77.886 139.9457
762.696339 77.782 140.2930
768.223151 77.681 140.6927
773.790013 77.584 141.1414
779.397214 77.492 141.6348
785.045047 77.406 142.1673
790.733808 77.328 142.7324
796.463791 77.257 143.3228
802.235296 77.195 143.9306
808.048623 77.141 144.5480
813.904077 77.097 145.1672
819.801961 77.061 145.7810
825.742584 77.034 146.3833
831.726255 77.016 146.9690
837.753287 77.005 147.5341
843.823992 77.002 148.0754
849.938689 77.005 148.5910
856.097695 77.015 149.0795
862.301332 77.030 149.5401
868.549922 77.049 149.9727
874.843793 77.074 150.3775
881.183272 77.102 150.7550
887.568689 77.134 151.1060
894.000378 77.169 151.4317
900.478673 77.207 151.7332
907.003913 77.248 152.0119
913.576437 77.292 152.2695
920.196588 77.339 152.5074
926.864712 77.389 152.7270
933.581156 77.442 152.9294
940.346270 77.499 153.1155
947.160407 77.560 153.2853
954.023921 77.626 153.4385
960.937172 77.695 153.5738
967.900519 77.770 153.6894
974.914325 77.849 153.7826
981.978956 77.933 153.8500
989.094780 78.021 153.8879
996.262169 78.114 153.8922
1003.481495 78.211 153.8588
1010.753136 78.311 153.7838
1018.077470 78.414 153.6636
1025.454879 78.518 153.4954
1032.885748 78.624 153.2768
1040.370463 78.729 153.0065
1047.909417 78.832 152.6839
1055.503000 78.933 152.3094
1063.151610 79.030 151.8847
1070.855645 79.121 151.4122
1078.615506 79.205 150.8964
1086.431599 79.280 150.3427
1094.304330 79.345 149.7590
1102.234110 79.400 149.1549
1110.221353 79.441 148.5424
1118.266475 79.470 147.9353
1126.369895 79.486 147.3498
1134.532035 79.488 146.8030
1142.753322 79.477 146.3132
1151.034184 79.456 145.8976
1159.375052 79.426 145.5721
1167.776361 79.391 145.3490
1176.238550 79.352 145.2365
1184.762060 79.315 145.2374
1193.347334 79.282 145.3490
1201.994821 79.256 145.5629
1210.704971 79.242 145.8661
1219.478238 79.240 146.2419
1228.315080 79.253 146.6714
1237.215957 79.281 147.1348
1246.181334 79.324 147.6130
1255.211678 79.382 148.0883
1264.307459 79.454 148.5453
1273.469152 79.539 148.9716
1282.697235 79.635 149.3571
1291.992188 79.740 149.6942
1301.354495 79.854 149.9774
1310.784647 79.974 150.2033
1320.283132 80.099 150.3695
1329.850448 80.228 150.4747
1339.487093 80.359 150.5186
1349.193569 80.493 150.5013
1358.970381 80.627 150.4235
1368.818041 80.761 150.2865
1378.737061 80.894 150.0917
1388.727958 81.026 149.8407
1398.791253 81.156 149.5356
1408.927471 81.284 149.1784
1419.137140 81.408 148.7717
1429.420793 81.528 148.3185
1439.778965 81.643 147.8224
1450.212197 81.753 147.2881
1460.721033 81.856 146.7209
1471.306019 81.953 146.1273
1481.967709 82.042 145.5145
1492.706658 82.123 144.8903
1503.523426 82.196 144.2632
1514.418576 82.260 143.6417
1525.392678 82.315 143.0339
1536.446302 82.363 142.4475
1547.580025 82.402 141.8893
1558.794428 82.434 141.3648
1570.090095 82.459 140.8780
1581.467615 82.478 140.4315
1592.927581 82.493 140.0265
1604.470591 82.502 139.6625
1616.097246 82.509 139.3376
1627.808153 82.513 139.0490
1639.603922 82.514 138.7924
1651.485168 82.514 138.5635
1663.452510 82.513 138.3572
1675.506573 82.511 138.1686
1687.647984 82.509 137.9926
1699.877377 82.506 137.8246
1712.195390 82.503 137.6604
1724.602663 82.498 137.4963
1737.099845 82.493 137.3297
1749.687587 82.486 137.1586
1762.366544 82.477 136.9825
1775.137379 82.465 136.8021
1788.000756 82.451 136.6190
1800.957346 82.434 136.4362
1814.007826 82.413 136.2572
1827.152874 82.388 136.0861
1840.393177 82.360 135.9267
1853.729425 82.329 135.7820
1867.162312 82.295 135.6533
1880.692540 82.259 135.5393
1894.320813 82.222 135.4362
1908.047843 82.183 135.3379
1921.874344 82.143 135.2375
1935.801038 82.100 135.1295
1949.828650 82.054 135.0111
1963.957912 82.003 134.8832
1978.189561 81.946 134.7507
1992.524338 81.882 134.6209
2006.962991 81.811 134.5032
2021.506272 81.733 134.4069
2036.154940 81.650 134.3395
2050.909758 81.562 134.3063
2065.771495 81.471 134.3090
2080.740927 81.378 134.3465
2095.818833 81.284 134.4150
2111.006001 81.191 134.5095
2126.303220 81.099 134.6252
2141.711290 81.008 134.7586
2157.231013 80.918 134.9074
2172.863198 80.829 135.0707
2188.608660 80.743 135.2481
2204.468221 80.658 135.4388
2220.442706 80.575 135.6409
2236.532950 80.495 135.8517
2252.739789 80.417 136.0682
2269.064070 80.340 136.2878
2285.506644 80.266 136.5088
2302.068367 80.192 136.7309
2318.750104 80.119 136.9559
2335.552723 80.045 137.1880
2352.477101 79.969 137.4344
2369.524119 79.891 137.7059
2386.694668 79.810 138.0170
2403.989641 79.727 138.3859
2421.409941 79.643 138.8322
2438.956476 79.560 139.3745
2456.630160 79.481 140.0269
2474.431915 79.412 140.7947
2492.362668 79.355 141.6724
2510.423356 79.316 142.6439
2528.614918 79.298 143.6844
2546.938304 79.304 144.7655
2565.394469 79.333 145.8578
2583.984375 79.386 146.9354
2602.708991 79.460 147.9770
2621.569293 79.554 148.9676
2640.566265 79.667 149.8968
2659.700897 79.795 150.7583
2678.974186 79.938 151.5479
2698.387137 80.092 152.2627
2717.940763 80.257 152.9010
2737.636082 80.431 153.4616
2757.474121 80.612 153.9442
2777.455915 80.799 154.3490
2797.582506 80.991 154.6765
2817.854942 81.186 154.9265
2838.274281 81.383 155.0982
2858.841586 81.581 155.1897
2879.557931 81.778 155.1991
2900.424394 81.971 155.1258
2921.442065 82.159 154.9721
2942.612039 82.340 154.7437
2963.935418 82.511 154.4496
2985.413316 82.671 154.1018
3007.046852 82.819 153.7133
3028.837153 82.955 153.2972
3050.785356 83.079 152.8658
3072.892604 83.192 152.4290
3095.160050 83.295 151.9941
3117.588856 83.389 151.5646
3140.180190 83.474 151.1398
3162.935230 83.551 150.7163
3185.855163 83.621 150.2881
3208.941182 83.683 149.8486
3232.194493 83.738 149.3915
3255.616307 83.783 148.9106
3279.207844 83.820 148.4004
3302.970336 83.845 147.8567
3326.905021 83.858 147.2775
3351.013146 83.855 146.6660
3375.295969 83.833 146.0324
3399.754755 83.791 145.3951
3424.390779 83.726 144.7814
3449.205326 83.637 144.2257
3474.199690 83.523 143.7692
3499.375173 83.387 143.4564
3524.733088 83.231 143.3323
3550.274757 83.062 143.4356
3576.001511 82.888 143.7908
3601.914692 82.719 144.3994
3628.015651 82.566 145.2339
3654.305748 82.438 146.2393
