* Measurement data measured by REW V5.31.3
* Source: EXCL: Headset (USB-C to 3.5mm Headphone Jack Adapter), MICROPHONE (Master Volume), 0, volume: 0.750
* Format: 256k Log Swept Sine, 1 sweep at -12.0 dBFS with no timing reference
* Dated: Apr 7, 2025 5:13:38 PM
* REW Settings:
*  C-weighting compensation: Off
*  Target level: 75.0 dB
* Note: ; 
* Measurement: Maxwell (Wired) WC R4
* Smoothing: 1/6 octave
* Frequency Step: 96 ppo
* Start Frequency: 20.0 Hz
*
* Freq(Hz) SPL(dB) Phase(degrees)
20.187378 81.360 -11.8284
20.333664 81.385 -12.5160
20.481010 81.418 -13.4245
20.629424 81.455 -14.5101
20.778913 81.495 -15.7238
20.929486 81.535 -17.0153
21.081150 81.576 -18.3368
21.233912 81.619 -19.6450
21.387782 81.665 -20.9044
21.542767 81.717 -22.0886
21.698874 81.779 -23.1824
21.856113 81.854 -24.1825
22.014492 81.946 -25.0977
22.174018 82.057 -25.9478
22.334700 82.186 -26.7615
22.496546 82.332 -27.5728
22.659566 82.493 -28.4174
22.823766 82.664 -29.3285
22.989157 82.841 -30.3336
23.155745 83.016 -31.4522
23.323542 83.186 -32.6950
23.492554 83.346 -34.0636
23.662790 83.491 -35.5517
23.834261 83.620 -37.1467
24.006973 83.730 -38.8306
24.180938 83.823 -40.5826
24.356163 83.897 -42.3795
24.532658 83.955 -44.1977
24.710431 83.999 -46.0140
24.889493 84.031 -47.8064
25.069853 84.055 -49.5554
25.251519 84.072 -51.2442
25.434502 84.087 -52.8597
25.618811 84.102 -54.3927
25.804456 84.119 -55.8389
25.991445 84.141 -57.1982
26.179790 84.168 -58.4752
26.369500 84.202 -59.6788
26.560584 84.244 -60.8218
26.753053 84.293 -61.9195
26.946917 84.348 -62.9892
27.142185 84.410 -64.0488
27.338869 84.476 -65.1155
27.536977 84.546 -66.2049
27.736522 84.618 -67.3300
27.937512 84.691 -68.5006
28.139959 84.764 -69.7224
28.343872 84.836 -70.9977
28.549264 84.907 -72.3250
28.756143 84.976 -73.6998
28.964522 85.043 -75.1150
29.174411 85.109 -76.5616
29.385821 85.172 -78.0297
29.598763 85.233 -79.5093
29.813248 85.291 -80.9907
30.029287 85.346 -82.4653
30.246891 85.398 -83.9262
30.466073 85.445 -85.3679
30.686842 85.488 -86.7867
30.909212 85.525 -88.1804
31.133193 85.556 -89.5480
31.358797 85.581 -90.8895
31.586035 85.600 -92.2055
31.814921 85.614 -93.4971
32.045465 85.622 -94.7656
32.277680 85.628 -96.0124
32.511577 85.630 -97.2394
32.747169 85.632 -98.4487
32.984469 85.635 -99.6427
33.223488 85.640 -100.8237
33.464239 85.649 -101.9942
33.706735 85.661 -103.1558
33.950987 85.677 -104.3093
34.197010 85.696 -105.4538
34.444816 85.719 -106.5872
34.694417 85.744 -107.7054
34.945827 85.771 -108.8033
35.199059 85.800 -109.8753
35.454126 85.829 -110.9162
35.711041 85.858 -111.9217
35.969818 85.888 -112.8896
36.230470 85.919 -113.8199
36.493011 85.950 -114.7146
36.757455 85.983 -115.5776
37.023814 86.015 -116.4137
37.292104 86.049 -117.2275
37.562338 86.082 -118.0232
37.834530 86.115 -118.8035
38.108695 86.148 -119.5696
38.384846 86.181 -120.3216
38.662999 86.214 -121.0587
38.943167 86.247 -121.7805
39.225365 86.280 -122.4874
39.509608 86.314 -123.1813
39.795911 86.347 -123.8658
40.084289 86.381 -124.5460
40.374756 86.415 -125.2284
40.667328 86.447 -125.9194
40.962020 86.478 -126.6254
41.258848 86.507 -127.3518
41.557827 86.534 -128.1026
41.858972 86.560 -128.8804
42.162299 86.584 -129.6866
42.467824 86.608 -130.5215
42.775564 86.632 -131.3847
43.085533 86.656 -132.2753
43.397749 86.680 -133.1927
43.712227 86.702 -134.1366
44.028983 86.723 -135.1076
44.348036 86.742 -136.1073
44.669400 86.757 -137.1387
44.993093 86.768 -138.2052
45.319131 86.774 -139.3102
45.647532 86.777 -140.4562
45.978313 86.775 -141.6434
46.311491 86.770 -142.8684
46.647083 86.762 -144.1244
46.985107 86.751 -145.4007
47.325581 86.737 -146.6840
47.668521 86.720 -147.9600
48.013947 86.699 -149.2154
48.361876 86.673 -150.4402
48.712326 86.642 -151.6288
49.065315 86.603 -152.7802
49.420863 86.557 -153.8970
49.778987 86.502 -154.9837
50.139706 86.438 -156.0445
50.503039 86.365 -157.0820
50.869005 86.283 -158.0959
51.237623 86.193 -159.0836
51.608912 86.098 -160.0414
51.982891 85.997 -160.9654
52.359580 85.891 -161.8524
52.739000 85.783 -162.7010
53.121168 85.670 -163.5113
53.506106 85.554 -164.2849
53.893833 85.435 -165.0241
54.284370 85.311 -165.7316
54.677737 85.185 -166.4091
55.073955 85.055 -167.0570
55.473043 84.924 -167.6739
55.875024 84.791 -168.2570
56.279917 84.658 -168.8032
56.687745 84.524 -169.3100
57.098527 84.391 -169.7773
57.512287 84.257 -170.2070
57.929045 84.125 -170.6031
58.348822 83.995 -170.9708
58.771642 83.868 -171.3155
59.197525 83.747 -171.6430
59.626495 83.634 -171.9583
60.058573 83.531 -172.2653
60.493782 83.441 -172.5657
60.932145 83.362 -172.8582
61.373685 83.294 -173.1393
61.818424 83.236 -173.4040
62.266386 83.184 -173.6481
62.717593 83.137 -173.8695
63.172071 83.093 -174.0680
63.629842 83.052 -174.2448
64.090930 83.011 -174.4014
64.555359 82.971 -174.5390
65.023154 82.932 -174.6585
65.494339 82.895 -174.7609
65.968938 82.859 -174.8478
66.446976 82.825 -174.9217
66.928478 82.794 -174.9858
67.413469 82.764 -175.0437
67.901975 82.736 -175.0983
68.394021 82.711 -175.1519
68.889632 82.687 -175.2060
69.388835 82.664 -175.2618
69.891655 82.644 -175.3213
70.398118 82.626 -175.3867
70.908252 82.609 -175.4602
71.422083 82.593 -175.5432
71.939636 82.577 -175.6360
72.460941 82.561 -175.7381
72.986023 82.544 -175.8484
73.514909 82.525 -175.9658
74.047629 82.506 -176.0890
74.584208 82.484 -176.2167
75.124676 82.461 -176.3480
75.669061 82.436 -176.4826
76.217390 82.410 -176.6213
76.769692 82.382 -176.7656
77.325997 82.354 -176.9175
77.886333 82.325 -177.0783
78.450730 82.295 -177.2483
79.019216 82.265 -177.4268
79.591822 82.235 -177.6125
80.168577 82.205 -177.8044
80.749512 82.176 -178.0023
81.334656 82.148 -178.2071
81.924040 82.121 -178.4207
82.517696 82.094 -178.6454
83.115653 82.067 -178.8831
83.717943 82.041 -179.1346
84.324598 82.013 -179.3995
84.935649 81.984 -179.6764
85.551128 81.952 -179.9637
86.171066 81.919 179.7404
86.795497 81.882 179.4374
87.424453 81.843 179.1292
88.057967 81.801 178.8181
88.696071 81.756 178.5066
89.338800 81.708 178.1974
89.986185 81.659 177.8927
90.638262 81.609 177.5944
91.295065 81.557 177.3036
91.956626 81.505 177.0208
92.622982 81.452 176.7463
93.294166 81.400 176.4802
93.970214 81.347 176.2226
94.651161 81.293 175.9736
95.337042 81.239 175.7332
96.027894 81.183 175.5014
96.723752 81.125 175.2785
97.424652 81.066 175.0651
98.130631 81.006 174.8625
98.841726 80.944 174.6721
99.557974 80.882 174.4952
100.279412 80.819 174.3324
101.006078 80.756 174.1835
101.738010 80.694 174.0475
102.475245 80.633 173.9225
103.217823 80.573 173.8068
103.965782 80.515 173.6988
104.719161 80.458 173.5981
105.477999 80.404 173.5052
106.242336 80.351 173.4216
107.012212 80.301 173.3489
107.787666 80.254 173.2880
108.568740 80.208 173.2391
109.355474 80.165 173.2019
110.147909 80.125 173.1760
110.946086 80.087 173.1606
111.750047 80.052 173.1551
112.559834 80.018 173.1584
113.375489 79.987 173.1696
114.197055 79.957 173.1873
115.024574 79.929 173.2096
115.858089 79.902 173.2341
116.697645 79.876 173.2583
117.543284 79.852 173.2803
118.395051 79.829 173.2988
119.252990 79.807 173.3128
120.117147 79.786 173.3220
120.987565 79.766 173.3257
121.864291 79.747 173.3232
122.747370 79.728 173.3133
123.636848 79.711 173.2950
124.532771 79.695 173.2672
125.435187 79.679 173.2294
126.344142 79.664 173.1808
127.259684 79.650 173.1209
128.181860 79.635 173.0493
129.110718 79.620 172.9657
130.046308 79.604 172.8705
130.988677 79.585 172.7651
131.937875 79.564 172.6512
132.893951 79.538 172.5317
133.856956 79.509 172.4095
134.826938 79.475 172.2878
135.803950 79.437 172.1693
136.788041 79.394 172.0557
137.779264 79.346 171.9480
138.777669 79.294 171.8460
139.783309 79.237 171.7490
140.796237 79.176 171.6564
141.816504 79.111 171.5682
142.844165 79.042 171.4852
143.879273 78.969 171.4084
144.921881 78.892 171.3392
145.972045 78.813 171.2791
147.029819 78.730 171.2300
148.095257 78.646 171.1943
149.168417 78.558 171.1749
150.249353 78.469 171.1752
151.338121 78.379 171.1989
152.434780 78.288 171.2498
153.539385 78.196 171.3312
154.651995 78.104 171.4457
155.772667 78.012 171.5948
156.901460 77.920 171.7794
158.038432 77.829 171.9991
159.183644 77.737 172.2533
160.337154 77.647 172.5403
161.499023 77.558 172.8580
162.669312 77.470 173.2038
163.848081 77.384 173.5749
165.035392 77.301 173.9692
166.231306 77.220 174.3858
167.435887 77.142 174.8248
168.649196 77.067 175.2877
169.871298 76.996 175.7761
171.102255 76.928 176.2914
172.342133 76.865 176.8340
173.590995 76.807 177.4037
174.848907 76.753 177.9988
176.115934 76.705 178.6166
177.392143 76.662 179.2532
178.677599 76.624 179.9037
179.972371 76.590 -179.4371
181.276525 76.561 -178.7742
182.590129 76.537 -178.1122
183.913252 76.516 -177.4549
185.245964 76.500 -176.8055
186.588332 76.488 -176.1671
187.940428 76.481 -175.5422
189.302322 76.477 -174.9328
190.674085 76.479 -174.3400
192.055788 76.485 -173.7647
193.447503 76.496 -173.2076
194.849303 76.512 -172.6695
196.261262 76.531 -172.1506
197.683452 76.554 -171.6505
199.115948 76.579 -171.1682
200.558824 76.606 -170.7030
202.012156 76.633 -170.2538
203.476019 76.659 -169.8196
204.950490 76.684 -169.3991
206.435646 76.709 -168.9904
207.931564 76.733 -168.5923
209.438322 76.756 -168.2047
210.955998 76.780 -167.8286
212.484672 76.803 -167.4655
214.024424 76.826 -167.1164
215.575333 76.850 -166.7818
217.137481 76.874 -166.4611
218.710948 76.898 -166.1524
220.295818 76.923 -165.8532
221.892172 76.948 -165.5604
223.500094 76.974 -165.2715
225.119668 77.001 -164.9843
226.750978 77.029 -164.6975
228.394109 77.059 -164.4103
230.049147 77.090 -164.1222
231.716178 77.123 -163.8329
233.395289 77.159 -163.5423
235.086567 77.198 -163.2507
236.790102 77.239 -162.9588
238.505980 77.284 -162.6681
240.234293 77.332 -162.3804
241.975130 77.382 -162.0970
243.728581 77.434 -161.8190
245.494739 77.488 -161.5462
247.273695 77.543 -161.2776
249.065542 77.599 -161.0117
250.870374 77.655 -160.7474
252.688284 77.712 -160.4841
254.519367 77.770 -160.2217
256.363720 77.829 -159.9611
258.221437 77.889 -159.7037
260.092616 77.951 -159.4506
261.977354 78.015 -159.2029
263.875750 78.081 -158.9613
265.787903 78.149 -158.7259
267.713911 78.219 -158.4962
269.653877 78.291 -158.2719
271.607900 78.364 -158.0529
273.576083 78.439 -157.8395
275.558528 78.514 -157.6323
277.555338 78.590 -157.4320
279.566619 78.668 -157.2396
281.592474 78.746 -157.0563
283.633009 78.826 -156.8834
285.688331 78.908 -156.7226
287.758546 78.991 -156.5759
289.843763 79.076 -156.4448
291.944090 79.163 -156.3309
294.059638 79.252 -156.2352
296.190515 79.342 -156.1580
298.336833 79.434 -156.0992
300.498705 79.527 -156.0579
302.676243 79.620 -156.0333
304.869559 79.714 -156.0248
307.078770 79.808 -156.0314
309.303989 79.902 -156.0525
311.545334 79.997 -156.0872
313.802919 80.092 -156.1348
316.076865 80.187 -156.1949
318.367288 80.282 -156.2679
320.674309 80.378 -156.3541
322.998047 80.472 -156.4544
325.338624 80.566 -156.5698
327.696162 80.660 -156.7008
330.070783 80.752 -156.8480
332.462612 80.843 -157.0116
334.871773 80.933 -157.1918
337.298392 81.021 -157.3888
339.742595 81.108 -157.6024
342.204510 81.192 -157.8327
344.684265 81.274 -158.0795
347.181989 81.354 -158.3426
349.697813 81.431 -158.6219
352.231868 81.506 -158.9171
354.784285 81.578 -159.2280
357.355198 81.647 -159.5547
359.944741 81.714 -159.8971
362.553049 81.778 -160.2558
365.180258 81.839 -160.6312
367.826505 81.897 -161.0241
370.491927 81.952 -161.4345
373.176665 82.004 -161.8622
375.880856 82.053 -162.3063
378.604644 82.098 -162.7654
381.348169 82.140 -163.2380
384.111575 82.179 -163.7224
386.895006 82.213 -164.2172
389.698607 82.244 -164.7206
392.522524 82.272 -165.2307
395.366904 82.295 -165.7452
398.231895 82.314 -166.2613
401.117648 82.330 -166.7759
404.024312 82.341 -167.2859
406.952038 82.347 -167.7883
409.900981 82.350 -168.2807
412.871292 82.348 -168.7609
415.863128 82.341 -169.2271
418.876643 82.331 -169.6779
421.911996 82.318 -170.1123
424.969344 82.301 -170.5300
428.048847 82.282 -170.9311
431.150666 82.260 -171.3167
434.274961 82.237 -171.6881
437.421897 82.213 -172.0477
440.591636 82.188 -172.3980
443.784345 82.162 -172.7419
447.000189 82.136 -173.0825
450.239337 82.110 -173.4226
453.501956 82.083 -173.7649
456.788219 82.057 -174.1116
460.098294 82.030 -174.4640
463.432356 82.002 -174.8229
466.790578 81.973 -175.1882
470.173135 81.944 -175.5594
473.580203 81.914 -175.9357
477.011961 81.882 -176.3161
480.468586 81.849 -176.6996
483.950259 81.816 -177.0854
487.457163 81.781 -177.4726
490.989478 81.746 -177.8605
494.547390 81.709 -178.2486
498.131084 81.672 -178.6366
501.740748 81.634 -179.0240
505.376568 81.595 -179.4108
509.038735 81.556 -179.7968
512.727439 81.517 179.8179
516.442874 81.477 179.4335
520.185232 81.437 179.0501
523.954708 81.397 178.6682
527.751500 81.356 178.2884
531.575805 81.316 177.9112
535.427822 81.275 177.5375
539.307753 81.234 177.1682
543.215800 81.193 176.8041
547.152165 81.152 176.4462
551.117055 81.110 176.0952
555.110677 81.068 175.7522
559.133237 81.026 175.4182
563.184947 80.983 175.0944
567.266018 80.939 174.7820
571.376661 80.894 174.4823
575.517092 80.847 174.1964
579.687526 80.800 173.9255
583.888181 80.751 173.6703
588.119275 80.701 173.4318
592.381030 80.649 173.2104
596.673667 80.596 173.0067
600.997410 80.541 172.8209
605.352485 80.485 172.6531
609.739119 80.428 172.5031
614.157540 80.369 172.3704
618.607979 80.309 172.2545
623.090667 80.248 172.1544
627.605839 80.186 172.0690
632.153730 80.123 171.9964
636.734576 80.059 171.9349
641.348617 79.994 171.8820
645.996094 79.929 171.8356
650.677248 79.863 171.7928
655.392323 79.797 171.7515
660.141566 79.729 171.7093
664.925224 79.660 171.6645
669.743546 79.589 171.6159
674.596784 79.516 171.5632
679.485191 79.440 171.5070
684.409020 79.361 171.4487
689.368530 79.279 171.3906
694.363979 79.191 171.3357
699.395626 79.099 171.2881
704.463736 79.002 171.2524
709.568570 78.898 171.2338
714.710396 78.789 171.2382
719.889483 78.674 171.2719
725.106099 78.552 171.3419
730.360516 78.425 171.4551
735.653010 78.292 171.6188
740.983855 78.154 171.8401
746.353329 78.013 172.1255
751.761713 77.867 172.4811
757.209288 77.720 172.9116
762.696339 77.572 173.4203
768.223151 77.425 174.0093
773.790013 77.281 174.6788
779.397214 77.140 175.4270
785.045047 77.006 176.2503
790.733808 76.879 177.1427
796.463791 76.762 178.0957
802.235296 76.656 179.0986
808.048623 76.562 -179.8613
813.904077 76.482 -178.7977
819.801961 76.415 -177.7249
825.742584 76.362 -176.6567
831.726255 76.322 -175.6060
837.753287 76.295 -174.5834
843.823992 76.280 -173.5978
849.938689 76.276 -172.6555
856.097695 76.281 -171.7608
862.301332 76.294 -170.9161
868.549922 76.315 -170.1219
874.843793 76.341 -169.3775
881.183272 76.371 -168.6808
887.568689 76.406 -168.0289
894.000378 76.444 -167.4179
900.478673 76.484 -166.8438
907.003913 76.526 -166.3017
913.576437 76.570 -165.7870
920.196588 76.615 -165.2945
926.864712 76.662 -164.8195
933.581156 76.711 -164.3578
940.346270 76.763 -163.9057
947.160407 76.817 -163.4608
954.023921 76.876 -163.0220
960.937172 76.940 -162.5897
967.900519 77.009 -162.1659
974.914325 77.084 -161.7542
981.978956 77.166 -161.3593
989.094780 77.255 -160.9870
996.262169 77.350 -160.6434
1003.481495 77.452 -160.3342
1010.753136 77.559 -160.0649
1018.077470 77.671 -159.8399
1025.454879 77.788 -159.6628
1032.885748 77.907 -159.5359
1040.370463 78.028 -159.4602
1047.909417 78.149 -159.4362
1055.503000 78.271 -159.4631
1063.151610 78.391 -159.5400
1070.855645 78.510 -159.6654
1078.615506 78.625 -159.8374
1086.431599 78.737 -160.0542
1094.304330 78.845 -160.3138
1102.234110 78.948 -160.6140
1110.221353 79.045 -160.9525
1118.266475 79.135 -161.3267
1126.369895 79.218 -161.7334
1134.532035 79.293 -162.1686
1142.753322 79.359 -162.6271
1151.034184 79.415 -163.1023
1159.375052 79.460 -163.5856
1167.776361 79.494 -164.0668
1176.238550 79.517 -164.5337
1184.762060 79.528 -164.9729
1193.347334 79.528 -165.3705
1201.994821 79.519 -165.7124
1210.704971 79.502 -165.9856
1219.478238 79.478 -166.1786
1228.315080 79.452 -166.2821
1237.215957 79.424 -166.2896
1246.181334 79.399 -166.1982
1255.211678 79.379 -166.0092
1264.307459 79.368 -165.7292
1273.469152 79.368 -165.3706
1282.697235 79.383 -164.9509
1291.992188 79.413 -164.4923
1301.354495 79.459 -164.0192
1310.784647 79.522 -163.5567
1320.283132 79.599 -163.1280
1329.850448 79.690 -162.7529
1339.487093 79.791 -162.4472
1349.193569 79.902 -162.2222
1358.970381 80.018 -162.0849
1368.818041 80.139 -162.0388
1378.737061 80.261 -162.0844
1388.727958 80.382 -162.2204
1398.791253 80.502 -162.4435
1408.927471 80.618 -162.7494
1419.137140 80.729 -163.1331
1429.420793 80.833 -163.5886
1439.778965 80.929 -164.1091
1450.212197 81.015 -164.6871
1460.721033 81.092 -165.3140
1471.306019 81.156 -165.9799
1481.967709 81.207 -166.6738
1492.706658 81.245 -167.3833
1503.523426 81.267 -168.0942
1514.418576 81.275 -168.7915
1525.392678 81.267 -169.4587
1536.446302 81.244 -170.0790
1547.580025 81.206 -170.6356
1558.794428 81.155 -171.1122
1570.090095 81.093 -171.4948
1581.467615 81.022 -171.7719
1592.927581 80.945 -171.9364
1604.470591 80.864 -171.9858
1616.097246 80.782 -171.9234
1627.808153 80.703 -171.7582
1639.603922 80.629 -171.5041
1651.485168 80.561 -171.1788
1663.452510 80.500 -170.8017
1675.506573 80.448 -170.3920
1687.647984 80.403 -169.9670
1699.877377 80.365 -169.5411
1712.195390 80.333 -169.1251
1724.602663 80.306 -168.7266
1737.099845 80.282 -168.3505
1749.687587 80.261 -167.9993
1762.366544 80.241 -167.6734
1775.137379 80.221 -167.3717
1788.000756 80.201 -167.0919
1800.957346 80.179 -166.8306
1814.007826 80.156 -166.5839
1827.152874 80.129 -166.3477
1840.393177 80.100 -166.1181
1853.729425 80.068 -165.8908
1867.162312 80.032 -165.6612
1880.692540 79.992 -165.4243
1894.320813 79.949 -165.1748
1908.047843 79.902 -164.9081
1921.874344 79.853 -164.6211
1935.801038 79.802 -164.3133
1949.828650 79.750 -163.9871
1963.957912 79.698 -163.6476
1978.189561 79.646 -163.3009
1992.524338 79.595 -162.9536
2006.962991 79.544 -162.6113
2021.506272 79.493 -162.2787
2036.154940 79.442 -161.9588
2050.909758 79.390 -161.6532
2065.771495 79.337 -161.3619
2080.740927 79.283 -161.0837
2095.818833 79.227 -160.8164
2111.006001 79.169 -160.5578
2126.303220 79.110 -160.3057
2141.711290 79.049 -160.0580
2157.231013 78.987 -159.8127
2172.863198 78.924 -159.5674
2188.608660 78.859 -159.3189
2204.468221 78.793 -159.0639
2220.442706 78.727 -158.7992
2236.532950 78.660 -158.5222
2252.739789 78.594 -158.2317
2269.064070 78.529 -157.9278
2285.506644 78.466 -157.6122
2302.068367 78.405 -157.2875
2318.750104 78.347 -156.9566
2335.552723 78.291 -156.6228
2352.477101 78.239 -156.2896
2369.524119 78.189 -155.9598
2386.694668 78.142 -155.6356
2403.989641 78.096 -155.3167
2421.409941 78.052 -155.0005
2438.956476 78.008 -154.6807
2456.630160 77.964 -154.3486
2474.431915 77.920 -153.9940
2492.362668 77.877 -153.6071
2510.423356 77.838 -153.1809
2528.614918 77.802 -152.7129
2546.938304 77.773 -152.2054
2565.394469 77.752 -151.6648
2583.984375 77.739 -151.0995
2602.708991 77.736 -150.5172
2621.569293 77.740 -149.9231
2640.566265 77.753 -149.3193
2659.700897 77.774 -148.7046
2678.974186 77.803 -148.0761
2698.387137 77.841 -147.4313
2717.940763 77.889 -146.7696
2737.636082 77.946 -146.0939
2757.474121 78.015 -145.4109
2777.455915 78.095 -144.7298
2797.582506 78.187 -144.0614
2817.854942 78.290 -143.4170
2838.274281 78.404 -142.8074
2858.841586 78.526 -142.2429
2879.557931 78.657 -141.7336
2900.424394 78.793 -141.2895
2921.442065 78.933 -140.9192
2942.612039 79.074 -140.6288
2963.935418 79.213 -140.4199
2985.413316 79.347 -140.2886
3007.046852 79.474 -140.2267
3028.837153 79.591 -140.2221
3050.785356 79.698 -140.2611
3072.892604 79.794 -140.3290
3095.160050 79.878 -140.4119
3117.588856 79.950 -140.4967
3140.180190 80.013 -140.5725
3162.935230 80.066 -140.6314
3185.855163 80.112 -140.6696
3208.941182 80.152 -140.6877
3232.194493 80.187 -140.6906
3255.616307 80.219 -140.6868
3279.207844 80.249 -140.6883
