* Measurement data measured by REW V5.31.3
* Source: EXCL: Headset (USB-C to 3.5mm Headphone Jack Adapter), MICROPHONE (Master Volume), 0, volume: 0.750
* Format: 256k Log Swept Sine, 1 sweep at -12.0 dBFS with no timing reference
* Dated: Apr 7, 2025 4:59:52 PM
* REW Settings:
*  C-weighting compensation: Off
*  Target level: 75.0 dB
* Note: ; 
* Measurement: Maxwell (Wired) R3
* Smoothing: 1/6 octave
* Frequency Step: 96 ppo
* Start Frequency: 20.0 Hz
*
* Freq(Hz) SPL(dB) Phase(degrees)
20.187378 80.831 -26.6697
20.333664 80.834 -27.2455
20.481010 80.838 -28.0047
20.629424 80.840 -28.9066
20.778913 80.842 -29.9059
20.929486 80.841 -30.9558
21.081150 80.839 -32.0105
21.233912 80.835 -33.0266
21.387782 80.831 -33.9649
21.542767 80.829 -34.7908
21.698874 80.830 -35.4763
21.856113 80.837 -36.0007
22.014492 80.854 -36.3531
22.174018 80.884 -36.5330
22.334700 80.930 -36.5528
22.496546 80.994 -36.4372
22.659566 81.077 -36.2232
22.823766 81.180 -35.9577
22.989157 81.302 -35.6940
23.155745 81.440 -35.4872
23.323542 81.591 -35.3901
23.492554 81.751 -35.4485
23.662790 81.917 -35.6988
23.834261 82.085 -36.1660
24.006973 82.252 -36.8636
24.180938 82.415 -37.7935
24.356163 82.574 -38.9475
24.532658 82.728 -40.3085
24.710431 82.877 -41.8515
24.889493 83.021 -43.5459
25.069853 83.160 -45.3567
25.251519 83.295 -47.2467
25.434502 83.427 -49.1786
25.618811 83.555 -51.1170
25.804456 83.678 -53.0304
25.991445 83.796 -54.8924
26.179790 83.907 -56.6829
26.369500 84.010 -58.3886
26.560584 84.105 -60.0028
26.753053 84.190 -61.5254
26.946917 84.265 -62.9616
27.142185 84.331 -64.3218
27.338869 84.386 -65.6199
27.536977 84.433 -66.8729
27.736522 84.472 -68.0988
27.937512 84.505 -69.3162
28.139959 84.533 -70.5420
28.343872 84.556 -71.7906
28.549264 84.575 -73.0721
28.756143 84.591 -74.3917
28.964522 84.603 -75.7492
29.174411 84.610 -77.1390
29.385821 84.612 -78.5514
29.598763 84.609 -79.9738
29.813248 84.601 -81.3922
30.029287 84.586 -82.7941
30.246891 84.565 -84.1692
30.466073 84.540 -85.5117
30.686842 84.511 -86.8208
30.909212 84.481 -88.1007
31.133193 84.449 -89.3599
31.358797 84.419 -90.6098
31.586035 84.391 -91.8633
31.814921 84.368 -93.1324
32.045465 84.351 -94.4271
32.277680 84.340 -95.7536
32.511577 84.338 -97.1137
32.747169 84.345 -98.5049
32.984469 84.361 -99.9206
33.223488 84.386 -101.3507
33.464239 84.420 -102.7826
33.706735 84.461 -104.2020
33.950987 84.509 -105.5939
34.197010 84.561 -106.9427
34.444816 84.616 -108.2337
34.694417 84.673 -109.4532
34.945827 84.731 -110.5892
35.199059 84.789 -111.6324
35.454126 84.847 -112.5762
35.711041 84.905 -113.4179
35.969818 84.964 -114.1581
36.230470 85.024 -114.8014
36.493011 85.084 -115.3555
36.757455 85.145 -115.8313
37.023814 85.204 -116.2419
37.292104 85.262 -116.6024
37.562338 85.316 -116.9292
37.834530 85.365 -117.2395
38.108695 85.409 -117.5509
38.384846 85.446 -117.8802
38.662999 85.478 -118.2427
38.943167 85.504 -118.6514
39.225365 85.526 -119.1157
39.509608 85.547 -119.6410
39.795911 85.569 -120.2279
40.084289 85.596 -120.8724
40.374756 85.630 -121.5663
40.667328 85.673 -122.2985
40.962020 85.726 -123.0570
41.258848 85.790 -123.8304
41.557827 85.863 -124.6103
41.858972 85.943 -125.3924
42.162299 86.028 -126.1770
42.467824 86.115 -126.9687
42.775564 86.202 -127.7744
43.085533 86.287 -128.6028
43.397749 86.369 -129.4618
43.712227 86.449 -130.3576
44.028983 86.525 -131.2941
44.348036 86.600 -132.2725
44.669400 86.673 -133.2914
44.993093 86.744 -134.3473
45.319131 86.811 -135.4354
45.647532 86.875 -136.5502
45.978313 86.931 -137.6868
46.311491 86.979 -138.8419
46.647083 87.018 -140.0145
46.985107 87.046 -141.2063
47.325581 87.064 -142.4214
47.668521 87.072 -143.6644
48.013947 87.072 -144.9388
48.361876 87.063 -146.2451
48.712326 87.046 -147.5791
49.065315 87.021 -148.9325
49.420863 86.988 -150.2940
49.778987 86.946 -151.6513
50.139706 86.896 -152.9936
50.503039 86.835 -154.3131
50.869005 86.766 -155.6051
51.237623 86.688 -156.8679
51.608912 86.602 -158.1012
51.982891 86.510 -159.3043
52.359580 86.411 -160.4759
52.739000 86.308 -161.6128
53.121168 86.202 -162.7104
53.506106 86.094 -163.7642
53.893833 85.986 -164.7698
54.284370 85.877 -165.7249
54.677737 85.768 -166.6291
55.073955 85.660 -167.4844
55.473043 85.554 -168.2947
55.875024 85.448 -169.0652
56.279917 85.345 -169.8012
56.687745 85.245 -170.5078
57.098527 85.149 -171.1888
57.512287 85.058 -171.8464
57.929045 84.972 -172.4809
58.348822 84.891 -173.0903
58.771642 84.813 -173.6704
59.197525 84.737 -174.2153
59.626495 84.662 -174.7189
60.058573 84.586 -175.1766
60.493782 84.509 -175.5871
60.932145 84.432 -175.9531
61.373685 84.356 -176.2811
61.818424 84.283 -176.5787
62.266386 84.213 -176.8526
62.717593 84.149 -177.1069
63.172071 84.090 -177.3424
63.629842 84.036 -177.5587
64.090930 83.986 -177.7556
64.555359 83.939 -177.9351
65.023154 83.895 -178.1018
65.494339 83.853 -178.2628
65.968938 83.812 -178.4264
66.446976 83.773 -178.6001
66.928478 83.736 -178.7896
67.413469 83.701 -178.9971
67.901975 83.669 -179.2216
68.394021 83.640 -179.4592
68.889632 83.614 -179.7045
69.388835 83.590 -179.9521
69.891655 83.569 179.8024
70.398118 83.550 179.5614
70.908252 83.533 179.3251
71.422083 83.516 179.0921
71.939636 83.499 178.8602
72.460941 83.482 178.6274
72.986023 83.465 178.3923
73.514909 83.447 178.1544
74.047629 83.429 177.9139
74.584208 83.410 177.6710
75.124676 83.392 177.4257
75.669061 83.373 177.1776
76.217390 83.355 176.9266
76.769692 83.336 176.6726
77.325997 83.317 176.4156
77.886333 83.298 176.1554
78.450730 83.278 175.8912
79.019216 83.257 175.6220
79.591822 83.235 175.3464
80.168577 83.211 175.0632
80.749512 83.186 174.7711
81.334656 83.159 174.4691
81.924040 83.130 174.1566
82.517696 83.099 173.8328
83.115653 83.067 173.4974
83.717943 83.033 173.1506
84.324598 82.999 172.7933
84.935649 82.963 172.4271
85.551128 82.927 172.0541
86.171066 82.890 171.6771
86.795497 82.853 171.2986
87.424453 82.814 170.9211
88.057967 82.774 170.5465
88.696071 82.733 170.1762
89.338800 82.690 169.8112
89.986185 82.646 169.4523
90.638262 82.600 169.1000
91.295065 82.554 168.7547
91.956626 82.506 168.4167
92.622982 82.458 168.0863
93.294166 82.409 167.7638
93.970214 82.360 167.4498
94.651161 82.310 167.1448
95.337042 82.259 166.8494
96.027894 82.208 166.5638
96.723752 82.156 166.2878
97.424652 82.104 166.0209
98.130631 82.053 165.7632
98.841726 82.001 165.5152
99.557974 81.949 165.2784
100.279412 81.897 165.0550
101.006078 81.846 164.8477
101.738010 81.795 164.6591
102.475245 81.745 164.4902
103.217823 81.697 164.3405
103.965782 81.651 164.2067
104.719161 81.608 164.0827
105.477999 81.567 163.9601
106.242336 81.528 163.8300
107.012212 81.492 163.6854
107.787666 81.457 163.5233
108.568740 81.424 163.3441
109.355474 81.392 163.1511
110.147909 81.362 162.9478
110.946086 81.333 162.7377
111.750047 81.305 162.5230
112.559834 81.280 162.3057
113.375489 81.256 162.0873
114.197055 81.236 161.8697
115.024574 81.217 161.6547
115.858089 81.202 161.4439
116.697645 81.189 161.2383
117.543284 81.179 161.0382
118.395051 81.170 160.8431
119.252990 81.162 160.6518
120.117147 81.156 160.4624
120.987565 81.149 160.2722
121.864291 81.142 160.0783
122.747370 81.136 159.8778
123.636848 81.128 159.6679
124.532771 81.120 159.4468
125.435187 81.110 159.2135
126.344142 81.099 158.9682
127.259684 81.086 158.7119
128.181860 81.072 158.4463
129.110718 81.055 158.1728
130.046308 81.036 157.8922
130.988677 81.014 157.6045
131.937875 80.990 157.3089
132.893951 80.962 157.0045
133.856956 80.931 156.6906
134.826938 80.896 156.3675
135.803950 80.858 156.0355
136.788041 80.815 155.6958
137.779264 80.768 155.3494
138.777669 80.717 154.9978
139.783309 80.662 154.6423
140.796237 80.604 154.2850
141.816504 80.541 153.9283
142.844165 80.475 153.5751
143.879273 80.405 153.2285
144.921881 80.332 152.8918
145.972045 80.254 152.5684
147.029819 80.173 152.2618
148.095257 80.089 151.9753
149.168417 80.001 151.7122
150.249353 79.910 151.4749
151.338121 79.817 151.2659
152.434780 79.721 151.0865
153.539385 79.623 150.9380
154.651995 79.523 150.8204
155.772667 79.422 150.7338
156.901460 79.321 150.6780
158.038432 79.219 150.6534
159.183644 79.118 150.6605
160.337154 79.018 150.7004
161.499023 78.919 150.7740
162.669312 78.821 150.8816
163.848081 78.726 151.0224
165.035392 78.632 151.1951
166.231306 78.541 151.3976
167.435887 78.452 151.6284
168.649196 78.365 151.8859
169.871298 78.281 152.1696
171.102255 78.201 152.4787
172.342133 78.124 152.8131
173.590995 78.051 153.1722
174.848907 77.982 153.5556
176.115934 77.918 153.9620
177.392143 77.859 154.3889
178.677599 77.805 154.8319
179.972371 77.755 155.2859
181.276525 77.711 155.7455
182.590129 77.671 156.2063
183.913252 77.635 156.6651
185.245964 77.604 157.1192
186.588332 77.578 157.5659
187.940428 77.555 158.0019
189.302322 77.537 158.4228
190.674085 77.522 158.8237
192.055788 77.510 159.1997
193.447503 77.502 159.5469
194.849303 77.498 159.8635
196.261262 77.495 160.1504
197.683452 77.496 160.4110
199.115948 77.498 160.6511
200.558824 77.501 160.8778
202.012156 77.504 161.0981
203.476019 77.506 161.3176
204.950490 77.508 161.5385
206.435646 77.509 161.7608
207.931564 77.511 161.9822
209.438322 77.512 162.1994
210.955998 77.515 162.4086
212.484672 77.520 162.6062
214.024424 77.526 162.7893
215.575333 77.533 162.9569
217.137481 77.541 163.1099
218.710948 77.551 163.2506
220.295818 77.560 163.3827
221.892172 77.570 163.5099
223.500094 77.581 163.6357
225.119668 77.592 163.7632
226.750978 77.604 163.8944
228.394109 77.618 164.0305
230.049147 77.633 164.1716
231.716178 77.650 164.3174
233.395289 77.668 164.4671
235.086567 77.688 164.6188
236.790102 77.709 164.7703
238.505980 77.731 164.9190
240.234293 77.755 165.0627
241.975130 77.780 165.2004
243.728581 77.807 165.3324
245.494739 77.837 165.4604
247.273695 77.868 165.5867
249.065542 77.903 165.7131
250.870374 77.940 165.8405
252.688284 77.980 165.9686
254.519367 78.022 166.0958
256.363720 78.066 166.2202
258.221437 78.112 166.3399
260.092616 78.159 166.4545
261.977354 78.208 166.5643
263.875750 78.257 166.6703
265.787903 78.306 166.7734
267.713911 78.354 166.8734
269.653877 78.403 166.9689
271.607900 78.451 167.0577
273.576083 78.499 167.1373
275.558528 78.547 167.2057
277.555338 78.596 167.2612
279.566619 78.645 167.3022
281.592474 78.695 167.3281
283.633009 78.746 167.3381
285.688331 78.799 167.3322
287.758546 78.853 167.3106
289.843763 78.908 167.2739
291.944090 78.964 167.2227
294.059638 79.022 167.1583
296.190515 79.080 167.0814
298.336833 79.139 166.9933
300.498705 79.198 166.8949
302.676243 79.258 166.7869
304.869559 79.317 166.6699
307.078770 79.377 166.5444
309.303989 79.437 166.4108
311.545334 79.496 166.2693
313.802919 79.556 166.1199
316.076865 79.614 165.9626
318.367288 79.672 165.7974
320.674309 79.729 165.6243
322.998047 79.785 165.4434
325.338624 79.840 165.2550
327.696162 79.894 165.0596
330.070783 79.947 164.8572
332.462612 79.998 164.6478
334.871773 80.048 164.4308
337.298392 80.096 164.2057
339.742595 80.142 163.9717
342.204510 80.186 163.7285
344.684265 80.229 163.4761
347.181989 80.269 163.2151
349.697813 80.307 162.9465
352.231868 80.342 162.6717
354.784285 80.375 162.3918
357.355198 80.407 162.1082
359.944741 80.436 161.8214
362.553049 80.463 161.5318
365.180258 80.488 161.2392
367.826505 80.511 160.9429
370.491927 80.532 160.6423
373.176665 80.551 160.3367
375.880856 80.569 160.0256
378.604644 80.585 159.7094
381.348169 80.599 159.3884
384.111575 80.611 159.0640
386.895006 80.622 158.7375
389.698607 80.631 158.4105
392.522524 80.639 158.0845
395.366904 80.644 157.7610
398.231895 80.647 157.4415
401.117648 80.648 157.1275
404.024312 80.646 156.8202
406.952038 80.642 156.5208
409.900981 80.635 156.2302
412.871292 80.626 155.9495
415.863128 80.615 155.6790
418.876643 80.602 155.4190
421.911996 80.589 155.1693
424.969344 80.574 154.9289
428.048847 80.560 154.6964
431.150666 80.545 154.4695
434.274961 80.531 154.2454
437.421897 80.517 154.0206
440.591636 80.503 153.7917
443.784345 80.490 153.5555
447.000189 80.477 153.3094
450.239337 80.463 153.0518
453.501956 80.448 152.7820
456.788219 80.433 152.4999
460.098294 80.417 152.2066
463.432356 80.399 151.9032
466.790578 80.380 151.5914
470.173135 80.360 151.2730
473.580203 80.340 150.9497
477.011961 80.318 150.6232
480.468586 80.295 150.2948
483.950259 80.272 149.9656
487.457163 80.249 149.6363
490.989478 80.226 149.3072
494.547390 80.203 148.9783
498.131084 80.179 148.6494
501.740748 80.157 148.3199
505.376568 80.134 147.9891
509.038735 80.112 147.6565
512.727439 80.090 147.3212
516.442874 80.069 146.9829
520.185232 80.048 146.6413
523.954708 80.028 146.2964
527.751500 80.008 145.9483
531.575805 79.988 145.5975
535.427822 79.969 145.2447
539.307753 79.950 144.8906
543.215800 79.931 144.5366
547.152165 79.911 144.1840
551.117055 79.892 143.8341
555.110677 79.872 143.4886
559.133237 79.852 143.1487
563.184947 79.831 142.8163
567.266018 79.810 142.4927
571.376661 79.788 142.1795
575.517092 79.765 141.8781
579.687526 79.742 141.5895
583.888181 79.717 141.3149
588.119275 79.692 141.0546
592.381030 79.666 140.8089
596.673667 79.639 140.5774
600.997410 79.612 140.3596
605.352485 79.585 140.1547
609.739119 79.557 139.9612
614.157540 79.528 139.7773
618.607979 79.500 139.6011
623.090667 79.471 139.4299
627.605839 79.441 139.2612
632.153730 79.411 139.0927
636.734576 79.380 138.9221
641.348617 79.348 138.7477
645.996094 79.314 138.5680
650.677248 79.279 138.3821
655.392323 79.242 138.1894
660.141566 79.202 137.9896
664.925224 79.159 137.7834
669.743546 79.113 137.5717
674.596784 79.063 137.3561
679.485191 79.009 137.1392
684.409020 78.950 136.9240
689.368530 78.886 136.7144
694.363979 78.816 136.5148
699.395626 78.741 136.3306
704.463736 78.660 136.1671
709.568570 78.574 136.0301
714.710396 78.482 135.9255
719.889483 78.385 135.8589
725.106099 78.283 135.8357
730.360516 78.176 135.8608
735.653010 78.066 135.9385
740.983855 77.954 136.0722
746.353329 77.840 136.2646
751.761713 77.725 136.5176
757.209288 77.610 136.8318
762.696339 77.497 137.2069
768.223151 77.387 137.6412
773.790013 77.282 138.1317
779.397214 77.181 138.6742
785.045047 77.088 139.2631
790.733808 77.002 139.8916
796.463791 76.925 140.5519
802.235296 76.858 141.2354
808.048623 76.801 141.9330
813.904077 76.755 142.6359
819.801961 76.719 143.3354
825.742584 76.694 144.0239
831.726255 76.679 144.6945
837.753287 76.673 145.3416
843.823992 76.675 145.9606
849.938689 76.686 146.5481
856.097695 76.703 147.1018
862.301332 76.726 147.6200
868.549922 76.755 148.1018
874.843793 76.789 148.5471
881.183272 76.827 148.9561
887.568689 76.869 149.3294
894.000378 76.914 149.6683
900.478673 76.962 149.9741
907.003913 77.012 150.2490
913.576437 77.065 150.4950
920.196588 77.120 150.7147
926.864712 77.177 150.9105
933.581156 77.237 151.0847
940.346270 77.300 151.2390
947.160407 77.365 151.3747
954.023921 77.434 151.4922
960.937172 77.506 151.5912
967.900519 77.582 151.6704
974.914325 77.662 151.7278
981.978956 77.746 151.7606
989.094780 77.834 151.7656
996.262169 77.925 151.7396
1003.481495 78.020 151.6793
1010.753136 78.118 151.5815
1018.077470 78.218 151.4436
1025.454879 78.319 151.2635
1032.885748 78.421 151.0397
1040.370463 78.523 150.7712
1047.909417 78.623 150.4579
1055.503000 78.720 150.1004
1063.151610 78.814 149.7001
1070.855645 78.903 149.2595
1078.615506 78.985 148.7823
1086.431599 79.061 148.2732
1094.304330 79.127 147.7385
1102.234110 79.183 147.1861
1110.221353 79.229 146.6254
1118.266475 79.264 146.0677
1126.369895 79.286 145.5264
1134.532035 79.297 145.0161
1142.753322 79.296 144.5529
1151.034184 79.286 144.1528
1159.375052 79.268 143.8311
1167.776361 79.244 143.6005
1176.238550 79.217 143.4704
1184.762060 79.191 143.4454
1193.347334 79.169 143.5244
1201.994821 79.154 143.7010
1210.704971 79.150 143.9631
1219.478238 79.158 144.2946
1228.315080 79.180 144.6763
1237.215957 79.218 145.0881
1246.181334 79.270 145.5098
1255.211678 79.337 145.9230
1264.307459 79.418 146.3119
1273.469152 79.510 146.6634
1282.697235 79.612 146.9677
1291.992188 79.723 147.2176
1301.354495 79.841 147.4086
1310.784647 79.964 147.5378
1320.283132 80.091 147.6042
1329.850448 80.221 147.6074
1339.487093 80.352 147.5480
1349.193569 80.484 147.4270
1358.970381 80.616 147.2456
1368.818041 80.747 147.0055
1378.737061 80.877 146.7083
1388.727958 81.004 146.3557
1398.791253 81.128 145.9494
1408.927471 81.249 145.4914
1419.137140 81.366 144.9836
1429.420793 81.478 144.4285
1439.778965 81.584 143.8295
1450.212197 81.684 143.1905
1460.721033 81.776 142.5168
1471.306019 81.860 141.8150
1481.967709 81.934 141.0931
1492.706658 81.998 140.3602
1503.523426 82.051 139.6270
1514.418576 82.093 138.9047
1525.392678 82.123 138.2053
1536.446302 82.142 137.5406
1547.580025 82.151 136.9219
1558.794428 82.150 136.3589
1570.090095 82.140 135.8598
1581.467615 82.123 135.4304
1592.927581 82.101 135.0742
1604.470591 82.075 134.7917
1616.097246 82.047 134.5812
1627.808153 82.019 134.4379
1639.603922 81.992 134.3549
1651.485168 81.967 134.3233
1663.452510 81.946 134.3331
1675.506573 81.929 134.3737
1687.647984 81.916 134.4344
1699.877377 81.907 134.5051
1712.195390 81.903 134.5762
1724.602663 81.902 134.6393
1737.099845 81.904 134.6871
1749.687587 81.909 134.7137
1762.366544 81.916 134.7148
1775.137379 81.922 134.6881
1788.000756 81.928 134.6327
1800.957346 81.933 134.5498
1814.007826 81.934 134.4423
1827.152874 81.931 134.3145
1840.393177 81.924 134.1720
1853.729425 81.912 134.0211
1867.162312 81.894 133.8677
1880.692540 81.872 133.7173
1894.320813 81.845 133.5731
1908.047843 81.813 133.4365
1921.874344 81.777 133.3069
1935.801038 81.737 133.1830
1949.828650 81.693 133.0637
1963.957912 81.644 132.9498
1978.189561 81.590 132.8441
1992.524338 81.530 132.7509
2006.962991 81.465 132.6754
2021.506272 81.396 132.6224
2036.154940 81.323 132.5950
2050.909758 81.248 132.5937
2065.771495 81.171 132.6163
2080.740927 81.094 132.6582
2095.818833 81.017 132.7134
2111.006001 80.942 132.7755
2126.303220 80.866 132.8397
2141.711290 80.791 132.9028
2157.231013 80.716 132.9645
2172.863198 80.641 133.0266
2188.608660 80.565 133.0923
2204.468221 80.488 133.1646
2220.442706 80.411 133.2454
2236.532950 80.334 133.3350
2252.739789 80.258 133.4317
2269.064070 80.182 133.5328
2285.506644 80.107 133.6356
2302.068367 80.031 133.7381
2318.750104 79.955 133.8407
2335.552723 79.877 133.9462
2352.477101 79.795 134.0613
2369.524119 79.709 134.1970
2386.694668 79.618 134.3689
2403.989641 79.521 134.5972
2421.409941 79.420 134.9054
2438.956476 79.315 135.3174
2456.630160 79.210 135.8546
2474.431915 79.110 136.5314
2492.362668 79.020 137.3519
2510.423356 78.944 138.3076
2528.614918 78.889 139.3786
2546.938304 78.857 140.5369
2565.394469 78.851 141.7505
2583.984375 78.872 142.9884
2602.708991 78.920 144.2226
2621.569293 78.993 145.4308
2640.566265 79.089 146.5952
2659.700897 79.208 147.7020
2678.974186 79.346 148.7388
2698.387137 79.502 149.6950
2717.940763 79.674 150.5613
2737.636082 79.858 151.3309
2757.474121 80.053 151.9999
2777.455915 80.256 152.5673
2797.582506 80.464 153.0344
2817.854942 80.677 153.4037
2838.274281 80.892 153.6776
2858.841586 81.108 153.8578
2879.557931 81.323 153.9453
2900.424394 81.535 153.9414
2921.442065 81.743 153.8485
2942.612039 81.944 153.6714
2963.935418 82.136 153.4173
2985.413316 82.318 153.0958
3007.046852 82.489 152.7179
3028.837153 82.647 152.2957
3050.785356 82.793 151.8412
3072.892604 82.927 151.3656
3095.160050 83.049 150.8781
3117.588856 83.160 150.3849
3140.180190 83.260 149.8886
3162.935230 83.351 149.3884
3185.855163 83.433 148.8811
3208.941182 83.506 148.3621
3232.194493 83.570 147.8264
3255.616307 83.624 147.2694
3279.207844 83.667 146.6865
3302.970336 83.699 146.0740
3326.905021 83.717 145.4307
3351.013146 83.719 144.7596
3375.295969 83.703 144.0707
3399.754755 83.666 143.3813
3424.390779 83.607 142.7172
3449.205326 83.523 142.1111
3474.199690 83.415 141.6017
3499.375173 83.285 141.2307
3524.733088 83.137 141.0397
3550.274757 82.975 141.0642
3576.001511 82.808 141.3259
3601.914692 82.646 141.8250
3628.015651 82.498 142.5342
