* Measurement data measured by REW V5.31.3
* Source: EXCL: Headset (USB-C to 3.5mm Headphone Jack Adapter), MICROPHONE (Master Volume), 0, volume: 0.750
* Format: 256k Log Swept Sine, 1 sweep at -12.0 dBFS with no timing reference
* Dated: Apr 7, 2025 5:13:54 PM
* REW Settings:
*  C-weighting compensation: Off
*  Target level: 75.0 dB
* Note: ; 
* Measurement: Maxwell (Wired) WC R5
* Smoothing: 1/6 octave
* Frequency Step: 96 ppo
* Start Frequency: 20.0 Hz
*
* Freq(Hz) SPL(dB) Phase(degrees)
20.187378 80.248 -14.1617
20.333664 80.321 -14.2932
20.481010 80.417 -14.4813
20.629424 80.531 -14.7362
20.778913 80.659 -15.0684
20.929486 80.796 -15.4878
21.081150 80.938 -16.0029
21.233912 81.084 -16.6205
21.387782 81.231 -17.3454
21.542767 81.378 -18.1799
21.698874 81.525 -19.1239
21.856113 81.671 -20.1747
22.014492 81.815 -21.3264
22.174018 81.957 -22.5705
22.334700 82.097 -23.8956
22.496546 82.235 -25.2880
22.659566 82.368 -26.7328
22.823766 82.498 -28.2143
22.989157 82.622 -29.7170
23.155745 82.742 -31.2271
23.323542 82.855 -32.7328
23.492554 82.961 -34.2252
23.662790 83.061 -35.6985
23.834261 83.155 -37.1505
24.006973 83.241 -38.5820
24.180938 83.321 -39.9966
24.356163 83.396 -41.4001
24.532658 83.465 -42.7998
24.710431 83.529 -44.2041
24.889493 83.590 -45.6214
25.069853 83.647 -47.0599
25.251519 83.703 -48.5269
25.434502 83.757 -50.0284
25.618811 83.810 -51.5689
25.804456 83.862 -53.1508
25.991445 83.913 -54.7746
26.179790 83.963 -56.4389
26.369500 84.011 -58.1403
26.560584 84.057 -59.8737
26.753053 84.099 -61.6332
26.946917 84.139 -63.4117
27.142185 84.175 -65.2021
27.338869 84.208 -66.9977
27.536977 84.238 -68.7924
27.736522 84.267 -70.5811
27.937512 84.296 -72.3600
28.139959 84.325 -74.1259
28.343872 84.357 -75.8767
28.549264 84.393 -77.6101
28.756143 84.433 -79.3237
28.964522 84.478 -81.0144
29.174411 84.528 -82.6780
29.385821 84.583 -84.3091
29.598763 84.641 -85.9018
29.813248 84.700 -87.4496
30.029287 84.760 -88.9463
30.246891 84.818 -90.3869
30.466073 84.872 -91.7676
30.686842 84.921 -93.0872
30.909212 84.965 -94.3465
31.133193 85.001 -95.5491
31.358797 85.030 -96.7008
31.586035 85.051 -97.8096
31.814921 85.066 -98.8853
32.045465 85.076 -99.9388
32.277680 85.081 -100.9815
32.511577 85.085 -102.0242
32.747169 85.089 -103.0762
32.984469 85.095 -104.1442
33.223488 85.104 -105.2317
33.464239 85.117 -106.3375
33.706735 85.136 -107.4566
33.950987 85.160 -108.5798
34.197010 85.189 -109.6954
34.444816 85.223 -110.7903
34.694417 85.261 -111.8522
34.945827 85.301 -112.8713
35.199059 85.343 -113.8416
35.454126 85.385 -114.7615
35.711041 85.427 -115.6340
35.969818 85.467 -116.4657
36.230470 85.506 -117.2661
36.493011 85.543 -118.0456
36.757455 85.578 -118.8145
37.023814 85.611 -119.5820
37.292104 85.643 -120.3550
37.562338 85.676 -121.1383
37.834530 85.710 -121.9342
38.108695 85.746 -122.7428
38.384846 85.785 -123.5627
38.662999 85.826 -124.3911
38.943167 85.869 -125.2250
39.225365 85.913 -126.0613
39.509608 85.958 -126.8974
39.795911 86.004 -127.7318
40.084289 86.049 -128.5639
40.374756 86.093 -129.3934
40.667328 86.137 -130.2205
40.962020 86.180 -131.0449
41.258848 86.223 -131.8658
41.557827 86.266 -132.6816
41.858972 86.310 -133.4910
42.162299 86.354 -134.2937
42.467824 86.400 -135.0910
42.775564 86.446 -135.8871
43.085533 86.491 -136.6886
43.397749 86.536 -137.5049
43.712227 86.577 -138.3467
44.028983 86.616 -139.2252
44.348036 86.650 -140.1508
44.669400 86.679 -141.1322
44.993093 86.704 -142.1755
45.319131 86.724 -143.2836
45.647532 86.741 -144.4555
45.978313 86.753 -145.6864
46.311491 86.761 -146.9675
46.647083 86.765 -148.2866
46.985107 86.764 -149.6292
47.325581 86.758 -150.9803
47.668521 86.745 -152.3253
48.013947 86.724 -153.6519
48.361876 86.696 -154.9505
48.712326 86.659 -156.2148
49.065315 86.613 -157.4415
49.420863 86.558 -158.6296
49.778987 86.495 -159.7803
50.139706 86.423 -160.8956
50.503039 86.343 -161.9782
50.869005 86.255 -163.0313
51.237623 86.159 -164.0576
51.608912 86.057 -165.0598
51.982891 85.949 -166.0403
52.359580 85.835 -167.0007
52.739000 85.717 -167.9426
53.121168 85.597 -168.8667
53.506106 85.474 -169.7732
53.893833 85.350 -170.6611
54.284370 85.226 -171.5287
54.677737 85.102 -172.3741
55.073955 84.979 -173.1958
55.473043 84.857 -173.9932
55.875024 84.735 -174.7663
56.279917 84.615 -175.5152
56.687745 84.496 -176.2395
57.098527 84.378 -176.9373
57.512287 84.262 -177.6047
57.929045 84.149 -178.2366
58.348822 84.039 -178.8267
58.771642 83.932 -179.3682
59.197525 83.829 -179.8555
59.626495 83.730 179.7148
60.058573 83.635 179.3423
60.493782 83.543 179.0221
60.932145 83.455 178.7458
61.373685 83.371 178.5032
61.818424 83.291 178.2843
62.266386 83.214 178.0817
62.717593 83.140 177.8903
63.172071 83.069 177.7081
63.629842 83.001 177.5349
64.090930 82.937 177.3719
64.555359 82.876 177.2207
65.023154 82.820 177.0827
65.494339 82.767 176.9590
65.968938 82.719 176.8503
66.446976 82.675 176.7567
66.928478 82.636 176.6772
67.413469 82.601 176.6096
67.901975 82.569 176.5495
68.394021 82.539 176.4920
68.889632 82.512 176.4319
69.388835 82.486 176.3654
69.891655 82.461 176.2904
70.398118 82.435 176.2066
70.908252 82.410 176.1149
71.422083 82.386 176.0164
71.939636 82.361 175.9113
72.460941 82.338 175.7992
72.986023 82.315 175.6790
73.514909 82.292 175.5499
74.047629 82.269 175.4118
74.584208 82.247 175.2656
75.124676 82.224 175.1120
75.669061 82.200 174.9515
76.217390 82.176 174.7838
76.769692 82.151 174.6082
77.325997 82.125 174.4238
77.886333 82.098 174.2302
78.450730 82.071 174.0273
79.019216 82.043 173.8152
79.591822 82.015 173.5937
80.168577 81.987 173.3618
80.749512 81.959 173.1183
81.334656 81.931 172.8619
81.924040 81.903 172.5917
82.517696 81.876 172.3080
83.115653 81.848 172.0116
83.717943 81.820 171.7042
84.324598 81.793 171.3877
84.935649 81.764 171.0640
85.551128 81.735 170.7348
86.171066 81.704 170.4015
86.795497 81.670 170.0654
87.424453 81.634 169.7275
88.057967 81.596 169.3892
88.696071 81.553 169.0517
89.338800 81.508 168.7164
89.986185 81.459 168.3846
90.638262 81.408 168.0576
91.295065 81.353 167.7361
91.956626 81.296 167.4209
92.622982 81.237 167.1127
93.294166 81.176 166.8124
93.970214 81.114 166.5215
94.651161 81.051 166.2415
95.337042 80.987 165.9738
96.027894 80.923 165.7194
96.723752 80.858 165.4786
97.424652 80.794 165.2508
98.130631 80.730 165.0350
98.841726 80.666 164.8301
99.557974 80.602 164.6347
100.279412 80.539 164.4473
101.006078 80.477 164.2669
101.738010 80.415 164.0926
102.475245 80.353 163.9242
103.217823 80.293 163.7622
103.965782 80.234 163.6076
104.719161 80.177 163.4615
105.477999 80.122 163.3249
106.242336 80.070 163.1987
107.012212 80.020 163.0835
107.787666 79.974 162.9791
108.568740 79.930 162.8849
109.355474 79.889 162.7994
110.147909 79.850 162.7209
110.946086 79.813 162.6472
111.750047 79.778 162.5766
112.559834 79.745 162.5081
113.375489 79.714 162.4420
114.197055 79.684 162.3795
115.024574 79.656 162.3224
115.858089 79.629 162.2724
116.697645 79.603 162.2308
117.543284 79.579 162.1984
118.395051 79.556 162.1753
119.252990 79.535 162.1605
120.117147 79.515 162.1517
120.987565 79.496 162.1453
121.864291 79.479 162.1364
122.747370 79.462 162.1196
123.636848 79.447 162.0901
124.532771 79.431 162.0446
125.435187 79.417 161.9818
126.344142 79.401 161.9021
127.259684 79.385 161.8076
128.181860 79.368 161.7007
129.110718 79.349 161.5840
130.046308 79.328 161.4593
130.988677 79.304 161.3270
131.937875 79.278 161.1864
132.893951 79.248 161.0359
133.856956 79.216 160.8736
134.826938 79.180 160.6985
135.803950 79.140 160.5104
136.788041 79.096 160.3109
137.779264 79.049 160.1024
138.777669 78.998 159.8884
139.783309 78.943 159.6735
140.796237 78.884 159.4621
141.816504 78.822 159.2585
142.844165 78.755 159.0666
143.879273 78.686 158.8896
144.921881 78.613 158.7299
145.972045 78.538 158.5891
147.029819 78.459 158.4679
148.095257 78.379 158.3663
149.168417 78.296 158.2840
150.249353 78.212 158.2204
151.338121 78.126 158.1755
152.434780 78.039 158.1497
153.539385 77.950 158.1440
154.651995 77.861 158.1598
155.772667 77.772 158.1989
156.901460 77.682 158.2632
158.038432 77.592 158.3549
159.183644 77.502 158.4762
160.337154 77.412 158.6290
161.499023 77.322 158.8152
162.669312 77.233 159.0369
163.848081 77.145 159.2961
165.035392 77.059 159.5952
166.231306 76.975 159.9355
167.435887 76.895 160.3167
168.649196 76.818 160.7366
169.871298 76.746 161.1914
171.102255 76.678 161.6762
172.342133 76.616 162.1860
173.590995 76.558 162.7160
174.848907 76.504 163.2620
176.115934 76.455 163.8204
177.392143 76.410 164.3884
178.677599 76.370 164.9642
179.972371 76.333 165.5468
181.276525 76.301 166.1355
182.590129 76.273 166.7289
183.913252 76.251 167.3252
185.245964 76.233 167.9215
186.588332 76.220 168.5143
187.940428 76.211 169.0999
189.302322 76.207 169.6743
190.674085 76.207 170.2341
192.055788 76.210 170.7767
193.447503 76.216 171.2996
194.849303 76.225 171.8010
196.261262 76.238 172.2786
197.683452 76.253 172.7303
199.115948 76.270 173.1539
200.558824 76.289 173.5473
202.012156 76.310 173.9086
203.476019 76.332 174.2370
204.950490 76.355 174.5333
206.435646 76.379 174.8011
207.931564 76.405 175.0461
209.438322 76.431 175.2750
210.955998 76.457 175.4938
212.484672 76.482 175.7072
214.024424 76.508 175.9187
215.575333 76.532 176.1307
217.137481 76.556 176.3453
218.710948 76.581 176.5637
220.295818 76.606 176.7866
221.892172 76.632 177.0137
223.500094 76.660 177.2438
225.119668 76.689 177.4750
226.750978 76.720 177.7051
228.394109 76.753 177.9319
230.049147 76.788 178.1533
231.716178 76.825 178.3679
233.395289 76.864 178.5753
235.086567 76.904 178.7757
236.790102 76.945 178.9703
238.505980 76.988 179.1605
240.234293 77.032 179.3478
241.975130 77.078 179.5333
243.728581 77.124 179.7177
245.494739 77.171 179.9014
247.273695 77.219 -179.9152
249.065542 77.269 -179.7317
250.870374 77.320 -179.5479
252.688284 77.373 -179.3635
254.519367 77.429 -179.1780
256.363720 77.488 -178.9918
258.221437 77.549 -178.8060
260.092616 77.612 -178.6226
261.977354 77.677 -178.4441
263.875750 77.744 -178.2730
265.787903 77.813 -178.1114
267.713911 77.884 -177.9604
269.653877 77.956 -177.8206
271.607900 78.031 -177.6917
273.576083 78.107 -177.5731
275.558528 78.184 -177.4644
277.555338 78.264 -177.3656
279.566619 78.346 -177.2770
281.592474 78.429 -177.1995
283.633009 78.515 -177.1335
285.688331 78.602 -177.0794
287.758546 78.691 -177.0368
289.843763 78.781 -177.0054
291.944090 78.872 -176.9851
294.059638 78.964 -176.9758
296.190515 79.057 -176.9781
298.336833 79.150 -176.9929
300.498705 79.243 -177.0214
302.676243 79.337 -177.0654
304.869559 79.431 -177.1266
307.078770 79.525 -177.2062
309.303989 79.619 -177.3046
311.545334 79.714 -177.4215
313.802919 79.809 -177.5566
316.076865 79.903 -177.7092
318.367288 79.998 -177.8788
320.674309 80.093 -178.0650
322.998047 80.188 -178.2678
325.338624 80.283 -178.4874
327.696162 80.376 -178.7243
330.070783 80.469 -178.9790
332.462612 80.561 -179.2517
334.871773 80.652 -179.5428
337.298392 80.741 -179.8520
339.742595 80.828 179.8208
342.204510 80.913 179.4759
344.684265 80.995 179.1138
347.181989 81.075 178.7348
349.697813 81.152 178.3395
352.231868 81.226 177.9280
354.784285 81.298 177.5006
357.355198 81.367 177.0576
359.944741 81.433 176.5988
362.553049 81.496 176.1245
365.180258 81.556 175.6345
367.826505 81.613 175.1290
370.491927 81.668 174.6086
373.176665 81.719 174.0740
375.880856 81.767 173.5259
378.604644 81.812 172.9653
381.348169 81.853 172.3931
384.111575 81.891 171.8103
386.895006 81.925 171.2185
389.698607 81.955 170.6196
392.522524 81.980 170.0158
395.366904 82.002 169.4092
398.231895 82.019 168.8022
401.117648 82.031 168.1971
404.024312 82.040 167.5962
406.952038 82.044 167.0020
409.900981 82.044 166.4169
412.871292 82.039 165.8434
415.863128 82.031 165.2837
418.876643 82.020 164.7394
421.911996 82.005 164.2118
424.969344 81.988 163.7012
428.048847 81.968 163.2073
431.150666 81.946 162.7291
434.274961 81.923 162.2646
437.421897 81.900 161.8115
440.591636 81.876 161.3666
443.784345 81.851 160.9268
447.000189 81.827 160.4885
450.239337 81.803 160.0487
453.501956 81.779 159.6048
456.788219 81.754 159.1548
460.098294 81.729 158.6974
463.432356 81.704 158.2321
466.790578 81.678 157.7589
470.173135 81.651 157.2782
473.580203 81.622 156.7907
477.011961 81.593 156.2972
480.468586 81.562 155.7984
483.950259 81.530 155.2949
487.457163 81.497 154.7877
490.989478 81.463 154.2775
494.547390 81.427 153.7653
498.131084 81.391 153.2521
501.740748 81.355 152.7385
505.376568 81.317 152.2251
509.038735 81.279 151.7119
512.727439 81.241 151.1989
516.442874 81.202 150.6860
520.185232 81.163 150.1730
523.954708 81.123 149.6600
527.751500 81.084 149.1477
531.575805 81.045 148.6368
535.427822 81.006 148.1288
539.307753 80.967 147.6248
543.215800 80.927 147.1264
547.152165 80.888 146.6347
551.117055 80.848 146.1510
555.110677 80.807 145.6762
559.133237 80.765 145.2113
563.184947 80.723 144.7573
567.266018 80.679 144.3150
571.376661 80.635 143.8857
575.517092 80.589 143.4706
579.687526 80.542 143.0707
583.888181 80.494 142.6871
588.119275 80.444 142.3206
592.381030 80.393 141.9719
596.673667 80.340 141.6414
600.997410 80.286 141.3293
605.352485 80.230 141.0354
609.739119 80.173 140.7593
614.157540 80.114 140.5004
618.607979 80.054 140.2578
623.090667 79.992 140.0305
627.605839 79.930 139.8169
632.153730 79.867 139.6157
636.734576 79.803 139.4246
641.348617 79.738 139.2418
645.996094 79.673 139.0646
650.677248 79.608 138.8907
655.392323 79.541 138.7180
660.141566 79.474 138.5444
664.925224 79.406 138.3685
669.743546 79.336 138.1891
674.596784 79.263 138.0060
679.485191 79.188 137.8196
684.409020 79.110 137.6314
689.368530 79.028 137.4437
694.363979 78.941 137.2596
699.395626 78.849 137.0831
704.463736 78.752 136.9188
709.568570 78.650 136.7721
714.710396 78.541 136.6490
719.889483 78.427 136.5557
725.106099 78.306 136.4993
730.360516 78.180 136.4868
735.653010 78.048 136.5255
740.983855 77.911 136.6223
746.353329 77.770 136.7832
751.761713 77.627 137.0139
757.209288 77.481 137.3184
762.696339 77.335 137.6998
768.223151 77.190 138.1594
773.790013 77.047 138.6968
779.397214 76.909 139.3097
785.045047 76.777 139.9938
790.733808 76.653 140.7428
796.463791 76.539 141.5479
802.235296 76.436 142.3985
808.048623 76.345 143.2823
813.904077 76.268 144.1864
819.801961 76.204 145.0973
825.742584 76.153 146.0023
831.726255 76.116 146.8900
837.753287 76.092 147.7506
843.823992 76.079 148.5760
849.938689 76.077 149.3604
856.097695 76.084 150.0997
862.301332 76.100 150.7919
868.549922 76.122 151.4360
874.843793 76.149 152.0325
881.183272 76.182 152.5829
887.568689 76.218 153.0894
894.000378 76.258 153.5548
900.478673 76.299 153.9828
907.003913 76.343 154.3774
913.576437 76.388 154.7429
920.196588 76.435 155.0838
926.864712 76.483 155.4049
933.581156 76.534 155.7103
940.346270 76.587 156.0036
947.160407 76.643 156.2874
954.023921 76.703 156.5632
960.937172 76.767 156.8307
967.900519 76.837 157.0886
974.914325 76.913 157.3334
981.978956 76.996 157.5609
989.094780 77.085 157.7655
996.262169 77.180 157.9411
1003.481495 77.282 158.0817
1010.753136 77.389 158.1819
1018.077470 77.500 158.2373
1025.454879 77.616 158.2444
1032.885748 77.734 158.2010
1040.370463 77.853 158.1063
1047.909417 77.974 157.9603
1055.503000 78.094 157.7639
1063.151610 78.212 157.5186
1070.855645 78.329 157.2266
1078.615506 78.442 156.8900
1086.431599 78.552 156.5113
1094.304330 78.657 156.0930
1102.234110 78.757 155.6378
1110.221353 78.851 155.1483
1118.266475 78.938 154.6273
1126.369895 79.018 154.0784
1134.532035 79.090 153.5056
1142.753322 79.152 152.9143
1151.034184 79.205 152.3112
1159.375052 79.248 151.7042
1167.776361 79.280 151.1031
1176.238550 79.302 150.5189
1184.762060 79.313 149.9635
1193.347334 79.315 149.4492
1201.994821 79.307 148.9883
1210.704971 79.293 148.5923
1219.478238 79.273 148.2715
1228.315080 79.250 148.0345
1237.215957 79.227 147.8876
1246.181334 79.206 147.8341
1255.211678 79.190 147.8731
1264.307459 79.182 147.9990
1273.469152 79.185 148.2005
1282.697235 79.202 148.4608
1291.992188 79.234 148.7588
1301.354495 79.283 149.0706
1310.784647 79.348 149.3718
1320.283132 79.427 149.6395
1329.850448 79.520 149.8538
1339.487093 79.624 149.9990
1349.193569 79.737 150.0638
1358.970381 79.855 150.0411
1368.818041 79.978 149.9272
1378.737061 80.102 149.7215
1388.727958 80.225 149.4257
1398.791253 80.345 149.0431
1408.927471 80.461 148.5785
1419.137140 80.572 148.0375
1429.420793 80.675 147.4265
1439.778965 80.770 146.7529
1450.212197 80.856 146.0251
1460.721033 80.930 145.2524
1471.306019 80.993 144.4457
1481.967709 81.043 143.6167
1492.706658 81.078 142.7788
1503.523426 81.100 141.9463
1514.418576 81.107 141.1344
1525.392678 81.099 140.3590
1536.446302 81.078 139.6360
1547.580025 81.043 138.9807
1558.794428 80.997 138.4071
1570.090095 80.941 137.9269
1581.467615 80.877 137.5484
1592.927581 80.809 137.2761
1604.470591 80.739 137.1096
1616.097246 80.669 137.0433
1627.808153 80.602 137.0667
1639.603922 80.540 137.1650
1651.485168 80.485 137.3207
1663.452510 80.438 137.5153
1675.506573 80.398 137.7308
1687.647984 80.365 137.9514
1699.877377 80.338 138.1643
1712.195390 80.315 138.3598
1724.602663 80.297 138.5312
1737.099845 80.281 138.6747
1749.687587 80.266 138.7885
1762.366544 80.251 138.8734
1775.137379 80.235 138.9312
1788.000756 80.217 138.9655
1800.957346 80.197 138.9801
1814.007826 80.173 138.9796
1827.152874 80.145 138.9681
1840.393177 80.112 138.9498
1853.729425 80.075 138.9292
1867.162312 80.034 138.9109
1880.692540 79.987 138.8998
1894.320813 79.935 138.9013
1908.047843 79.879 138.9197
1921.874344 79.819 138.9579
1935.801038 79.755 139.0166
1949.828650 79.688 139.0945
1963.957912 79.620 139.1894
1978.189561 79.549 139.2984
1992.524338 79.477 139.4194
2006.962991 79.403 139.5506
2021.506272 79.327 139.6905
2036.154940 79.250 139.8378
2050.909758 79.172 139.9911
2065.771495 79.093 140.1488
2080.740927 79.013 140.3097
2095.818833 78.932 140.4727
2111.006001 78.850 140.6370
2126.303220 78.768 140.8026
2141.711290 78.685 140.9700
2157.231013 78.601 141.1406
2172.863198 78.516 141.3166
2188.608660 78.430 141.5012
2204.468221 78.344 141.6975
2220.442706 78.258 141.9080
2236.532950 78.172 142.1344
2252.739789 78.086 142.3767
2269.064070 78.003 142.6342
2285.506644 77.921 142.9053
2302.068367 77.840 143.1887
2318.750104 77.762 143.4832
2335.552723 77.686 143.7880
2352.477101 77.613 144.1019
2369.524119 77.542 144.4245
2386.694668 77.472 144.7559
2403.989641 77.405 145.0981
2421.409941 77.338 145.4560
2438.956476 77.273 145.8369
2456.630160 77.209 146.2500
2474.431915 77.147 146.7050
2492.362668 77.088 147.2097
2510.423356 77.035 147.7678
2528.614918 76.990 148.3777
2546.938304 76.955 149.0322
2565.394469 76.930 149.7209
2583.984375 76.916 150.4320
2602.708991 76.914 151.1555
2621.569293 76.923 151.8847
2640.566265 76.942 152.6167
2659.700897 76.970 153.3518
2678.974186 77.009 154.0920
2698.387137 77.058 154.8389
2717.940763 77.117 155.5915
2737.636082 77.188 156.3460
2757.474121 77.270 157.0958
2777.455915 77.364 157.8319
2797.582506 77.469 158.5451
2817.854942 77.585 159.2259
2838.274281 77.710 159.8652
2858.841586 77.844 160.4541
2879.557931 77.985 160.9836
2900.424394 78.131 161.4450
2921.442065 78.279 161.8316
2942.612039 78.427 162.1397
2963.935418 78.573 162.3703
2985.413316 78.713 162.5289
3007.046852 78.846 162.6248
3028.837153 78.970 162.6694
3050.785356 79.085 162.6753
3072.892604 79.189 162.6550
3095.160050 79.283 162.6205
3117.588856 79.367 162.5827
3140.180190 79.441 162.5501
3162.935230 79.508 162.5285
3185.855163 79.567 162.5201
3208.941182 79.620 162.5232
3232.194493 79.669 162.5326
3255.616307 79.714 162.5400
3279.207844 79.756 162.5347
3302.970336 79.794 162.5040
3326.905021 79.828 162.4344
3351.013146 79.857 162.3136
3375.295969 79.877 162.1332
3399.754755 79.887 161.8911
3424.390779 79.883 161.5939
3449.205326 79.860 161.2579
3474.199690 79.818 160.9093
3499.375173 79.753 160.5829
3524.733088 79.664 160.3210
3550.274757 79.553 160.1703
3576.001511 79.423 160.1791
3601.914692 79.279 160.3906
