* Measurement data measured by REW V5.31.3
* Source: EXCL: Headset (USB-C to 3.5mm Headphone Jack Adapter), MICROPHONE (Master Volume), 0, volume: 0.750
* Format: 256k Log Swept Sine, 1 sweep at -12.0 dBFS with no timing reference
* Dated: Apr 7, 2025 5:14:54 PM
* REW Settings:
*  C-weighting compensation: Off
*  Target level: 75.0 dB
* Note: ; 
* Measurement: Maxwell (Wired) WC R8
* Smoothing: 1/6 octave
* Frequency Step: 96 ppo
* Start Frequency: 20.0 Hz
*
* Freq(Hz) SPL(dB) Phase(degrees)
20.187378 80.400 -20.8669
20.333664 80.435 -21.7345
20.481010 80.480 -22.8636
20.629424 80.530 -24.1804
20.778913 80.582 -25.6064
20.929486 80.632 -27.0651
21.081150 80.680 -28.4883
21.233912 80.726 -29.8201
21.387782 80.773 -31.0195
21.542767 80.825 -32.0624
21.698874 80.885 -32.9414
21.856113 80.958 -33.6659
22.014492 81.046 -34.2595
22.174018 81.152 -34.7574
22.334700 81.276 -35.2015
22.496546 81.416 -35.6356
22.659566 81.571 -36.1009
22.823766 81.735 -36.6323
22.989157 81.907 -37.2565
23.155745 82.081 -37.9914
23.323542 82.257 -38.8469
23.492554 82.431 -39.8266
23.662790 82.602 -40.9298
23.834261 82.769 -42.1524
24.006973 82.931 -43.4888
24.180938 83.088 -44.9312
24.356163 83.237 -46.4705
24.532658 83.379 -48.0949
24.710431 83.510 -49.7903
24.889493 83.631 -51.5393
25.069853 83.738 -53.3218
25.251519 83.832 -55.1157
25.434502 83.912 -56.8981
25.618811 83.979 -58.6471
25.804456 84.033 -60.3440
25.991445 84.077 -61.9747
26.179790 84.114 -63.5319
26.369500 84.147 -65.0154
26.560584 84.177 -66.4327
26.753053 84.208 -67.7968
26.946917 84.239 -69.1248
27.142185 84.271 -70.4348
27.338869 84.303 -71.7429
27.536977 84.333 -73.0608
27.736522 84.361 -74.3946
27.937512 84.384 -75.7445
28.139959 84.402 -77.1061
28.343872 84.416 -78.4717
28.549264 84.428 -79.8336
28.756143 84.438 -81.1858
28.964522 84.450 -82.5254
29.174411 84.465 -83.8539
29.385821 84.484 -85.1756
29.598763 84.507 -86.4970
29.813248 84.534 -87.8235
30.029287 84.562 -89.1578
30.246891 84.588 -90.4982
30.466073 84.610 -91.8382
30.686842 84.627 -93.1671
30.909212 84.636 -94.4721
31.133193 84.640 -95.7404
31.358797 84.639 -96.9620
31.586035 84.636 -98.1320
31.814921 84.635 -99.2519
32.045465 84.639 -100.3298
32.277680 84.650 -101.3794
32.511577 84.670 -102.4177
32.747169 84.700 -103.4622
32.984469 84.737 -104.5280
33.223488 84.781 -105.6252
33.464239 84.828 -106.7575
33.706735 84.876 -107.9221
33.950987 84.922 -109.1099
34.197010 84.964 -110.3077
34.444816 85.002 -111.4994
34.694417 85.034 -112.6683
34.945827 85.062 -113.7991
35.199059 85.087 -114.8793
35.454126 85.110 -115.9005
35.711041 85.133 -116.8587
35.969818 85.159 -117.7547
36.230470 85.188 -118.5940
36.493011 85.223 -119.3856
36.757455 85.265 -120.1419
37.023814 85.314 -120.8767
37.292104 85.370 -121.6050
37.562338 85.431 -122.3407
37.834530 85.496 -123.0958
38.108695 85.562 -123.8787
38.384846 85.625 -124.6929
38.662999 85.684 -125.5372
38.943167 85.735 -126.4049
39.225365 85.777 -127.2857
39.509608 85.808 -128.1672
39.795911 85.830 -129.0370
40.084289 85.843 -129.8851
40.374756 85.851 -130.7050
40.667328 85.856 -131.4950
40.962020 85.861 -132.2576
41.258848 85.869 -132.9982
41.557827 85.882 -133.7244
41.858972 85.901 -134.4439
42.162299 85.927 -135.1642
42.467824 85.960 -135.8928
42.775564 85.999 -136.6375
43.085533 86.045 -137.4070
43.397749 86.095 -138.2110
43.712227 86.149 -139.0591
44.028983 86.205 -139.9602
44.348036 86.260 -140.9200
44.669400 86.314 -141.9407
44.993093 86.364 -143.0198
45.319131 86.410 -144.1513
45.647532 86.450 -145.3269
45.978313 86.483 -146.5371
46.311491 86.510 -147.7729
46.647083 86.528 -149.0266
46.985107 86.538 -150.2914
47.325581 86.538 -151.5617
47.668521 86.528 -152.8327
48.013947 86.507 -154.1006
48.361876 86.475 -155.3624
48.712326 86.434 -156.6160
49.065315 86.384 -157.8603
49.420863 86.325 -159.0939
49.778987 86.258 -160.3148
50.139706 86.184 -161.5192
50.503039 86.103 -162.7023
50.869005 86.015 -163.8580
51.237623 85.921 -164.9809
51.608912 85.821 -166.0664
51.982891 85.716 -167.1114
52.359580 85.606 -168.1139
52.739000 85.492 -169.0726
53.121168 85.373 -169.9866
53.506106 85.250 -170.8551
53.893833 85.123 -171.6775
54.284370 84.993 -172.4537
54.677737 84.861 -173.1839
55.073955 84.726 -173.8683
55.473043 84.589 -174.5067
55.875024 84.452 -175.0991
56.279917 84.315 -175.6462
56.687745 84.179 -176.1501
57.098527 84.045 -176.6142
57.512287 83.913 -177.0432
57.929045 83.783 -177.4418
58.348822 83.655 -177.8143
58.771642 83.531 -178.1646
59.197525 83.412 -178.4962
59.626495 83.298 -178.8136
60.058573 83.194 -179.1214
60.493782 83.099 -179.4235
60.932145 83.015 -179.7225
61.373685 82.940 179.9812
61.818424 82.875 179.6892
62.266386 82.816 179.4040
62.717593 82.762 179.1282
63.172071 82.711 178.8638
63.629842 82.663 178.6124
64.090930 82.616 178.3745
64.555359 82.571 178.1501
65.023154 82.528 177.9393
65.494339 82.488 177.7419
65.968938 82.450 177.5587
66.446976 82.415 177.3905
66.928478 82.382 177.2377
67.413469 82.351 177.0999
67.901975 82.323 176.9759
68.394021 82.296 176.8633
68.889632 82.272 176.7595
69.388835 82.249 176.6617
69.891655 82.227 176.5676
70.398118 82.208 176.4748
70.908252 82.191 176.3803
71.422083 82.174 176.2805
71.939636 82.158 176.1707
72.460941 82.142 176.0463
72.986023 82.125 175.9040
73.514909 82.107 175.7427
74.047629 82.086 175.5636
74.584208 82.064 175.3701
75.124676 82.039 175.1669
75.669061 82.014 174.9585
76.217390 81.987 174.7480
76.769692 81.960 174.5364
77.325997 81.933 174.3235
77.886333 81.906 174.1081
78.450730 81.880 173.8896
79.019216 81.854 173.6679
79.591822 81.828 173.4434
80.168577 81.803 173.2166
80.749512 81.776 172.9875
81.334656 81.750 172.7562
81.924040 81.722 172.5220
82.517696 81.694 172.2840
83.115653 81.665 172.0409
83.717943 81.635 171.7910
84.324598 81.605 171.5323
84.935649 81.574 171.2632
85.551128 81.542 170.9821
86.171066 81.508 170.6880
86.795497 81.472 170.3808
87.424453 81.435 170.0611
88.057967 81.395 169.7303
88.696071 81.353 169.3906
89.338800 81.309 169.0446
89.986185 81.263 168.6955
90.638262 81.215 168.3465
91.295065 81.165 168.0011
91.956626 81.113 167.6626
92.622982 81.059 167.3333
93.294166 81.003 167.0146
93.970214 80.945 166.7070
94.651161 80.886 166.4106
95.337042 80.827 166.1254
96.027894 80.766 165.8517
96.723752 80.704 165.5901
97.424652 80.643 165.3414
98.130631 80.580 165.1063
98.841726 80.518 164.8853
99.557974 80.455 164.6783
100.279412 80.393 164.4854
101.006078 80.332 164.3059
101.738010 80.272 164.1393
102.475245 80.213 163.9854
103.217823 80.155 163.8438
103.965782 80.100 163.7150
104.719161 80.046 163.5996
105.477999 79.994 163.4980
106.242336 79.943 163.4098
107.012212 79.894 163.3336
107.787666 79.848 163.2671
108.568740 79.803 163.2073
109.355474 79.760 163.1519
110.147909 79.719 163.0992
110.946086 79.681 163.0488
111.750047 79.645 163.0010
112.559834 79.611 162.9564
113.375489 79.580 162.9152
114.197055 79.551 162.8765
115.024574 79.524 162.8386
115.858089 79.498 162.7991
116.697645 79.474 162.7550
117.543284 79.451 162.7032
118.395051 79.430 162.6414
119.252990 79.409 162.5677
120.117147 79.390 162.4815
120.987565 79.373 162.3838
121.864291 79.357 162.2764
122.747370 79.342 162.1617
123.636848 79.328 162.0419
124.532771 79.315 161.9185
125.435187 79.302 161.7919
126.344142 79.290 161.6620
127.259684 79.278 161.5281
128.181860 79.266 161.3893
129.110718 79.253 161.2447
130.046308 79.238 161.0936
130.988677 79.221 160.9353
131.937875 79.201 160.7695
132.893951 79.177 160.5965
133.856956 79.149 160.4167
134.826938 79.116 160.2310
135.803950 79.077 160.0403
136.788041 79.034 159.8450
137.779264 78.984 159.6462
138.777669 78.930 159.4450
139.783309 78.872 159.2428
140.796237 78.810 159.0410
141.816504 78.744 158.8411
142.844165 78.674 158.6446
143.879273 78.602 158.4536
144.921881 78.527 158.2703
145.972045 78.449 158.0980
147.029819 78.369 157.9404
148.095257 78.287 157.8020
149.168417 78.204 157.6870
150.249353 78.119 157.5999
151.338121 78.032 157.5440
152.434780 77.944 157.5222
153.539385 77.856 157.5359
154.651995 77.766 157.5854
155.772667 77.675 157.6700
156.901460 77.584 157.7885
158.038432 77.492 157.9391
159.183644 77.401 158.1202
160.337154 77.309 158.3304
161.499023 77.218 158.5685
162.669312 77.128 158.8338
163.848081 77.039 159.1257
165.035392 76.953 159.4443
166.231306 76.869 159.7894
167.435887 76.788 160.1611
168.649196 76.711 160.5594
169.871298 76.638 160.9843
171.102255 76.570 161.4356
172.342133 76.506 161.9128
173.590995 76.447 162.4149
174.848907 76.393 162.9405
176.115934 76.344 163.4876
177.392143 76.299 164.0528
178.677599 76.258 164.6321
179.972371 76.222 165.2208
181.276525 76.189 165.8139
182.590129 76.161 166.4061
183.913252 76.137 166.9925
185.245964 76.117 167.5695
186.588332 76.100 168.1347
187.940428 76.088 168.6870
189.302322 76.079 169.2254
190.674085 76.074 169.7487
192.055788 76.072 170.2559
193.447503 76.074 170.7460
194.849303 76.079 171.2187
196.261262 76.086 171.6740
197.683452 76.096 172.1116
199.115948 76.109 172.5314
200.558824 76.124 172.9325
202.012156 76.141 173.3132
203.476019 76.161 173.6711
204.950490 76.184 174.0043
206.435646 76.209 174.3121
207.931564 76.236 174.5956
209.438322 76.264 174.8574
210.955998 76.294 175.1010
212.484672 76.324 175.3300
214.024424 76.356 175.5477
215.575333 76.387 175.7570
217.137481 76.419 175.9605
218.710948 76.451 176.1607
220.295818 76.483 176.3598
221.892172 76.515 176.5597
223.500094 76.547 176.7619
225.119668 76.580 176.9672
226.750978 76.613 177.1763
228.394109 76.646 177.3893
230.049147 76.681 177.6060
231.716178 76.717 177.8256
233.395289 76.753 178.0470
235.086567 76.791 178.2682
236.790102 76.830 178.4872
238.505980 76.870 178.7025
240.234293 76.912 178.9133
241.975130 76.955 179.1201
243.728581 77.001 179.3247
245.494739 77.049 179.5289
247.273695 77.099 179.7345
249.065542 77.152 179.9429
250.870374 77.207 -179.8452
252.688284 77.264 -179.6297
254.519367 77.323 -179.4116
256.363720 77.384 -179.1924
258.221437 77.446 -178.9746
260.092616 77.510 -178.7607
261.977354 77.576 -178.5533
263.875750 77.644 -178.3546
265.787903 77.715 -178.1662
267.713911 77.787 -177.9888
269.653877 77.862 -177.8224
271.607900 77.938 -177.6671
273.576083 78.016 -177.5229
275.558528 78.096 -177.3906
277.555338 78.177 -177.2711
279.566619 78.260 -177.1658
281.592474 78.346 -177.0758
283.633009 78.433 -177.0018
285.688331 78.522 -176.9446
287.758546 78.613 -176.9046
289.843763 78.706 -176.8820
291.944090 78.800 -176.8765
294.059638 78.895 -176.8874
296.190515 78.991 -176.9141
298.336833 79.088 -176.9564
300.498705 79.186 -177.0141
302.676243 79.285 -177.0876
304.869559 79.385 -177.1775
307.078770 79.486 -177.2845
309.303989 79.587 -177.4095
311.545334 79.689 -177.5536
313.802919 79.791 -177.7175
316.076865 79.893 -177.9017
318.367288 79.996 -178.1066
320.674309 80.097 -178.3325
322.998047 80.198 -178.5793
325.338624 80.299 -178.8471
327.696162 80.397 -179.1357
330.070783 80.495 -179.4446
332.462612 80.590 -179.7733
334.871773 80.683 179.8789
337.298392 80.774 179.5126
339.742595 80.862 179.1282
342.204510 80.947 178.7258
344.684265 81.029 178.3057
347.181989 81.108 177.8680
349.697813 81.183 177.4132
352.231868 81.255 176.9415
354.784285 81.323 176.4534
357.355198 81.389 175.9492
359.944741 81.450 175.4296
362.553049 81.508 174.8953
365.180258 81.563 174.3473
367.826505 81.614 173.7865
370.491927 81.661 173.2139
373.176665 81.705 172.6304
375.880856 81.744 172.0372
378.604644 81.780 171.4352
381.348169 81.813 170.8257
384.111575 81.841 170.2104
386.895006 81.864 169.5913
389.698607 81.884 168.9702
392.522524 81.900 168.3495
395.366904 81.911 167.7316
398.231895 81.919 167.1190
401.117648 81.923 166.5142
404.024312 81.923 165.9198
406.952038 81.920 165.3381
409.900981 81.914 164.7711
412.871292 81.904 164.2206
415.863128 81.893 163.6874
418.876643 81.878 163.1720
421.911996 81.863 162.6738
424.969344 81.845 162.1917
428.048847 81.826 161.7241
431.150666 81.806 161.2687
434.274961 81.786 160.8228
437.421897 81.765 160.3833
440.591636 81.743 159.9471
443.784345 81.721 159.5109
447.000189 81.699 159.0715
450.239337 81.676 158.6263
453.501956 81.652 158.1735
456.788219 81.627 157.7116
460.098294 81.602 157.2404
463.432356 81.575 156.7602
466.790578 81.547 156.2720
470.173135 81.518 155.7772
473.580203 81.488 155.2771
477.011961 81.456 154.7730
480.468586 81.423 154.2659
483.950259 81.389 153.7567
487.457163 81.354 153.2460
490.989478 81.318 152.7344
494.547390 81.282 152.2226
498.131084 81.244 151.7108
501.740748 81.206 151.1992
505.376568 81.167 150.6880
509.038735 81.128 150.1772
512.727439 81.088 149.6669
516.442874 81.048 149.1572
520.185232 81.007 148.6485
523.954708 80.966 148.1411
527.751500 80.925 147.6352
531.575805 80.883 147.1313
535.427822 80.841 146.6302
539.307753 80.799 146.1327
543.215800 80.756 145.6396
547.152165 80.713 145.1521
551.117055 80.669 144.6713
555.110677 80.625 144.1984
559.133237 80.580 143.7346
563.184947 80.534 143.2812
567.266018 80.487 142.8397
571.376661 80.439 142.4115
575.517092 80.391 141.9979
579.687526 80.341 141.6001
583.888181 80.290 141.2190
588.119275 80.238 140.8551
592.381030 80.185 140.5090
596.673667 80.131 140.1808
600.997410 80.075 139.8704
605.352485 80.018 139.5773
609.739119 79.960 139.3005
614.157540 79.901 139.0388
618.607979 79.841 138.7908
623.090667 79.779 138.5549
627.605839 79.717 138.3295
632.153730 79.654 138.1129
636.734576 79.589 137.9030
641.348617 79.524 137.6981
645.996094 79.457 137.4963
650.677248 79.389 137.2958
655.392323 79.319 137.0955
660.141566 79.247 136.8943
664.925224 79.172 136.6923
669.743546 79.095 136.4900
674.596784 79.014 136.2888
679.485191 78.929 136.0905
684.409020 78.840 135.8980
689.368530 78.746 135.7149
694.363979 78.647 135.5453
699.395626 78.542 135.3944
704.463736 78.431 135.2679
709.568570 78.315 135.1722
714.710396 78.193 135.1140
719.889483 78.064 135.1003
725.106099 77.931 135.1384
730.360516 77.792 135.2352
735.653010 77.649 135.3972
740.983855 77.503 135.6304
746.353329 77.355 135.9394
751.761713 77.207 136.3276
757.209288 77.059 136.7968
762.696339 76.915 137.3463
768.223151 76.775 137.9738
773.790013 76.642 138.6738
779.397214 76.518 139.4387
785.045047 76.403 140.2584
790.733808 76.300 141.1208
796.463791 76.210 142.0127
802.235296 76.134 142.9202
808.048623 76.070 143.8294
813.904077 76.020 144.7276
819.801961 75.983 145.6034
825.742584 75.959 146.4473
831.726255 75.945 147.2521
837.753287 75.941 148.0128
843.823992 75.945 148.7264
849.938689 75.957 149.3918
856.097695 75.976 150.0092
862.301332 75.999 150.5802
868.549922 76.026 151.1071
874.843793 76.057 151.5929
881.183272 76.090 152.0407
887.568689 76.126 152.4541
894.000378 76.163 152.8364
900.478673 76.201 153.1914
907.003913 76.241 153.5228
913.576437 76.282 153.8344
920.196588 76.324 154.1299
926.864712 76.369 154.4130
933.581156 76.415 154.6864
940.346270 76.464 154.9526
947.160407 76.517 155.2128
954.023921 76.573 155.4672
960.937172 76.635 155.7144
967.900519 76.703 155.9518
974.914325 76.776 156.1754
981.978956 76.856 156.3802
989.094780 76.942 156.5606
996.262169 77.035 156.7104
1003.481495 77.134 156.8241
1010.753136 77.238 156.8965
1018.077470 77.346 156.9232
1025.454879 77.457 156.9010
1032.885748 77.571 156.8276
1040.370463 77.686 156.7017
1047.909417 77.801 156.5232
1055.503000 77.915 156.2927
1063.151610 78.026 156.0118
1070.855645 78.134 155.6826
1078.615506 78.238 155.3082
1086.431599 78.337 154.8923
1094.304330 78.429 154.4392
1102.234110 78.514 153.9543
1110.221353 78.591 153.4437
1118.266475 78.660 152.9142
1126.369895 78.719 152.3736
1134.532035 78.770 151.8300
1142.753322 78.811 151.2921
1151.034184 78.844 150.7684
1159.375052 78.868 150.2673
1167.776361 78.884 149.7962
1176.238550 78.892 149.3620
1184.762060 78.895 148.9709
1193.347334 78.892 148.6288
1201.994821 78.885 148.3414
1210.704971 78.875 148.1147
1219.478238 78.863 147.9542
1228.315080 78.852 147.8647
1237.215957 78.844 147.8489
1246.181334 78.841 147.9064
1255.211678 78.845 148.0325
1264.307459 78.860 148.2176
1273.469152 78.887 148.4473
1282.697235 78.927 148.7032
1291.992188 78.982 148.9648
1301.354495 79.050 149.2114
1310.784647 79.130 149.4232
1320.283132 79.222 149.5836
1329.850448 79.322 149.6792
1339.487093 79.428 149.7006
1349.193569 79.539 149.6421
1358.970381 79.651 149.5012
1368.818041 79.763 149.2783
1378.737061 79.873 148.9756
1388.727958 79.979 148.5973
1398.791253 80.080 148.1486
1408.927471 80.175 147.6360
1419.137140 80.262 147.0668
1429.420793 80.340 146.4494
1439.778965 80.409 145.7935
1450.212197 80.467 145.1096
1460.721033 80.513 144.4096
1471.306019 80.549 143.7063
1481.967709 80.572 143.0132
1492.706658 80.584 142.3440
1503.523426 80.584 141.7120
1514.418576 80.574 141.1300
1525.392678 80.555 140.6093
1536.446302 80.528 140.1597
1547.580025 80.494 139.7890
1558.794428 80.455 139.5026
1570.090095 80.414 139.3030
1581.467615 80.372 139.1893
1592.927581 80.331 139.1565
1604.470591 80.294 139.1954
1616.097246 80.261 139.2931
1627.808153 80.233 139.4340
1639.603922 80.212 139.6017
1651.485168 80.195 139.7804
1663.452510 80.184 139.9564
1675.506573 80.176 140.1190
1687.647984 80.171 140.2607
1699.877377 80.167 140.3769
1712.195390 80.164 140.4658
1724.602663 80.158 140.5277
1737.099845 80.151 140.5651
1749.687587 80.141 140.5818
1762.366544 80.127 140.5831
1775.137379 80.108 140.5753
1788.000756 80.085 140.5655
1800.957346 80.058 140.5607
1814.007826 80.026 140.5674
1827.152874 79.990 140.5917
1840.393177 79.950 140.6379
1853.729425 79.909 140.7086
1867.162312 79.865 140.8039
1880.692540 79.822 140.9214
1894.320813 79.778 141.0559
1908.047843 79.735 141.2002
1921.874344 79.693 141.3467
1935.801038 79.651 141.4886
1949.828650 79.608 141.6208
1963.957912 79.564 141.7407
1978.189561 79.518 141.8481
1992.524338 79.469 141.9444
2006.962991 79.416 142.0327
2021.506272 79.359 142.1168
2036.154940 79.297 142.2008
2050.909758 79.232 142.2891
2065.771495 79.163 142.3856
2080.740927 79.091 142.4932
2095.818833 79.017 142.6139
2111.006001 78.941 142.7482
2126.303220 78.864 142.8958
2141.711290 78.788 143.0552
2157.231013 78.711 143.2250
2172.863198 78.636 143.4031
2188.608660 78.562 143.5875
2204.468221 78.489 143.7760
2220.442706 78.417 143.9676
2236.532950 78.347 144.1618
2252.739789 78.277 144.3596
2269.064070 78.207 144.5630
2285.506644 78.139 144.7743
2302.068367 78.071 144.9951
2318.750104 78.004 145.2260
2335.552723 77.939 145.4665
2352.477101 77.875 145.7159
2369.524119 77.813 145.9738
2386.694668 77.751 146.2423
2403.989641 77.690 146.5259
2421.409941 77.630 146.8319
2438.956476 77.572 147.1682
2456.630160 77.516 147.5413
2474.431915 77.464 147.9542
2492.362668 77.417 148.4056
2510.423356 77.378 148.8901
2528.614918 77.346 149.4008
2546.938304 77.322 149.9307
2565.394469 77.306 150.4745
2583.984375 77.298 151.0290
2602.708991 77.298 151.5945
2621.569293 77.304 152.1739
2640.566265 77.318 152.7725
2659.700897 77.339 153.3962
2678.974186 77.369 154.0497
2698.387137 77.410 154.7339
2717.940763 77.462 155.4452
2737.636082 77.528 156.1750
2757.474121 77.607 156.9106
2777.455915 77.700 157.6370
2797.582506 77.807 158.3375
2817.854942 77.927 158.9957
2838.274281 78.057 159.5956
2858.841586 78.196 160.1234
2879.557931 78.341 160.5683
2900.424394 78.488 160.9245
2921.442065 78.634 161.1920
2942.612039 78.777 161.3763
2963.935418 78.914 161.4880
2985.413316 79.042 161.5402
3007.046852 79.162 161.5477
3028.837153 79.272 161.5251
3050.785356 79.372 161.4862
3072.892604 79.462 161.4427
3095.160050 79.544 161.4039
3117.588856 79.618 161.3751
3140.180190 79.686 161.3576
3162.935230 79.748 161.3487
3185.855163 79.805 161.3428
3208.941182 79.858 161.3327
3232.194493 79.906 161.3101
3255.616307 79.949 161.2663
3279.207844 79.987 161.1918
3302.970336 80.019 161.0768
3326.905021 80.043 160.9130
3351.013146 80.057 160.6956
3375.295969 80.057 160.4264
3399.754755 80.042 160.1158
3424.390779 80.007 159.7835
3449.205326 79.949 159.4586
3474.199690 79.869 159.1787
3499.375173 79.764 158.9886
3524.733088 79.638 158.9376
3550.274757 79.492 159.0749
3576.001511 79.334 159.4423
3601.914692 79.173 160.0638
