* Measurement data measured by REW V5.31.3
* Source: EXCL: Headset (USB-C to 3.5mm Headphone Jack Adapter), MICROPHONE (Master Volume), 0, volume: 0.260
* Format: 256k Log Swept Sine, 1 sweep at -12.0 dBFS with no timing reference
* Dated: Mar 5, 2025 11:04:32 AM
* REW Settings:
*  C-weighting compensation: Off
*  Target level: 75.0 dB
* Note: ; 
* Measurement: Ouroboros (glasses) L10
* Smoothing: 1/6 octave
* Frequency Step: 96 ppo
* Start Frequency: 20.0 Hz
*
* Freq(Hz) SPL(dB) Phase(degrees)
20.141602 90.670 -69.2675
20.287556 90.684 -69.4148
20.434568 90.703 -69.6182
20.582645 90.728 -69.8797
20.731796 90.757 -70.2011
20.882027 90.791 -70.5826
21.033346 90.828 -71.0227
21.185763 90.867 -71.5178
21.339284 90.906 -72.0617
21.493917 90.944 -72.6461
21.649671 90.979 -73.2611
21.806553 91.010 -73.8957
21.964572 91.035 -74.5387
22.123737 91.055 -75.1798
22.284054 91.067 -75.8103
22.445534 91.073 -76.4237
22.608183 91.073 -77.0165
22.772012 91.067 -77.5880
22.937027 91.056 -78.1405
23.103238 91.040 -78.6785
23.270654 91.020 -79.2083
23.439282 90.996 -79.7367
23.609133 90.970 -80.2706
23.780215 90.942 -80.8154
23.952536 90.913 -81.3748
24.126106 90.882 -81.9503
24.300934 90.853 -82.5410
24.477028 90.826 -83.1444
24.654399 90.803 -83.7569
24.833055 90.786 -84.3745
25.013005 90.778 -84.9938
25.194260 90.780 -85.6126
25.376828 90.793 -86.2303
25.560719 90.819 -86.8477
25.745942 90.857 -87.4669
25.932508 90.906 -88.0905
26.120426 90.965 -88.7206
26.309705 91.030 -89.3585
26.500356 91.100 -90.0044
26.692388 91.171 -90.6570
26.885812 91.242 -91.3140
27.080638 91.311 -91.9728
27.276876 91.376 -92.6308
27.474535 91.436 -93.2861
27.673627 91.492 -93.9382
27.874161 91.543 -94.5878
28.076149 91.589 -95.2366
28.279600 91.631 -95.8866
28.484526 91.669 -96.5398
28.690937 91.701 -97.1971
28.898843 91.730 -97.8579
29.108256 91.753 -98.5198
29.319186 91.771 -99.1788
29.531645 91.785 -99.8301
29.745644 91.793 -100.4687
29.961193 91.797 -101.0908
30.178304 91.797 -101.6942
30.396989 91.794 -102.2794
30.617258 91.789 -102.8489
30.839123 91.782 -103.4077
31.062596 91.775 -103.9616
31.287688 91.766 -104.5169
31.514412 91.758 -105.0790
31.742778 91.750 -105.6516
31.972800 91.744 -106.2366
32.204488 91.739 -106.8337
32.437855 91.739 -107.4409
32.672913 91.743 -108.0548
32.909674 91.752 -108.6716
33.148151 91.768 -109.2877
33.388356 91.792 -109.8993
33.630302 91.823 -110.5034
33.874001 91.860 -111.0972
34.119466 91.903 -111.6777
34.366710 91.949 -112.2417
34.615745 91.998 -112.7854
34.866585 92.047 -113.3046
35.119243 92.095 -113.7949
35.373731 92.140 -114.2522
35.630064 92.182 -114.6736
35.888254 92.218 -115.0575
36.148315 92.249 -115.4043
36.410261 92.274 -115.7161
36.674104 92.291 -115.9971
36.939860 92.301 -116.2524
37.207542 92.302 -116.4884
37.477163 92.293 -116.7114
37.748738 92.274 -116.9283
38.022281 92.246 -117.1458
38.297806 92.208 -117.3704
38.575327 92.162 -117.6081
38.854860 92.109 -117.8641
39.136419 92.051 -118.1414
39.420017 91.990 -118.4408
39.705671 91.929 -118.7600
39.993395 91.871 -119.0935
40.283203 91.817 -119.4334
40.575112 91.770 -119.7701
40.869136 91.730 -120.0942
41.165290 91.697 -120.3974
41.463591 91.672 -120.6734
41.764053 91.654 -120.9189
42.066693 91.640 -121.1330
42.371525 91.630 -121.3176
42.678567 91.622 -121.4762
42.987834 91.616 -121.6140
43.299341 91.612 -121.7369
43.613106 91.610 -121.8507
43.929145 91.611 -121.9603
44.247473 91.615 -122.0688
44.568109 91.622 -122.1770
44.891068 91.634 -122.2838
45.216367 91.648 -122.3870
45.544023 91.667 -122.4847
45.874054 91.688 -122.5769
46.206476 91.711 -122.6662
46.541307 91.737 -122.7577
46.878565 91.765 -122.8584
47.218266 91.795 -122.9756
47.560429 91.826 -123.1157
47.905072 91.859 -123.2828
48.252212 91.894 -123.4780
48.601867 91.932 -123.6997
48.954056 91.971 -123.9438
49.308798 92.012 -124.2047
49.666109 92.055 -124.4760
50.026010 92.099 -124.7518
50.388520 92.145 -125.0277
50.753656 92.192 -125.3012
51.121437 92.240 -125.5719
51.491884 92.289 -125.8409
51.865016 92.339 -126.1106
52.240851 92.388 -126.3831
52.619410 92.438 -126.6597
53.000712 92.487 -126.9407
53.384777 92.533 -127.2250
53.771625 92.578 -127.5109
54.161276 92.620 -127.7964
54.553751 92.658 -128.0801
54.949070 92.693 -128.3612
55.347254 92.725 -128.6398
55.748323 92.753 -128.9169
56.152298 92.779 -129.1939
56.559201 92.802 -129.4725
56.969052 92.825 -129.7543
57.381873 92.846 -130.0397
57.797686 92.868 -130.3280
58.216512 92.891 -130.6166
58.638373 92.917 -130.9020
59.063291 92.945 -131.1802
59.491288 92.976 -131.4487
59.922386 93.012 -131.7072
60.356608 93.051 -131.9586
60.793977 93.095 -132.2078
61.234515 93.141 -132.4609
61.678246 93.190 -132.7234
62.125192 93.239 -132.9991
62.575377 93.288 -133.2897
63.028824 93.336 -133.5951
63.485557 93.383 -133.9135
63.945599 93.428 -134.2423
64.408975 93.470 -134.5790
64.875709 93.510 -134.9214
65.345825 93.548 -135.2680
65.819348 93.584 -135.6176
66.296302 93.617 -135.9693
66.776713 93.649 -136.3220
67.260604 93.680 -136.6742
67.748002 93.708 -137.0248
68.238932 93.735 -137.3731
68.733420 93.761 -137.7188
69.231490 93.785 -138.0624
69.733170 93.808 -138.4045
70.238485 93.830 -138.7461
70.747463 93.852 -139.0881
71.260128 93.874 -139.4313
71.776508 93.896 -139.7761
72.296630 93.918 -140.1222
72.820521 93.941 -140.4691
73.348209 93.964 -140.8157
73.879720 93.987 -141.1615
74.415083 94.010 -141.5062
74.954326 94.033 -141.8506
75.497475 94.056 -142.1956
76.044561 94.078 -142.5424
76.595612 94.100 -142.8919
77.150655 94.121 -143.2443
77.709720 94.141 -143.5993
78.272837 94.161 -143.9561
78.840034 94.179 -144.3138
79.411342 94.197 -144.6718
79.986789 94.214 -145.0294
80.566406 94.230 -145.3866
81.150224 94.247 -145.7433
81.738272 94.264 -146.0991
82.330581 94.280 -146.4537
82.927182 94.297 -146.8060
83.528107 94.314 -147.1552
84.133386 94.330 -147.5001
84.743051 94.347 -147.8398
85.357134 94.363 -148.1741
85.975667 94.379 -148.5031
86.598682 94.394 -148.8275
87.226212 94.410 -149.1483
87.858289 94.426 -149.4666
88.494946 94.442 -149.7841
89.136217 94.460 -150.1026
89.782135 94.478 -150.4233
90.432733 94.498 -150.7469
91.088046 94.520 -151.0733
91.748108 94.543 -151.4017
92.412952 94.568 -151.7310
93.082615 94.594 -152.0600
93.757130 94.620 -152.3878
94.436533 94.646 -152.7136
95.120859 94.672 -153.0372
95.810144 94.696 -153.3584
96.504423 94.718 -153.6779
97.203734 94.737 -153.9966
97.908112 94.753 -154.3158
98.617595 94.766 -154.6366
99.332219 94.777 -154.9600
100.052021 94.785 -155.2867
100.777039 94.791 -155.6173
101.507311 94.796 -155.9524
102.242875 94.802 -156.2924
102.983769 94.808 -156.6378
103.730032 94.814 -156.9890
104.481702 94.822 -157.3456
105.238820 94.831 -157.7074
106.001424 94.841 -158.0734
106.769554 94.851 -158.4424
107.543250 94.861 -158.8132
108.322553 94.872 -159.1850
109.107503 94.882 -159.5577
109.898141 94.892 -159.9320
110.694508 94.902 -160.3088
111.496646 94.912 -160.6889
112.304596 94.923 -161.0727
113.118402 94.933 -161.4598
113.938104 94.943 -161.8493
114.763747 94.952 -162.2399
115.595372 94.961 -162.6302
116.433024 94.969 -163.0194
117.276746 94.975 -163.4070
118.126581 94.980 -163.7929
118.982575 94.984 -164.1768
119.844772 94.986 -164.5584
120.713217 94.986 -164.9370
121.587954 94.986 -165.3122
122.469031 94.984 -165.6844
123.356492 94.982 -166.0544
124.250384 94.978 -166.4232
125.150753 94.975 -166.7913
126.057647 94.972 -167.1590
126.971113 94.968 -167.5262
127.891198 94.965 -167.8927
128.817950 94.963 -168.2587
129.751418 94.962 -168.6247
130.691651 94.962 -168.9914
131.638696 94.962 -169.3595
132.592604 94.963 -169.7293
133.553425 94.964 -170.1007
134.521208 94.965 -170.4728
135.496004 94.965 -170.8445
136.477864 94.964 -171.2141
137.466839 94.961 -171.5802
138.462981 94.956 -171.9412
139.466340 94.950 -172.2963
140.476971 94.940 -172.6451
141.494925 94.928 -172.9878
142.520256 94.913 -173.3253
143.553016 94.895 -173.6587
144.593260 94.875 -173.9890
145.641043 94.852 -174.3168
146.696418 94.828 -174.6426
147.759441 94.802 -174.9665
148.830166 94.775 -175.2886
149.908651 94.747 -175.6089
150.994951 94.720 -175.9281
152.089123 94.693 -176.2469
153.191223 94.666 -176.5665
154.301310 94.639 -176.8878
155.419441 94.614 -177.2111
156.545674 94.588 -177.5358
157.680069 94.562 -177.8607
158.822683 94.537 -178.1838
159.973578 94.511 -178.5031
161.132813 94.484 -178.8169
162.300447 94.457 -179.1238
163.476543 94.428 -179.4235
164.661162 94.398 -179.7159
165.854364 94.367 179.9990
167.056213 94.335 179.7211
168.266772 94.302 179.4504
169.486102 94.268 179.1873
170.714268 94.234 178.9319
171.951334 94.199 178.6847
173.197364 94.163 178.4460
174.452424 94.127 178.2161
175.716578 94.090 177.9954
176.989893 94.053 177.7838
178.272434 94.014 177.5812
179.564270 93.975 177.3872
180.865467 93.934 177.2013
182.176092 93.892 177.0229
183.496216 93.849 176.8517
184.825905 93.805 176.6874
186.165229 93.758 176.5298
187.514259 93.710 176.3789
188.873065 93.660 176.2346
190.241717 93.608 176.0969
191.620287 93.554 175.9651
193.008847 93.498 175.8389
194.407468 93.440 175.7174
195.816225 93.380 175.6002
197.235190 93.319 175.4871
198.664438 93.255 175.3784
200.104042 93.191 175.2750
201.554078 93.126 175.1780
203.014622 93.061 175.0886
204.485750 92.997 175.0075
205.967538 92.933 174.9350
207.460064 92.871 174.8707
208.963405 92.811 174.8134
210.477640 92.753 174.7620
212.002848 92.699 174.7151
213.539108 92.648 174.6718
215.086500 92.601 174.6315
216.645105 92.559 174.5941
218.215005 92.522 174.5598
219.796281 92.490 174.5294
221.389015 92.462 174.5037
222.993292 92.439 174.4839
224.609193 92.420 174.4711
226.236804 92.406 174.4660
227.876209 92.395 174.4689
229.527494 92.388 174.4796
231.190745 92.383 174.4974
232.866048 92.382 174.5214
234.553491 92.383 174.5505
236.253163 92.386 174.5840
237.965150 92.391 174.6215
239.689544 92.399 174.6627
241.426433 92.407 174.7078
243.175909 92.417 174.7568
244.938062 92.428 174.8098
246.712984 92.440 174.8661
248.500768 92.451 174.9250
250.301507 92.463 174.9853
252.115295 92.475 175.0459
253.942226 92.486 175.1061
255.782396 92.498 175.1656
257.635901 92.509 175.2248
259.502837 92.521 175.2842
261.383301 92.532 175.3450
263.277392 92.542 175.4086
265.185209 92.552 175.4769
267.106850 92.560 175.5512
269.042417 92.566 175.6322
270.992009 92.569 175.7198
272.955729 92.570 175.8128
274.933678 92.566 175.9098
276.925961 92.559 176.0089
278.932681 92.548 176.1089
280.953942 92.534 176.2086
282.989850 92.516 176.3073
285.040511 92.494 176.4045
287.106032 92.470 176.4999
289.186521 92.442 176.5931
291.282086 92.412 176.6839
293.392836 92.379 176.7718
295.518881 92.344 176.8568
297.660333 92.307 176.9389
299.817302 92.269 177.0182
301.989902 92.230 177.0950
304.178245 92.190 177.1694
306.382446 92.150 177.2417
308.602620 92.111 177.3118
310.838882 92.073 177.3801
313.091348 92.038 177.4467
315.360137 92.004 177.5121
317.645367 91.974 177.5764
319.947156 91.947 177.6394
322.265625 91.924 177.7011
324.600895 91.905 177.7608
326.953086 91.892 177.8182
329.322323 91.884 177.8727
331.708729 91.881 177.9243
334.112427 91.884 177.9730
336.533543 91.894 178.0189
338.972204 91.909 178.0621
341.428536 91.929 178.1028
343.902668 91.955 178.1409
346.394729 91.986 178.1763
348.904848 92.021 178.2087
351.433156 92.059 178.2380
353.979786 92.100 178.2639
356.544869 92.142 178.2864
359.128540 92.185 178.3059
361.730934 92.227 178.3228
364.352185 92.268 178.3374
366.992431 92.306 178.3504
369.651810 92.341 178.3623
372.330459 92.372 178.3734
375.028519 92.400 178.3837
377.746130 92.423 178.3932
380.483434 92.441 178.4017
383.240574 92.454 178.4089
386.017693 92.463 178.4146
388.814937 92.468 178.4187
391.632450 92.470 178.4211
394.470380 92.470 178.4218
397.328875 92.468 178.4206
400.208084 92.465 178.4175
403.108157 92.464 178.4123
406.029245 92.464 178.4046
408.971500 92.467 178.3943
411.935076 92.474 178.3808
414.920127 92.486 178.3640
417.926810 92.502 178.3432
420.955280 92.523 178.3182
424.005695 92.550 178.2888
427.078215 92.580 178.2547
430.173000 92.615 178.2158
433.290211 92.652 178.1718
436.430010 92.692 178.1223
439.592562 92.732 178.0669
442.778031 92.773 178.0047
445.986583 92.813 177.9351
449.218386 92.851 177.8574
452.473607 92.888 177.7710
455.752418 92.922 177.6756
459.054987 92.953 177.5706
462.381489 92.982 177.4558
465.732096 93.009 177.3306
469.106983 93.033 177.1948
472.506325 93.055 177.0481
475.930301 93.075 176.8907
479.379088 93.093 176.7228
482.852867 93.110 176.5451
486.351817 93.125 176.3581
489.876123 93.138 176.1624
493.425968 93.151 175.9586
497.001536 93.164 175.7474
500.603014 93.176 175.5290
504.230589 93.190 175.3040
507.884452 93.206 175.0726
511.564792 93.224 174.8351
515.271802 93.246 174.5920
519.005673 93.272 174.3437
522.766602 93.303 174.0911
526.554785 93.338 173.8347
530.370418 93.377 173.5757
534.213700 93.421 173.3148
538.084833 93.467 173.0530
541.984018 93.515 172.7913
545.911457 93.564 172.5306
549.867357 93.612 172.2721
553.851922 93.658 172.0166
557.865362 93.700 171.7651
561.907884 93.736 171.5186
565.979700 93.766 171.2780
570.081022 93.788 171.0438
574.212064 93.802 170.8169
578.373042 93.806 170.5978
582.564171 93.800 170.3869
586.785671 93.784 170.1848
591.037762 93.757 169.9916
595.320665 93.719 169.8080
599.634604 93.670 169.6341
603.979804 93.611 169.4703
608.356491 93.542 169.3172
612.764893 93.465 169.1752
617.205240 93.381 169.0449
621.677763 93.291 168.9268
626.182696 93.197 168.8214
630.720274 93.103 168.7289
635.290733 93.009 168.6494
639.894312 92.917 168.5825
644.531250 92.831 168.5275
649.201789 92.751 168.4832
653.906173 92.679 168.4478
658.644647 92.616 168.4193
663.417457 92.563 168.3951
668.224854 92.521 168.3726
673.067086 92.490 168.3488
677.944408 92.470 168.3210
682.857073 92.462 168.2864
687.805336 92.464 168.2427
692.789457 92.476 168.1877
697.809695 92.497 168.1199
702.866312 92.525 168.0381
707.959571 92.560 167.9419
713.089738 92.599 167.8313
718.257080 92.641 167.7067
723.461867 92.683 167.5689
728.704370 92.725 167.4188
733.984862 92.763 167.2574
739.303619 92.798 167.0858
744.660918 92.827 166.9052
750.057038 92.851 166.7171
755.492260 92.869 166.5232
760.966869 92.882 166.3253
766.481148 92.888 166.1257
772.035387 92.889 165.9263
777.629873 92.885 165.7294
783.264900 92.876 165.5373
788.940760 92.862 165.3520
794.657750 92.843 165.1758
800.416168 92.818 165.0106
806.216313 92.786 164.8585
812.058489 92.748 164.7209
817.943000 92.702 164.5993
823.870152 92.649 164.4943
829.840255 92.588 164.4059
835.853619 92.522 164.3333
841.910559 92.451 164.2740
848.011390 92.378 164.2245
854.156430 92.304 164.1797
860.346000 92.233 164.1329
866.580422 92.168 164.0761
872.860020 92.110 164.0010
879.185124 92.061 163.8992
885.556062 92.022 163.7637
891.973166 91.993 163.5901
898.436771 91.973 163.3774
904.947215 91.961 163.1284
911.504835 91.955 162.8499
918.109975 91.952 162.5516
924.762978 91.951 162.2447
931.464192 91.950 161.9410
938.213966 91.948 161.6510
945.012651 91.944 161.3835
951.860602 91.938 161.1449
958.758176 91.928 160.9394
965.705733 91.915 160.7692
972.703635 91.899 160.6346
979.752246 91.880 160.5348
986.851935 91.858 160.4680
994.003071 91.835 160.4321
1001.206027 91.809 160.4247
1008.461179 91.783 160.4433
1015.768904 91.757 160.4860
1023.129584 91.732 160.5513
1030.543603 91.710 160.6382
1038.011347 91.691 160.7469
1045.533205 91.677 160.8783
1053.109569 91.668 161.0342
1060.740836 91.665 161.2175
1068.427401 91.669 161.4319
1076.169666 91.679 161.6822
1083.968035 91.696 161.9731
1091.822915 91.720 162.3095
1099.734713 91.751 162.6955
1107.703844 91.790 163.1331
1115.730723 91.837 163.6212
1123.815768 91.894 164.1540
1131.959400 91.961 164.7197
1140.162045 92.040 165.2993
1148.424129 92.132 165.8666
1156.746083 92.238 166.3897
1165.128342 92.356 166.8337
1173.571343 92.485 167.1651
1182.075524 92.621 167.3569
1190.641331 92.761 167.3929
1199.269209 92.899 167.2701
1207.959608 93.032 166.9984
1216.712981 93.156 166.5981
1225.529785 93.269 166.0959
1234.410479 93.370 165.5207
1243.355526 93.459 164.9004
1252.365393 93.538 164.2592
1261.440549 93.607 163.6171
1270.581467 93.668 162.9891
1279.788624 93.722 162.3858
1289.062500 93.771 161.8141
1298.403578 93.815 161.2777
1307.812346 93.855 160.7782
1317.289293 93.892 160.3155
1326.834914 93.925 159.8882
1336.449707 93.955 159.4947
1346.134173 93.982 159.1327
1355.888816 94.005 158.7999
1365.714145 94.024 158.4941
1375.610673 94.040 158.2132
1385.578915 94.051 157.9551
1395.619391 94.059 157.7181
1405.732624 94.063 157.5002
1415.919142 94.064 157.2998
1426.179476 94.062 157.1151
1436.514160 94.056 156.9448
1446.923734 94.048 156.7875
1457.408740 94.038 156.6419
1467.969724 94.026 156.5072
1478.607238 94.012 156.3824
1489.321836 93.997 156.2667
1500.114076 93.980 156.1595
1510.984521 93.960 156.0598
1521.933737 93.939 155.9668
1532.962297 93.915 155.8794
1544.070773 93.889 155.7963
1555.259747 93.861 155.7165
1566.529800 93.830 155.6386
1577.881521 93.797 155.5616
1589.315501 93.763 155.4842
1600.832336 93.727 155.4056
1612.432627 93.690 155.3248
1624.116978 93.653 155.2411
1635.886000 93.616 155.1539
1647.740304 93.579 155.0628
1659.680509 93.542 154.9675
1671.707238 93.506 154.8679
1683.821118 93.469 154.7641
1696.022780 93.432 154.6561
1708.312860 93.395 154.5442
1720.692000 93.357 154.4285
1733.160843 93.318 154.3092
1745.720041 93.280 154.1868
1758.370248 93.241 154.0615
1771.112124 93.202 153.9339
1783.946332 93.165 153.8043
1796.873543 93.128 153.6734
1809.894429 93.092 153.5418
1823.009670 93.057 153.4102
1836.219950 93.023 153.2793
1849.525956 92.989 153.1500
1862.928384 92.954 153.0231
1876.427931 92.917 152.8995
1890.025301 92.879 152.7802
1903.721204 92.837 152.6661
1917.516352 92.792 152.5583
1931.411466 92.743 152.4576
1945.407270 92.690 152.3651
1959.504493 92.632 152.2816
1973.703870 92.570 152.2077
1988.006142 92.504 152.1440
2002.412054 92.436 152.0905
2016.922357 92.365 152.0471
2031.537808 92.294 152.0132
2046.259169 92.222 151.9877
2061.087206 92.151 151.9696
2076.022694 92.082 151.9576
2091.066410 92.014 151.9509
2106.219139 91.950 151.9489
2121.481671 91.888 151.9519
2136.854802 91.830 151.9609
2152.339333 91.776 151.9774
2167.936071 91.725 152.0032
2183.645829 91.679 152.0402
2199.469427 91.639 152.0897
2215.407689 91.603 152.1529
2231.461446 91.574 152.2301
2247.631536 91.552 152.3214
2263.918800 91.536 152.4265
2280.324089 91.527 152.5450
2296.848258 91.525 152.6769
2313.492167 91.530 152.8222
2330.256685 91.542 152.9812
2347.142685 91.559 153.1544
2364.151049 91.581 153.3423
2381.282662 91.608 153.5459
2398.538418 91.640 153.7654
2415.919216 91.674 154.0016
2433.425962 91.711 154.2546
2451.059570 91.749 154.5243
2468.820958 91.788 154.8105
2486.711052 91.828 155.1126
2504.730786 91.867 155.4293
2522.881098 91.905 155.7592
2541.162934 91.942 156.1003
2559.577248 91.976 156.4506
2578.125000 92.007 156.8079
2596.807157 92.034 157.1700
2615.624692 92.057 157.5350
2634.578586 92.076 157.9014
2653.669829 92.090 158.2680
2672.899414 92.099 158.6340
2692.268345 92.102 158.9987
2711.777632 92.101 159.3616
2731.428290 92.093 159.7221
2751.221345 92.081 160.0798
2771.157829 92.063 160.4341
2791.238781 92.040 160.7847
2811.465248 92.013 161.1313
2831.838284 91.980 161.4738
2852.358952 91.943 161.8121
2873.028321 91.901 162.1469
2893.847468 91.855 162.4785
2914.817480 91.804 162.8081
2935.939449 91.750 163.1371
2957.214476 91.691 163.4675
2978.643672 91.628 163.8014
3000.228152 91.561 164.1415
3021.969041 91.492 164.4906
3043.867475 91.420 164.8513
3065.924593 91.346 165.2260
3088.141547 91.270 165.6170
3110.519493 91.194 166.0260
3133.059600 91.118 166.4543
3155.763041 91.043 166.9027
3178.631001 90.969 167.3716
3201.664672 90.898 167.8609
3224.865254 90.829 168.3696
3248.233957 90.765 168.8962
3271.771999 90.705 169.4388
3295.480608 90.651 169.9946
3319.361019 90.603 170.5613
3343.414477 90.562 171.1364
3367.642236 90.528 171.7178
3392.045560 90.502 172.3038
3416.625721 90.484 172.8932
3441.383999 90.475 173.4846
3466.321686 90.474 174.0768
3491.440082 90.482 174.6683
