* Measurement data measured by REW V5.31.3
* Source: EXCL: Headset (USB-C to 3.5mm Headphone Jack Adapter), MICROPHONE (Master Volume), 0, volume: 0.260
* Format: 256k Log Swept Sine, 1 sweep at -12.0 dBFS with no timing reference
* Dated: Mar 5, 2025 10:56:41 AM
* REW Settings:
*  C-weighting compensation: Off
*  Target level: 75.0 dB
* Note: ; 
* Measurement: Ouroboros Reprint R5
* Smoothing: 1/6 octave
* Frequency Step: 96 ppo
* Start Frequency: 20.0 Hz
*
* Freq(Hz) SPL(dB) Phase(degrees)
20.141602 98.425 -117.9664
20.287556 98.414 -118.1108
20.434568 98.399 -118.3052
20.582645 98.379 -118.5452
20.731796 98.356 -118.8262
20.882027 98.328 -119.1438
21.033346 98.295 -119.4941
21.185763 98.257 -119.8737
21.339284 98.215 -120.2800
21.493917 98.167 -120.7110
21.649671 98.114 -121.1653
21.806553 98.058 -121.6422
21.964572 97.998 -122.1420
22.123737 97.935 -122.6655
22.284054 97.872 -123.2139
22.445534 97.809 -123.7890
22.608183 97.749 -124.3920
22.772012 97.692 -125.0235
22.937027 97.641 -125.6828
23.103238 97.596 -126.3673
23.270654 97.557 -127.0720
23.439282 97.527 -127.7895
23.609133 97.503 -128.5104
23.780215 97.486 -129.2238
23.952536 97.476 -129.9182
24.126106 97.470 -130.5825
24.300934 97.469 -131.2077
24.477028 97.471 -131.7874
24.654399 97.474 -132.3189
24.833055 97.479 -132.8033
25.013005 97.482 -133.2460
25.194260 97.484 -133.6551
25.376828 97.482 -134.0416
25.560719 97.476 -134.4173
25.745942 97.465 -134.7940
25.932508 97.447 -135.1824
26.120426 97.424 -135.5910
26.309705 97.395 -136.0256
26.500356 97.361 -136.4888
26.692388 97.323 -136.9808
26.885812 97.284 -137.4991
27.080638 97.246 -138.0394
27.276876 97.212 -138.5959
27.474535 97.182 -139.1627
27.673627 97.160 -139.7334
27.874161 97.145 -140.3019
28.076149 97.137 -140.8630
28.279600 97.136 -141.4120
28.484526 97.138 -141.9452
28.690937 97.143 -142.4598
28.898843 97.146 -142.9544
29.108256 97.145 -143.4286
29.319186 97.137 -143.8838
29.531645 97.122 -144.3223
29.745644 97.099 -144.7478
29.961193 97.066 -145.1647
30.178304 97.024 -145.5771
30.396989 96.975 -145.9884
30.617258 96.920 -146.4005
30.839123 96.861 -146.8132
31.062596 96.800 -147.2242
31.287688 96.740 -147.6292
31.514412 96.684 -148.0229
31.742778 96.632 -148.3996
31.972800 96.587 -148.7541
32.204488 96.550 -149.0826
32.437855 96.520 -149.3831
32.672913 96.498 -149.6549
32.909674 96.482 -149.8987
33.148151 96.471 -150.1160
33.388356 96.463 -150.3092
33.630302 96.457 -150.4810
33.874001 96.453 -150.6351
34.119466 96.449 -150.7758
34.366710 96.446 -150.9084
34.615745 96.443 -151.0384
34.866585 96.440 -151.1710
35.119243 96.437 -151.3098
35.373731 96.432 -151.4555
35.630064 96.424 -151.6059
35.888254 96.413 -151.7557
36.148315 96.398 -151.8978
36.410261 96.378 -152.0246
36.674104 96.352 -152.1305
36.939860 96.322 -152.2128
37.207542 96.288 -152.2725
37.477163 96.251 -152.3143
37.748738 96.211 -152.3449
38.022281 96.169 -152.3712
38.297806 96.125 -152.3989
38.575327 96.079 -152.4307
38.854860 96.032 -152.4667
39.136419 95.985 -152.5041
39.420017 95.937 -152.5393
39.705671 95.892 -152.5688
39.993395 95.850 -152.5905
40.283203 95.811 -152.6044
40.575112 95.777 -152.6122
40.869136 95.748 -152.6167
41.165290 95.724 -152.6202
41.463591 95.704 -152.6239
41.764053 95.687 -152.6273
42.066693 95.674 -152.6286
42.371525 95.663 -152.6253
42.678567 95.656 -152.6163
42.987834 95.653 -152.6028
43.299341 95.655 -152.5889
43.613106 95.663 -152.5815
43.929145 95.676 -152.5888
44.247473 95.694 -152.6185
44.568109 95.717 -152.6759
44.891068 95.743 -152.7628
45.216367 95.771 -152.8774
45.544023 95.801 -153.0151
45.874054 95.831 -153.1699
46.206476 95.862 -153.3362
46.541307 95.893 -153.5096
46.878565 95.927 -153.6883
47.218266 95.962 -153.8726
47.560429 96.000 -154.0648
47.905072 96.042 -154.2681
48.252212 96.086 -154.4859
48.601867 96.133 -154.7205
48.954056 96.182 -154.9724
49.308798 96.233 -155.2397
49.666109 96.284 -155.5186
50.026010 96.335 -155.8040
50.388520 96.385 -156.0904
50.753656 96.433 -156.3734
51.121437 96.481 -156.6506
51.491884 96.527 -156.9221
51.865016 96.572 -157.1903
52.240851 96.615 -157.4596
52.619410 96.657 -157.7347
53.000712 96.697 -158.0200
53.384777 96.733 -158.3187
53.771625 96.767 -158.6318
54.161276 96.796 -158.9590
54.553751 96.821 -159.2983
54.949070 96.841 -159.6474
55.347254 96.856 -160.0036
55.748323 96.866 -160.3648
56.152298 96.872 -160.7294
56.559201 96.874 -161.0965
56.969052 96.873 -161.4655
57.381873 96.870 -161.8363
57.797686 96.866 -162.2084
58.216512 96.864 -162.5807
58.638373 96.864 -162.9507
59.063291 96.868 -163.3151
59.491288 96.876 -163.6703
59.922386 96.889 -164.0135
60.356608 96.906 -164.3434
60.793977 96.928 -164.6605
61.234515 96.952 -164.9669
61.678246 96.978 -165.2658
62.125192 97.004 -165.5607
62.575377 97.030 -165.8554
63.028824 97.055 -166.1526
63.485557 97.077 -166.4549
63.945599 97.098 -166.7637
64.408975 97.117 -167.0796
64.875709 97.133 -167.4029
65.345825 97.148 -167.7335
65.819348 97.161 -168.0716
66.296302 97.172 -168.4174
66.776713 97.181 -168.7708
67.260604 97.190 -169.1320
67.748002 97.198 -169.5005
68.238932 97.205 -169.8759
68.733420 97.211 -170.2573
69.231490 97.217 -170.6440
69.733170 97.222 -171.0354
70.238485 97.226 -171.4308
70.747463 97.229 -171.8297
71.260128 97.232 -172.2313
71.776508 97.233 -172.6346
72.296630 97.234 -173.0387
72.820521 97.233 -173.4426
73.348209 97.232 -173.8458
73.879720 97.231 -174.2478
74.415083 97.228 -174.6486
74.954326 97.225 -175.0486
75.497475 97.220 -175.4484
76.044561 97.215 -175.8484
76.595612 97.208 -176.2492
77.150655 97.201 -176.6509
77.709720 97.192 -177.0531
78.272837 97.182 -177.4551
78.840034 97.171 -177.8557
79.411342 97.159 -178.2536
79.986789 97.146 -178.6476
80.566406 97.132 -179.0369
81.150224 97.116 -179.4208
81.738272 97.100 -179.7990
82.330581 97.083 179.8287
82.927182 97.065 179.4621
83.528107 97.047 179.1011
84.133386 97.028 178.7454
84.743051 97.010 178.3944
85.357134 96.992 178.0475
85.975667 96.975 177.7039
86.598682 96.959 177.3635
87.226212 96.944 177.0259
87.858289 96.931 176.6911
88.494946 96.918 176.3591
89.136217 96.907 176.0297
89.782135 96.897 175.7025
90.432733 96.887 175.3773
91.088046 96.878 175.0534
91.748108 96.870 174.7305
92.412952 96.862 174.4080
93.082615 96.853 174.0854
93.757130 96.845 173.7620
94.436533 96.835 173.4373
95.120859 96.825 173.1108
95.810144 96.814 172.7823
96.504423 96.801 172.4515
97.203734 96.786 172.1183
97.908112 96.769 171.7828
98.617595 96.749 171.4445
99.332219 96.727 171.1034
100.052021 96.703 170.7592
100.777039 96.677 170.4118
101.507311 96.649 170.0615
102.242875 96.619 169.7082
102.983769 96.588 169.3522
103.730032 96.556 168.9936
104.481702 96.523 168.6323
105.238820 96.491 168.2681
106.001424 96.458 167.9012
106.769554 96.426 167.5316
107.543250 96.394 167.1598
108.322553 96.362 166.7862
109.107503 96.331 166.4117
109.898141 96.299 166.0372
110.694508 96.267 165.6635
111.496646 96.233 165.2919
112.304596 96.199 164.9233
113.118402 96.163 164.5590
113.938104 96.125 164.1999
114.763747 96.085 163.8466
115.595372 96.043 163.4993
116.433024 95.999 163.1581
117.276746 95.953 162.8231
118.126581 95.905 162.4942
118.982575 95.856 162.1712
119.844772 95.806 161.8541
120.713217 95.755 161.5430
121.587954 95.703 161.2380
122.469031 95.651 160.9394
123.356492 95.599 160.6471
124.250384 95.546 160.3609
125.150753 95.493 160.0804
126.057647 95.441 159.8057
126.971113 95.388 159.5367
127.891198 95.336 159.2740
128.817950 95.284 159.0181
129.751418 95.234 158.7693
130.691651 95.183 158.5284
131.638696 95.134 158.2955
132.592604 95.085 158.0711
133.553425 95.036 157.8556
134.521208 94.986 157.6491
135.496004 94.936 157.4516
136.477864 94.884 157.2629
137.466839 94.832 157.0828
138.462981 94.777 156.9108
139.466340 94.719 156.7467
140.476971 94.659 156.5901
141.494925 94.596 156.4407
142.520256 94.531 156.2987
143.553016 94.462 156.1643
144.593260 94.391 156.0381
145.641043 94.318 155.9208
146.696418 94.243 155.8128
147.759441 94.167 155.7145
148.830166 94.090 155.6260
149.908651 94.013 155.5477
150.994951 93.937 155.4797
152.089123 93.861 155.4225
153.191223 93.787 155.3762
154.301310 93.714 155.3407
155.419441 93.643 155.3160
156.545674 93.575 155.3018
157.680069 93.508 155.2980
158.822683 93.443 155.3045
159.973578 93.380 155.3215
161.132813 93.318 155.3488
162.300447 93.257 155.3865
163.476543 93.197 155.4345
164.661162 93.137 155.4928
165.854364 93.077 155.5614
167.056213 93.016 155.6404
168.266772 92.956 155.7297
169.486102 92.895 155.8296
170.714268 92.835 155.9398
171.951334 92.774 156.0599
173.197364 92.713 156.1896
174.452424 92.653 156.3283
175.716578 92.593 156.4758
176.989893 92.533 156.6315
178.272434 92.473 156.7953
179.564270 92.413 156.9670
180.865467 92.354 157.1466
182.176092 92.294 157.3339
183.496216 92.235 157.5287
184.825905 92.175 157.7310
186.165229 92.116 157.9405
187.514259 92.056 158.1571
188.873065 91.995 158.3808
190.241717 91.935 158.6115
191.620287 91.873 158.8492
193.008847 91.812 159.0944
194.407468 91.750 159.3473
195.816225 91.688 159.6079
197.235190 91.625 159.8762
198.664438 91.563 160.1515
200.104042 91.501 160.4329
201.554078 91.440 160.7193
203.014622 91.380 161.0092
204.485750 91.321 161.3012
205.967538 91.265 161.5938
207.460064 91.212 161.8855
208.963405 91.162 162.1754
210.477640 91.116 162.4628
212.002848 91.076 162.7474
213.539108 91.041 163.0286
215.086500 91.012 163.3063
216.645105 90.989 163.5798
218.215005 90.973 163.8487
219.796281 90.963 164.1124
221.389015 90.959 164.3708
222.993292 90.961 164.6237
224.609193 90.968 164.8716
226.236804 90.979 165.1147
227.876209 90.995 165.3538
229.527494 91.015 165.5893
231.190745 91.038 165.8218
232.866048 91.063 166.0516
234.553491 91.091 166.2789
236.253163 91.121 166.5037
237.965150 91.153 166.7256
239.689544 91.185 166.9443
241.426433 91.219 167.1591
243.175909 91.252 167.3692
244.938062 91.286 167.5737
246.712984 91.320 167.7722
248.500768 91.352 167.9645
250.301507 91.384 168.1507
252.115295 91.415 168.3311
253.942226 91.445 168.5061
255.782396 91.475 168.6765
257.635901 91.503 168.8427
259.502837 91.530 169.0052
261.383301 91.556 169.1645
263.277392 91.581 169.3209
265.185209 91.605 169.4745
267.106850 91.628 169.6258
269.042417 91.649 169.7747
270.992009 91.667 169.9217
272.955729 91.684 170.0674
274.933678 91.697 170.2127
276.925961 91.708 170.3587
278.932681 91.716 170.5061
280.953942 91.720 170.6553
282.989850 91.721 170.8066
285.040511 91.719 170.9595
287.106032 91.713 171.1132
289.186521 91.704 171.2664
291.282086 91.692 171.4179
293.392836 91.677 171.5661
295.518881 91.660 171.7097
297.660333 91.641 171.8476
299.817302 91.621 171.9789
301.989902 91.600 172.1031
304.178245 91.579 172.2195
306.382446 91.559 172.3276
308.602620 91.539 172.4267
310.838882 91.521 172.5164
313.091348 91.505 172.5966
315.360137 91.492 172.6670
317.645367 91.482 172.7277
319.947156 91.476 172.7788
322.265625 91.473 172.8205
324.600895 91.475 172.8529
326.953086 91.481 172.8763
329.322323 91.492 172.8906
331.708729 91.507 172.8961
334.112427 91.527 172.8929
336.533543 91.552 172.8813
338.972204 91.582 172.8614
341.428536 91.616 172.8333
343.902668 91.654 172.7971
346.394729 91.696 172.7534
348.904848 91.741 172.7024
351.433156 91.788 172.6446
353.979786 91.836 172.5806
356.544869 91.886 172.5108
359.128540 91.935 172.4356
361.730934 91.983 172.3553
364.352185 92.029 172.2701
366.992431 92.071 172.1801
369.651810 92.110 172.0853
372.330459 92.145 171.9856
375.028519 92.174 171.8811
377.746130 92.198 171.7718
380.483434 92.215 171.6576
383.240574 92.227 171.5387
386.017693 92.233 171.4152
388.814937 92.234 171.2870
391.632450 92.230 171.1544
394.470380 92.222 171.0175
397.328875 92.210 170.8763
400.208084 92.197 170.7313
403.108157 92.182 170.5826
406.029245 92.167 170.4305
408.971500 92.153 170.2755
411.935076 92.140 170.1180
414.920127 92.130 169.9587
417.926810 92.123 169.7984
420.955280 92.119 169.6378
424.005695 92.117 169.4779
427.078215 92.118 169.3197
430.173000 92.121 169.1640
433.290211 92.125 169.0117
436.430010 92.130 168.8637
439.592562 92.134 168.7208
442.778031 92.136 168.5836
445.986583 92.137 168.4524
449.218386 92.135 168.3275
452.473607 92.129 168.2091
455.752418 92.120 168.0972
459.054987 92.108 167.9917
462.381489 92.092 167.8928
465.732096 92.072 167.8008
469.106983 92.050 167.7163
472.506325 92.024 167.6398
475.930301 91.997 167.5723
479.379088 91.967 167.5145
482.852867 91.935 167.4672
486.351817 91.902 167.4313
489.876123 91.869 167.4073
493.425968 91.836 167.3958
497.001536 91.803 167.3970
500.603014 91.772 167.4112
504.230589 91.744 167.4384
507.884452 91.719 167.4786
511.564792 91.700 167.5314
515.271802 91.686 167.5964
519.005673 91.678 167.6727
522.766602 91.678 167.7594
526.554785 91.686 167.8553
530.370418 91.701 167.9592
534.213700 91.723 168.0697
538.084833 91.752 168.1857
541.984018 91.787 168.3061
545.911457 91.825 168.4299
549.867357 91.866 168.5562
553.851922 91.909 168.6844
557.865362 91.950 168.8136
561.907884 91.990 168.9432
565.979700 92.027 169.0722
570.081022 92.059 169.1997
574.212064 92.085 169.3246
578.373042 92.106 169.4456
582.564171 92.118 169.5613
586.785671 92.123 169.6705
591.037762 92.119 169.7719
595.320665 92.106 169.8642
599.634604 92.085 169.9465
603.979804 92.054 170.0180
608.356491 92.016 170.0782
612.764893 91.970 170.1270
617.205240 91.918 170.1645
621.677763 91.861 170.1907
626.182696 91.800 170.2060
630.720274 91.738 170.2106
635.290733 91.676 170.2048
639.894312 91.616 170.1890
644.531250 91.559 170.1635
649.201789 91.506 170.1290
653.906173 91.459 170.0862
658.644647 91.418 170.0363
663.417457 91.383 169.9802
668.224854 91.356 169.9191
673.067086 91.336 169.8544
677.944408 91.323 169.7874
682.857073 91.317 169.7194
687.805336 91.319 169.6517
692.789457 91.327 169.5857
697.809695 91.342 169.5223
702.866312 91.363 169.4626
707.959571 91.388 169.4073
713.089738 91.416 169.3573
718.257080 91.447 169.3131
723.461867 91.479 169.2753
728.704370 91.511 169.2442
733.984862 91.541 169.2197
739.303619 91.568 169.2017
744.660918 91.592 169.1898
750.057038 91.613 169.1835
755.492260 91.630 169.1819
760.966869 91.644 169.1844
766.481148 91.654 169.1900
772.035387 91.663 169.1978
777.629873 91.669 169.2070
783.264900 91.673 169.2165
788.940760 91.675 169.2256
794.657750 91.674 169.2333
800.416168 91.671 169.2384
806.216313 91.663 169.2393
812.058489 91.651 169.2340
817.943000 91.634 169.2198
823.870152 91.610 169.1932
829.840255 91.580 169.1505
835.853619 91.545 169.0875
841.910559 91.503 169.0004
848.011390 91.457 168.8858
854.156430 91.407 168.7418
860.346000 91.353 168.5681
866.580422 91.298 168.3668
872.860020 91.242 168.1426
879.185124 91.187 167.9027
885.556062 91.133 167.6561
891.973166 91.083 167.4127
898.436771 91.036 167.1826
904.947215 90.994 166.9746
911.504835 90.958 166.7958
918.109975 90.929 166.6508
924.762978 90.905 166.5421
931.464192 90.888 166.4702
938.213966 90.876 166.4339
945.012651 90.869 166.4307
951.860602 90.865 166.4577
958.758176 90.864 166.5113
965.705733 90.864 166.5879
972.703635 90.865 166.6841
979.752246 90.866 166.7963
986.851935 90.866 166.9218
994.003071 90.866 167.0578
1001.206027 90.865 167.2024
1008.461179 90.865 167.3541
1015.768904 90.865 167.5117
1023.129584 90.868 167.6749
1030.543603 90.873 167.8435
1038.011347 90.882 168.0175
1045.533205 90.895 168.1974
1053.109569 90.914 168.3837
1060.740836 90.939 168.5771
1068.427401 90.969 168.7789
1076.169666 91.005 168.9902
1083.968035 91.045 169.2128
1091.822915 91.089 169.4483
1099.734713 91.136 169.6990
1107.703844 91.184 169.9672
1115.730723 91.233 170.2556
1123.815768 91.281 170.5667
1131.959400 91.329 170.9027
1140.162045 91.376 171.2649
1148.424129 91.423 171.6535
1156.746083 91.473 172.0662
1165.128342 91.527 172.4982
1173.571343 91.588 172.9405
1182.075524 91.658 173.3802
1190.641331 91.740 173.8000
1199.269209 91.834 174.1789
1207.959608 91.942 174.4942
1216.712981 92.061 174.7235
1225.529785 92.189 174.8485
1234.410479 92.323 174.8578
1243.355526 92.459 174.7497
1252.365393 92.591 174.5330
1261.440549 92.716 174.2257
1270.581467 92.832 173.8522
1279.788624 92.937 173.4394
1289.062500 93.031 173.0132
1298.403578 93.115 172.5961
1307.812346 93.189 172.2055
1317.289293 93.256 171.8533
1326.834914 93.317 171.5459
1336.449707 93.374 171.2855
1346.134173 93.427 171.0706
1355.888816 93.477 170.8974
1365.714145 93.525 170.7605
1375.610673 93.571 170.6539
1385.578915 93.616 170.5717
1395.619391 93.659 170.5082
1405.732624 93.701 170.4584
1415.919142 93.741 170.4181
1426.179476 93.780 170.3835
1436.514160 93.817 170.3514
1446.923734 93.854 170.3194
1457.408740 93.889 170.2854
1467.969724 93.923 170.2476
1478.607238 93.957 170.2047
1489.321836 93.989 170.1556
1500.114076 94.019 170.0993
1510.984521 94.048 170.0353
1521.933737 94.073 169.9631
1532.962297 94.096 169.8826
1544.070773 94.116 169.7938
1555.259747 94.133 169.6968
1566.529800 94.146 169.5920
1577.881521 94.155 169.4800
1589.315501 94.162 169.3611
1600.832336 94.167 169.2360
1612.432627 94.170 169.1049
1624.116978 94.171 168.9686
1635.886000 94.172 168.8273
1647.740304 94.172 168.6815
1659.680509 94.172 168.5316
1671.707238 94.172 168.3776
1683.821118 94.171 168.2199
1696.022780 94.170 168.0587
1708.312860 94.169 167.8940
1720.692000 94.167 167.7258
1733.160843 94.165 167.5541
1745.720041 94.163 167.3788
1758.370248 94.163 167.1998
1771.112124 94.163 167.0169
1783.946332 94.165 166.8300
1796.873543 94.168 166.6389
1809.894429 94.174 166.4432
1823.009670 94.181 166.2427
1836.219950 94.189 166.0369
1849.525956 94.198 165.8257
1862.928384 94.208 165.6086
1876.427931 94.216 165.3853
1890.025301 94.223 165.1555
1903.721204 94.228 164.9189
1917.516352 94.229 164.6754
1931.411466 94.227 164.4247
1945.407270 94.220 164.1672
1959.504493 94.210 163.9028
1973.703870 94.195 163.6321
1988.006142 94.176 163.3556
2002.412054 94.153 163.0741
2016.922357 94.128 162.7889
2031.537808 94.100 162.5011
2046.259169 94.070 162.2122
2061.087206 94.040 161.9239
2076.022694 94.010 161.6376
2091.066410 93.982 161.3546
2106.219139 93.955 161.0756
2121.481671 93.931 160.8012
2136.854802 93.910 160.5311
2152.339333 93.894 160.2643
2167.936071 93.883 159.9995
2183.645829 93.877 159.7350
2199.469427 93.877 159.4689
2215.407689 93.883 159.1991
2231.461446 93.895 158.9238
2247.631536 93.913 158.6414
2263.918800 93.937 158.3506
2280.324089 93.966 158.0507
2296.848258 94.000 157.7414
2313.492167 94.039 157.4234
2330.256685 94.081 157.0974
2347.142685 94.126 156.7651
2364.151049 94.173 156.4283
2381.282662 94.221 156.0894
2398.538418 94.268 155.7508
2415.919216 94.315 155.4149
2433.425962 94.360 155.0841
2451.059570 94.402 154.7605
2468.820958 94.441 154.4457
2486.711052 94.476 154.1407
2504.730786 94.506 153.8461
2522.881098 94.531 153.5618
2541.162934 94.550 153.2877
2559.577248 94.563 153.0232
2578.125000 94.568 152.7679
2596.807157 94.565 152.5215
2615.624692 94.554 152.2846
2634.578586 94.534 152.0581
2653.669829 94.505 151.8435
2672.899414 94.466 151.6429
2692.268345 94.418 151.4587
2711.777632 94.361 151.2932
2731.428290 94.295 151.1481
2751.221345 94.220 151.0247
2771.157829 94.138 150.9238
2791.238781 94.048 150.8451
2811.465248 93.951 150.7880
2831.838284 93.848 150.7515
2852.358952 93.739 150.7346
2873.028321 93.625 150.7364
2893.847468 93.506 150.7559
2914.817480 93.381 150.7924
2935.939449 93.252 150.8459
2957.214476 93.118 150.9162
2978.643672 92.980 151.0038
3000.228152 92.838 151.1093
3021.969041 92.692 151.2338
3043.867475 92.542 151.3786
3065.924593 92.390 151.5453
3088.141547 92.234 151.7361
3110.519493 92.075 151.9530
3133.059600 91.914 152.1987
3155.763041 91.751 152.4760
3178.631001 91.586 152.7881
3201.664672 91.419 153.1384
3224.865254 91.251 153.5305
3248.233957 91.083 153.9680
3271.771999 90.916 154.4548
3295.480608 90.749 154.9946
3319.361019 90.584 155.5909
3343.414477 90.423 156.2470
3367.642236 90.267 156.9657
3392.045560 90.116 157.7493
3416.625721 89.973 158.5999
3441.383999 89.839 159.5190
3466.321686 89.715 160.5080
3491.440082 89.602 161.5680
3516.740496 89.502 162.6994
