* Measurement data measured by REW V5.31.3
* Source: EXCL: Headset (USB-C to 3.5mm Headphone Jack Adapter), MICROPHONE (Master Volume), 0, volume: 0.750
* Format: 256k Log Swept Sine, 1 sweep at -12.0 dBFS with no timing reference
* Dated: Apr 1, 2025 10:55:32 PM
* REW Settings:
*  C-weighting compensation: Off
*  Target level: 75.0 dB
* Note: ; 
* Measurement: Ouro (golem) R3
* Smoothing: 1/6 octave
* Frequency Step: 96 ppo
* Start Frequency: 20.0 Hz
*
* Freq(Hz) SPL(dB) Phase(degrees)
20.187378 92.604 -168.3545
20.333664 92.655 -168.7116
20.481010 92.721 -169.1983
20.629424 92.797 -169.8098
20.778913 92.875 -170.5369
20.929486 92.952 -171.3646
21.081150 93.023 -172.2723
21.233912 93.083 -173.2342
21.387782 93.130 -174.2208
21.542767 93.163 -175.2006
21.698874 93.182 -176.1422
21.856113 93.189 -177.0165
22.014492 93.184 -177.7984
22.174018 93.171 -178.4685
22.334700 93.152 -179.0147
22.496546 93.130 -179.4324
22.659566 93.106 -179.7247
22.823766 93.084 -179.9015
22.989157 93.063 -179.9783
23.155745 93.045 -179.9742
23.323542 93.030 -179.9103
23.492554 93.017 -179.8078
23.662790 93.006 -179.6873
23.834261 92.996 -179.5679
24.006973 92.987 -179.4669
24.180938 92.980 -179.4003
24.356163 92.975 -179.3828
24.532658 92.971 -179.4268
24.710431 92.968 -179.5430
24.889493 92.967 -179.7386
25.069853 92.965 179.9834
25.251519 92.961 179.6246
25.434502 92.955 179.1916
25.618811 92.944 178.6959
25.804456 92.926 178.1524
25.991445 92.901 177.5784
26.179790 92.869 176.9913
26.369500 92.829 176.4065
26.560584 92.783 175.8361
26.753053 92.731 175.2876
26.946917 92.674 174.7633
27.142185 92.614 174.2611
27.338869 92.552 173.7760
27.536977 92.488 173.3017
27.736522 92.422 172.8331
27.937512 92.353 172.3681
28.139959 92.280 171.9089
28.343872 92.204 171.4617
28.549264 92.125 171.0364
28.756143 92.042 170.6446
28.964522 91.958 170.2976
29.174411 91.874 170.0037
29.385821 91.792 169.7665
29.598763 91.714 169.5845
29.813248 91.642 169.4504
30.029287 91.576 169.3530
30.246891 91.517 169.2789
30.466073 91.463 169.2152
30.686842 91.414 169.1513
30.909212 91.367 169.0804
31.133193 91.322 168.9997
31.358797 91.278 168.9099
31.586035 91.234 168.8143
31.814921 91.192 168.7173
32.045465 91.152 168.6232
32.277680 91.116 168.5358
32.511577 91.085 168.4572
32.747169 91.059 168.3889
32.984469 91.041 168.3313
33.223488 91.030 168.2847
33.464239 91.026 168.2493
33.706735 91.029 168.2252
33.950987 91.039 168.2122
34.197010 91.054 168.2099
34.444816 91.073 168.2173
34.694417 91.097 168.2332
34.945827 91.123 168.2563
35.199059 91.151 168.2860
35.454126 91.181 168.3225
35.711041 91.210 168.3676
35.969818 91.238 168.4244
36.230470 91.266 168.4972
36.493011 91.291 168.5906
36.757455 91.315 168.7092
37.023814 91.337 168.8560
37.292104 91.357 169.0327
37.562338 91.376 169.2383
37.834530 91.393 169.4702
38.108695 91.407 169.7233
38.384846 91.420 169.9916
38.662999 91.429 170.2684
38.943167 91.436 170.5470
39.225365 91.439 170.8221
39.509608 91.438 171.0895
39.795911 91.434 171.3470
40.084289 91.427 171.5939
40.374756 91.417 171.8305
40.667328 91.405 172.0579
40.962020 91.393 172.2771
41.258848 91.381 172.4885
41.557827 91.373 172.6918
41.858972 91.367 172.8860
42.162299 91.365 173.0701
42.467824 91.368 173.2433
42.775564 91.375 173.4057
43.085533 91.386 173.5584
43.397749 91.401 173.7032
43.712227 91.419 173.8426
44.028983 91.440 173.9787
44.348036 91.463 174.1131
44.669400 91.488 174.2462
44.993093 91.515 174.3773
45.319131 91.542 174.5051
45.647532 91.570 174.6277
45.978313 91.599 174.7438
46.311491 91.627 174.8522
46.647083 91.654 174.9531
46.985107 91.680 175.0472
47.325581 91.707 175.1359
47.668521 91.733 175.2207
48.013947 91.759 175.3027
48.361876 91.786 175.3824
48.712326 91.814 175.4597
49.065315 91.844 175.5334
49.420863 91.875 175.6025
49.778987 91.908 175.6658
50.139706 91.940 175.7226
50.503039 91.973 175.7729
50.869005 92.005 175.8170
51.237623 92.037 175.8555
51.608912 92.067 175.8887
51.982891 92.096 175.9164
52.359580 92.123 175.9381
52.739000 92.148 175.9529
53.121168 92.173 175.9596
53.506106 92.196 175.9565
53.893833 92.219 175.9416
54.284370 92.240 175.9129
54.677737 92.262 175.8687
55.073955 92.284 175.8075
55.473043 92.306 175.7288
55.875024 92.328 175.6324
56.279917 92.352 175.5189
56.687745 92.377 175.3895
57.098527 92.403 175.2455
57.512287 92.432 175.0887
57.929045 92.462 174.9202
58.348822 92.494 174.7412
58.771642 92.526 174.5521
59.197525 92.559 174.3535
59.626495 92.591 174.1461
60.058573 92.622 173.9311
60.493782 92.652 173.7094
60.932145 92.682 173.4815
61.373685 92.712 173.2474
61.818424 92.742 173.0069
62.266386 92.774 172.7598
62.717593 92.808 172.5069
63.172071 92.843 172.2498
63.629842 92.879 171.9905
64.090930 92.917 171.7309
64.555359 92.954 171.4724
65.023154 92.992 171.2155
65.494339 93.028 170.9604
65.968938 93.064 170.7066
66.446976 93.098 170.4536
66.928478 93.131 170.2009
67.413469 93.162 169.9485
67.901975 93.191 169.6967
68.394021 93.218 169.4457
68.889632 93.243 169.1964
69.388835 93.266 168.9491
69.891655 93.287 168.7045
70.398118 93.305 168.4627
70.908252 93.320 168.2241
71.422083 93.333 167.9889
71.939636 93.343 167.7584
72.460941 93.350 167.5339
72.986023 93.355 167.3174
73.514909 93.359 167.1104
74.047629 93.360 166.9141
74.584208 93.360 166.7283
75.124676 93.359 166.5521
75.669061 93.355 166.3838
76.217390 93.351 166.2214
76.769692 93.345 166.0631
77.325997 93.339 165.9073
77.886333 93.332 165.7528
78.450730 93.325 165.5984
79.019216 93.317 165.4430
79.591822 93.310 165.2856
80.168577 93.303 165.1252
80.749512 93.297 164.9614
81.334656 93.292 164.7936
81.924040 93.287 164.6215
82.517696 93.283 164.4445
83.115653 93.281 164.2621
83.717943 93.279 164.0736
84.324598 93.278 163.8782
84.935649 93.279 163.6749
85.551128 93.279 163.4627
86.171066 93.281 163.2405
86.795497 93.282 163.0071
87.424453 93.284 162.7615
88.057967 93.286 162.5027
88.696071 93.287 162.2299
89.338800 93.288 161.9425
89.986185 93.287 161.6403
90.638262 93.286 161.3234
91.295065 93.282 160.9922
91.956626 93.277 160.6479
92.622982 93.270 160.2913
93.294166 93.261 159.9239
93.970214 93.251 159.5471
94.651161 93.238 159.1624
95.337042 93.224 158.7712
96.027894 93.209 158.3746
96.723752 93.192 157.9734
97.424652 93.174 157.5684
98.130631 93.155 157.1602
98.841726 93.135 156.7497
99.557974 93.113 156.3380
100.279412 93.090 155.9265
101.006078 93.066 155.5164
101.738010 93.041 155.1088
102.475245 93.015 154.7044
103.217823 92.988 154.3036
103.965782 92.960 153.9068
104.719161 92.932 153.5140
105.477999 92.903 153.1255
106.242336 92.874 152.7413
107.012212 92.844 152.3611
107.787666 92.814 151.9848
108.568740 92.783 151.6122
109.355474 92.752 151.2436
110.147909 92.719 150.8795
110.946086 92.686 150.5208
111.750047 92.652 150.1683
112.559834 92.618 149.8231
113.375489 92.582 149.4861
114.197055 92.545 149.1578
115.024574 92.508 148.8385
115.858089 92.469 148.5279
116.697645 92.430 148.2255
117.543284 92.390 147.9305
118.395051 92.350 147.6419
119.252990 92.309 147.3589
120.117147 92.267 147.0808
120.987565 92.224 146.8071
121.864291 92.180 146.5373
122.747370 92.136 146.2713
123.636848 92.090 146.0089
124.532771 92.043 145.7499
125.435187 91.994 145.4941
126.344142 91.944 145.2415
127.259684 91.893 144.9922
128.181860 91.840 144.7467
129.110718 91.785 144.5055
130.046308 91.728 144.2693
130.988677 91.670 144.0391
131.937875 91.609 143.8157
132.893951 91.547 143.6002
133.856956 91.483 143.3932
134.826938 91.416 143.1953
135.803950 91.348 143.0070
136.788041 91.277 142.8287
137.779264 91.205 142.6609
138.777669 91.131 142.5040
139.783309 91.055 142.3582
140.796237 90.977 142.2238
141.816504 90.897 142.1008
142.844165 90.816 141.9896
143.879273 90.733 141.8903
144.921881 90.648 141.8035
145.972045 90.563 141.7294
147.029819 90.476 141.6688
148.095257 90.388 141.6218
149.168417 90.300 141.5889
150.249353 90.211 141.5704
151.338121 90.121 141.5663
152.434780 90.032 141.5769
153.539385 89.943 141.6021
154.651995 89.854 141.6422
155.772667 89.766 141.6974
156.901460 89.678 141.7679
158.038432 89.591 141.8538
159.183644 89.505 141.9548
160.337154 89.420 142.0705
161.499023 89.337 142.1998
162.669312 89.255 142.3415
163.848081 89.175 142.4944
165.035392 89.096 142.6573
166.231306 89.020 142.8296
167.435887 88.945 143.0109
168.649196 88.872 143.2011
169.871298 88.800 143.4004
171.102255 88.731 143.6087
172.342133 88.663 143.8263
173.590995 88.596 144.0529
174.848907 88.530 144.2885
176.115934 88.466 144.5324
177.392143 88.403 144.7844
178.677599 88.342 145.0439
179.972371 88.281 145.3107
181.276525 88.223 145.5839
182.590129 88.165 145.8629
183.913252 88.109 146.1465
185.245964 88.053 146.4337
186.588332 87.998 146.7234
187.940428 87.945 147.0152
189.302322 87.892 147.3087
190.674085 87.840 147.6040
192.055788 87.789 147.9016
193.447503 87.739 148.2019
194.849303 87.691 148.5056
196.261262 87.644 148.8124
197.683452 87.599 149.1222
199.115948 87.556 149.4338
200.558824 87.514 149.7460
202.012156 87.474 150.0578
203.476019 87.435 150.3680
204.950490 87.398 150.6760
206.435646 87.363 150.9810
207.931564 87.330 151.2822
209.438322 87.299 151.5792
210.955998 87.269 151.8714
212.484672 87.241 152.1588
214.024424 87.215 152.4415
215.575333 87.190 152.7201
217.137481 87.168 152.9950
218.710948 87.147 153.2670
220.295818 87.128 153.5366
221.892172 87.111 153.8040
223.500094 87.095 154.0696
225.119668 87.082 154.3333
226.750978 87.070 154.5953
228.394109 87.059 154.8557
230.049147 87.051 155.1146
231.716178 87.044 155.3719
233.395289 87.040 155.6277
235.086567 87.036 155.8817
236.790102 87.034 156.1332
238.505980 87.034 156.3818
240.234293 87.035 156.6268
241.975130 87.037 156.8680
243.728581 87.041 157.1050
245.494739 87.046 157.3382
247.273695 87.051 157.5680
249.065542 87.058 157.7951
250.870374 87.066 158.0203
252.688284 87.075 158.2446
254.519367 87.084 158.4688
256.363720 87.094 158.6932
258.221437 87.105 158.9181
260.092616 87.117 159.1433
261.977354 87.130 159.3686
263.875750 87.143 159.5935
265.787903 87.157 159.8176
267.713911 87.172 160.0402
269.653877 87.188 160.2610
271.607900 87.205 160.4796
273.576083 87.223 160.6957
275.558528 87.243 160.9088
277.555338 87.264 161.1182
279.566619 87.286 161.3229
281.592474 87.310 161.5218
283.633009 87.336 161.7136
285.688331 87.363 161.8967
287.758546 87.392 162.0698
289.843763 87.422 162.2316
291.944090 87.454 162.3811
294.059638 87.487 162.5174
296.190515 87.521 162.6401
298.336833 87.555 162.7489
300.498705 87.590 162.8439
302.676243 87.625 162.9253
304.869559 87.660 162.9933
307.078770 87.695 163.0483
309.303989 87.729 163.0912
311.545334 87.763 163.1228
313.802919 87.795 163.1440
316.076865 87.827 163.1560
318.367288 87.858 163.1600
320.674309 87.887 163.1572
322.998047 87.916 163.1487
325.338624 87.943 163.1358
327.696162 87.968 163.1194
330.070783 87.991 163.1003
332.462612 88.013 163.0794
334.871773 88.033 163.0577
337.298392 88.050 163.0359
339.742595 88.066 163.0145
342.204510 88.079 162.9940
344.684265 88.090 162.9748
347.181989 88.100 162.9572
349.697813 88.107 162.9412
352.231868 88.112 162.9273
354.784285 88.115 162.9155
357.355198 88.117 162.9059
359.944741 88.117 162.8987
362.553049 88.116 162.8939
365.180258 88.115 162.8912
367.826505 88.112 162.8907
370.491927 88.108 162.8921
373.176665 88.104 162.8954
375.880856 88.100 162.9005
378.604644 88.095 162.9071
381.348169 88.090 162.9153
384.111575 88.085 162.9250
386.895006 88.080 162.9362
389.698607 88.074 162.9491
392.522524 88.068 162.9640
395.366904 88.062 162.9811
398.231895 88.056 163.0005
401.117648 88.049 163.0223
404.024312 88.043 163.0459
406.952038 88.036 163.0709
409.900981 88.029 163.0961
412.871292 88.022 163.1206
415.863128 88.013 163.1427
418.876643 88.004 163.1609
421.911996 87.994 163.1738
424.969344 87.981 163.1807
428.048847 87.966 163.1826
431.150666 87.948 163.1812
434.274961 87.927 163.1795
437.421897 87.903 163.1801
440.591636 87.876 163.1844
443.784345 87.847 163.1923
447.000189 87.816 163.2024
450.239337 87.784 163.2136
453.501956 87.751 163.2249
456.788219 87.718 163.2359
460.098294 87.684 163.2462
463.432356 87.650 163.2556
466.790578 87.615 163.2643
470.173135 87.581 163.2729
473.580203 87.548 163.2825
477.011961 87.514 163.2940
480.468586 87.481 163.3085
483.950259 87.449 163.3273
487.457163 87.417 163.3510
490.989478 87.386 163.3802
494.547390 87.356 163.4149
498.131084 87.328 163.4550
501.740748 87.302 163.4999
505.376568 87.277 163.5490
509.038735 87.254 163.6011
512.727439 87.234 163.6555
516.442874 87.217 163.7110
520.185232 87.202 163.7663
523.954708 87.190 163.8202
527.751500 87.181 163.8715
531.575805 87.175 163.9189
535.427822 87.172 163.9613
539.307753 87.172 163.9977
543.215800 87.174 164.0273
547.152165 87.179 164.0494
551.117055 87.186 164.0636
555.110677 87.195 164.0696
559.133237 87.206 164.0674
563.184947 87.217 164.0570
567.266018 87.230 164.0386
571.376661 87.242 164.0125
575.517092 87.254 163.9791
579.687526 87.266 163.9391
583.888181 87.278 163.8933
588.119275 87.288 163.8426
592.381030 87.297 163.7879
596.673667 87.304 163.7305
600.997410 87.309 163.6713
605.352485 87.312 163.6115
609.739119 87.313 163.5522
614.157540 87.311 163.4945
618.607979 87.307 163.4394
623.090667 87.299 163.3880
627.605839 87.289 163.3414
632.153730 87.276 163.3009
636.734576 87.260 163.2677
641.348617 87.241 163.2430
645.996094 87.219 163.2281
650.677248 87.194 163.2239
655.392323 87.167 163.2316
660.141566 87.138 163.2518
664.925224 87.106 163.2853
669.743546 87.073 163.3326
674.596784 87.038 163.3942
679.485191 87.002 163.4706
684.409020 86.964 163.5620
689.368530 86.926 163.6689
694.363979 86.887 163.7919
699.395626 86.848 163.9311
704.463736 86.808 164.0869
709.568570 86.768 164.2595
714.710396 86.728 164.4490
719.889483 86.688 164.6553
725.106099 86.648 164.8779
730.360516 86.609 165.1164
735.653010 86.570 165.3699
740.983855 86.532 165.6371
746.353329 86.496 165.9169
751.761713 86.461 166.2076
757.209288 86.429 166.5075
762.696339 86.398 166.8145
768.223151 86.371 167.1265
773.790013 86.346 167.4412
779.397214 86.325 167.7560
785.045047 86.307 168.0681
790.733808 86.293 168.3748
796.463791 86.284 168.6727
802.235296 86.278 168.9582
808.048623 86.278 169.2266
813.904077 86.281 169.4726
819.801961 86.290 169.6903
825.742584 86.302 169.8732
831.726255 86.319 170.0150
837.753287 86.338 170.1102
843.823992 86.359 170.1545
849.938689 86.380 170.1462
856.097695 86.399 170.0862
862.301332 86.416 169.9785
868.549922 86.427 169.8305
874.843793 86.434 169.6519
881.183272 86.433 169.4541
887.568689 86.427 169.2488
894.000378 86.413 169.0472
900.478673 86.395 168.8583
907.003913 86.371 168.6893
913.576437 86.345 168.5447
920.196588 86.316 168.4270
926.864712 86.286 168.3367
933.581156 86.256 168.2729
940.346270 86.227 168.2336
947.160407 86.200 168.2164
954.023921 86.175 168.2185
960.937172 86.152 168.2371
967.900519 86.132 168.2697
974.914325 86.115 168.3142
981.978956 86.101 168.3691
989.094780 86.089 168.4330
996.262169 86.081 168.5052
1003.481495 86.075 168.5855
1010.753136 86.072 168.6738
1018.077470 86.072 168.7703
1025.454879 86.074 168.8755
1032.885748 86.079 168.9894
1040.370463 86.086 169.1127
1047.909417 86.095 169.2454
1055.503000 86.107 169.3880
1063.151610 86.120 169.5411
1070.855645 86.135 169.7055
1078.615506 86.152 169.8824
1086.431599 86.171 170.0733
1094.304330 86.192 170.2803
1102.234110 86.214 170.5060
1110.221353 86.239 170.7529
1118.266475 86.266 171.0240
1126.369895 86.297 171.3219
1134.532035 86.332 171.6485
1142.753322 86.373 172.0044
1151.034184 86.421 172.3876
1159.375052 86.478 172.7930
1167.776361 86.545 173.2112
1176.238550 86.623 173.6276
1184.762060 86.714 174.0231
1193.347334 86.816 174.3747
1201.994821 86.929 174.6575
1210.704971 87.049 174.8484
1219.478238 87.172 174.9295
1228.315080 87.295 174.8923
1237.215957 87.412 174.7393
1246.181334 87.518 174.4841
1255.211678 87.612 174.1490
1264.307459 87.691 173.7611
1273.469152 87.756 173.3481
1282.697235 87.806 172.9351
1291.992188 87.844 172.5427
1301.354495 87.873 172.1862
1310.784647 87.893 171.8754
1320.283132 87.909 171.6158
1329.850448 87.921 171.4088
1339.487093 87.931 171.2531
1349.193569 87.942 171.1449
1358.970381 87.955 171.0793
1368.818041 87.970 171.0505
1378.737061 87.989 171.0521
1388.727958 88.012 171.0779
1398.791253 88.039 171.1218
1408.927471 88.071 171.1783
1419.137140 88.107 171.2427
1429.420793 88.148 171.3109
1439.778965 88.193 171.3798
1450.212197 88.243 171.4469
1460.721033 88.296 171.5104
1471.306019 88.352 171.5688
1481.967709 88.411 171.6212
1492.706658 88.472 171.6669
1503.523426 88.536 171.7051
1514.418576 88.600 171.7353
1525.392678 88.665 171.7571
1536.446302 88.730 171.7698
1547.580025 88.795 171.7730
1558.794428 88.859 171.7661
1570.090095 88.922 171.7489
1581.467615 88.983 171.7208
1592.927581 89.041 171.6816
1604.470591 89.097 171.6311
1616.097246 89.149 171.5694
1627.808153 89.198 171.4966
1639.603922 89.244 171.4132
1651.485168 89.286 171.3196
1663.452510 89.324 171.2166
1675.506573 89.357 171.1049
1687.647984 89.387 170.9855
1699.877377 89.412 170.8593
1712.195390 89.434 170.7274
1724.602663 89.451 170.5904
1737.099845 89.463 170.4492
1749.687587 89.472 170.3044
1762.366544 89.478 170.1564
1775.137379 89.479 170.0059
1788.000756 89.477 169.8530
1800.957346 89.471 169.6982
1814.007826 89.462 169.5420
1827.152874 89.449 169.3850
1840.393177 89.433 169.2278
1853.729425 89.414 169.0713
1867.162312 89.391 168.9163
1880.692540 89.364 168.7638
1894.320813 89.334 168.6147
1908.047843 89.299 168.4703
1921.874344 89.261 168.3314
1935.801038 89.218 168.1988
1949.828650 89.171 168.0734
1963.957912 89.119 167.9557
1978.189561 89.064 167.8461
1992.524338 89.004 167.7448
2006.962991 88.940 167.6515
2021.506272 88.873 167.5659
2036.154940 88.802 167.4874
2050.909758 88.728 167.4155
2065.771495 88.651 167.3494
2080.740927 88.572 167.2886
2095.818833 88.491 167.2325
2111.006001 88.408 167.1813
2126.303220 88.324 167.1349
2141.711290 88.238 167.0940
2157.231013 88.151 167.0593
2172.863198 88.063 167.0319
2188.608660 87.974 167.0126
2204.468221 87.885 167.0023
2220.442706 87.795 167.0015
2236.532950 87.706 167.0104
2252.739789 87.616 167.0288
2269.064070 87.526 167.0565
2285.506644 87.436 167.0931
2302.068367 87.346 167.1388
2318.750104 87.257 167.1938
2335.552723 87.167 167.2590
2352.477101 87.077 167.3357
2369.524119 86.987 167.4258
2386.694668 86.898 167.5316
2403.989641 86.809 167.6558
2421.409941 86.721 167.8008
2438.956476 86.635 167.9695
2456.630160 86.551 168.1642
2474.431915 86.471 168.3869
2492.362668 86.394 168.6387
2510.423356 86.322 168.9202
2528.614918 86.255 169.2311
2546.938304 86.193 169.5701
2565.394469 86.138 169.9354
2583.984375 86.090 170.3242
2602.708991 86.049 170.7339
2621.569293 86.015 171.1611
2640.566265 85.988 171.6030
2659.700897 85.969 172.0567
2678.974186 85.956 172.5195
2698.387137 85.951 172.9891
2717.940763 85.953 173.4633
2737.636082 85.961 173.9400
2757.474121 85.977 174.4171
2777.455915 85.998 174.8927
2797.582506 86.026 175.3647
2817.854942 86.060 175.8309
2838.274281 86.099 176.2891
2858.841586 86.142 176.7370
2879.557931 86.190 177.1725
2900.424394 86.241 177.5936
2921.442065 86.295 177.9988
2942.612039 86.350 178.3867
2963.935418 86.406 178.7570
2985.413316 86.461 179.1095
3007.046852 86.515 179.4448
3028.837153 86.567 179.7640
3050.785356 86.616 -179.9316
3072.892604 86.661 -179.6402
3095.160050 86.701 -179.3602
3117.588856 86.736 -179.0895
3140.180190 86.765 -178.8259
3162.935230 86.787 -178.5672
3185.855163 86.803 -178.3105
3208.941182 86.811 -178.0528
3232.194493 86.811 -177.7908
3255.616307 86.803 -177.5207
3279.207844 86.788 -177.2387
3302.970336 86.765 -176.9406
3326.905021 86.734 -176.6225
3351.013146 86.696 -176.2801
3375.295969 86.652 -175.9097
3399.754755 86.603 -175.5075
3424.390779 86.549 -175.0704
3449.205326 86.492 -174.5957
3474.199690 86.433 -174.0817
3499.375173 86.373 -173.5274
3524.733088 86.316 -172.9335
3550.274757 86.261 -172.3021
3576.001511 86.212 -171.6369
3601.914692 86.169 -170.9437
3628.015651 86.135 -170.2294
3654.305748 86.112 -169.5028
