* Measurement data measured by REW V5.31.3
* Source: EXCL: Headset (USB-C to 3.5mm Headphone Jack Adapter), MICROPHONE (Master Volume), 0, volume: 0.260
* Format: 256k Log Swept Sine, 1 sweep at -12.0 dBFS with no timing reference
* Dated: Feb 21, 2025 5:21:45 PM
* REW Settings:
*  C-weighting compensation: Off
*  Target level: 75.0 dB
* Note: ; 
* Measurement: Ouroboros (Golem Mod) L1
* Smoothing: 1/6 octave
* Frequency Step: 96 ppo
* Start Frequency: 20.0 Hz
*
* Freq(Hz) SPL(dB) Phase(degrees)
20.141602 106.537 -111.7199
20.287556 106.520 -111.9737
20.434568 106.497 -112.3133
20.582645 106.469 -112.7280
20.731796 106.437 -113.2060
20.882027 106.402 -113.7358
21.033346 106.364 -114.3068
21.185763 106.325 -114.9097
21.339284 106.285 -115.5365
21.493917 106.246 -116.1807
21.649671 106.206 -116.8372
21.806553 106.169 -117.5020
21.964572 106.133 -118.1719
22.123737 106.099 -118.8446
22.284054 106.067 -119.5182
22.445534 106.037 -120.1915
22.608183 106.009 -120.8631
22.772012 105.983 -121.5320
22.937027 105.958 -122.1973
23.103238 105.934 -122.8582
23.270654 105.911 -123.5135
23.439282 105.888 -124.1625
23.609133 105.865 -124.8043
23.780215 105.841 -125.4379
23.952536 105.817 -126.0626
24.126106 105.793 -126.6780
24.300934 105.767 -127.2838
24.477028 105.741 -127.8799
24.654399 105.714 -128.4668
24.833055 105.687 -129.0451
25.013005 105.660 -129.6158
25.194260 105.633 -130.1803
25.376828 105.606 -130.7400
25.560719 105.581 -131.2962
25.745942 105.557 -131.8503
25.932508 105.535 -132.4035
26.120426 105.515 -132.9566
26.309705 105.496 -133.5099
26.500356 105.480 -134.0633
26.692388 105.465 -134.6163
26.885812 105.453 -135.1680
27.080638 105.443 -135.7171
27.276876 105.434 -136.2625
27.474535 105.428 -136.8028
27.673627 105.422 -137.3369
27.874161 105.417 -137.8642
28.076149 105.413 -138.3842
28.279600 105.408 -138.8973
28.484526 105.403 -139.4040
28.690937 105.396 -139.9051
28.898843 105.387 -140.4016
29.108256 105.374 -140.8946
29.319186 105.359 -141.3847
29.531645 105.339 -141.8725
29.745644 105.316 -142.3580
29.961193 105.289 -142.8409
30.178304 105.259 -143.3207
30.396989 105.226 -143.7967
30.617258 105.191 -144.2683
30.839123 105.155 -144.7351
31.062596 105.118 -145.1969
31.287688 105.081 -145.6537
31.514412 105.046 -146.1059
31.742778 105.013 -146.5541
31.972800 104.982 -146.9987
32.204488 104.955 -147.4405
32.437855 104.931 -147.8801
32.672913 104.911 -148.3181
32.909674 104.895 -148.7550
33.148151 104.883 -149.1915
33.388356 104.876 -149.6279
33.630302 104.871 -150.0642
33.874001 104.869 -150.4999
34.119466 104.869 -150.9341
34.366710 104.870 -151.3648
34.615745 104.869 -151.7899
34.866585 104.867 -152.2067
35.119243 104.862 -152.6124
35.373731 104.853 -153.0048
35.630064 104.839 -153.3823
35.888254 104.820 -153.7442
36.148315 104.794 -154.0909
36.410261 104.763 -154.4233
36.674104 104.726 -154.7430
36.939860 104.682 -155.0513
37.207542 104.633 -155.3493
37.477163 104.580 -155.6376
37.748738 104.522 -155.9158
38.022281 104.460 -156.1832
38.297806 104.396 -156.4386
38.575327 104.330 -156.6806
38.854860 104.263 -156.9081
39.136419 104.196 -157.1201
39.420017 104.128 -157.3162
39.705671 104.061 -157.4966
39.993395 103.995 -157.6623
40.283203 103.931 -157.8144
40.575112 103.867 -157.9547
40.869136 103.806 -158.0854
41.165290 103.747 -158.2085
41.463591 103.691 -158.3259
41.764053 103.638 -158.4391
42.066693 103.588 -158.5490
42.371525 103.542 -158.6560
42.678567 103.501 -158.7600
42.987834 103.464 -158.8608
43.299341 103.432 -158.9579
43.613106 103.404 -159.0514
43.929145 103.382 -159.1413
44.247473 103.364 -159.2283
44.568109 103.350 -159.3134
44.891068 103.340 -159.3975
45.216367 103.334 -159.4822
45.544023 103.331 -159.5685
45.874054 103.331 -159.6576
46.206476 103.334 -159.7505
46.541307 103.339 -159.8476
46.878565 103.346 -159.9495
47.218266 103.355 -160.0561
47.560429 103.365 -160.1674
47.905072 103.377 -160.2832
48.252212 103.390 -160.4033
48.601867 103.403 -160.5275
48.954056 103.418 -160.6559
49.308798 103.433 -160.7886
49.666109 103.448 -160.9258
50.026010 103.464 -161.0681
50.388520 103.481 -161.2157
50.753656 103.498 -161.3688
51.121437 103.515 -161.5270
51.491884 103.531 -161.6895
51.865016 103.548 -161.8550
52.240851 103.563 -162.0216
52.619410 103.577 -162.1872
53.000712 103.590 -162.3498
53.384777 103.601 -162.5076
53.771625 103.611 -162.6595
54.161276 103.620 -162.8050
54.553751 103.627 -162.9441
54.949070 103.632 -163.0775
55.347254 103.636 -163.2063
55.748323 103.639 -163.3318
56.152298 103.641 -163.4554
56.559201 103.643 -163.5784
56.969052 103.645 -163.7016
57.381873 103.647 -163.8254
57.797686 103.652 -163.9494
58.216512 103.658 -164.0728
58.638373 103.667 -164.1936
59.063291 103.680 -164.3098
59.491288 103.696 -164.4196
59.922386 103.716 -164.5220
60.356608 103.739 -164.6172
60.793977 103.767 -164.7074
61.234515 103.797 -164.7959
61.678246 103.830 -164.8871
62.125192 103.865 -164.9852
62.575377 103.902 -165.0938
63.028824 103.939 -165.2157
63.485557 103.977 -165.3527
63.945599 104.015 -165.5059
64.408975 104.053 -165.6759
64.875709 104.091 -165.8628
65.345825 104.128 -166.0663
65.819348 104.165 -166.2862
66.296302 104.202 -166.5220
66.776713 104.240 -166.7736
67.260604 104.278 -167.0410
67.748002 104.316 -167.3244
68.238932 104.356 -167.6242
68.733420 104.396 -167.9408
69.231490 104.437 -168.2746
69.733170 104.479 -168.6260
70.238485 104.520 -168.9951
70.747463 104.562 -169.3817
71.260128 104.603 -169.7857
71.776508 104.643 -170.2064
72.296630 104.683 -170.6435
72.820521 104.721 -171.0966
73.348209 104.759 -171.5654
73.879720 104.794 -172.0497
74.415083 104.829 -172.5491
74.954326 104.861 -173.0629
75.497475 104.892 -173.5903
76.044561 104.921 -174.1304
76.595612 104.948 -174.6825
77.150655 104.973 -175.2457
77.709720 104.995 -175.8195
78.272837 105.015 -176.4031
78.840034 105.032 -176.9956
79.411342 105.047 -177.5960
79.986789 105.059 -178.2034
80.566406 105.069 -178.8166
81.150224 105.075 -179.4348
81.738272 105.079 179.9430
82.330581 105.081 179.3177
82.927182 105.079 178.6900
83.528107 105.075 178.0606
84.133386 105.068 177.4304
84.743051 105.059 176.7999
85.357134 105.047 176.1699
85.975667 105.034 175.5408
86.598682 105.018 174.9131
87.226212 105.001 174.2869
87.858289 104.983 173.6626
88.494946 104.963 173.0403
89.136217 104.943 172.4199
89.782135 104.921 171.8013
90.432733 104.899 171.1844
91.088046 104.877 170.5691
91.748108 104.853 169.9551
92.412952 104.828 169.3425
93.082615 104.801 168.7315
93.757130 104.773 168.1225
94.436533 104.742 167.5160
95.120859 104.709 166.9125
95.810144 104.672 166.3128
96.504423 104.631 165.7172
97.203734 104.587 165.1265
97.908112 104.538 164.5410
98.617595 104.485 163.9615
99.332219 104.427 163.3886
100.052021 104.366 162.8231
100.777039 104.300 162.2656
101.507311 104.231 161.7166
102.242875 104.159 161.1763
102.983769 104.085 160.6451
103.730032 104.008 160.1234
104.481702 103.929 159.6113
105.238820 103.849 159.1096
106.001424 103.768 158.6187
106.769554 103.686 158.1394
107.543250 103.603 157.6722
108.322553 103.520 157.2175
109.107503 103.436 156.7759
109.898141 103.352 156.3478
110.694508 103.267 155.9339
111.496646 103.181 155.5345
112.304596 103.095 155.1502
113.118402 103.007 154.7815
113.938104 102.918 154.4289
114.763747 102.826 154.0927
115.595372 102.733 153.7734
116.433024 102.638 153.4713
117.276746 102.541 153.1866
118.126581 102.442 152.9199
118.982575 102.340 152.6714
119.844772 102.236 152.4415
120.713217 102.131 152.2305
121.587954 102.024 152.0386
122.469031 101.915 151.8657
123.356492 101.806 151.7118
124.250384 101.697 151.5768
125.150753 101.587 151.4608
126.057647 101.478 151.3640
126.971113 101.371 151.2866
127.891198 101.264 151.2290
128.817950 101.158 151.1917
129.751418 101.054 151.1748
130.691651 100.951 151.1788
131.638696 100.849 151.2039
132.592604 100.748 151.2504
133.553425 100.648 151.3192
134.521208 100.549 151.4110
135.496004 100.450 151.5267
136.477864 100.352 151.6672
137.466839 100.253 151.8333
138.462981 100.154 152.0258
139.466340 100.054 152.2449
140.476971 99.954 152.4911
141.494925 99.852 152.7642
142.520256 99.749 153.0641
143.553016 99.646 153.3905
144.593260 99.542 153.7429
145.641043 99.438 154.1207
146.696418 99.335 154.5234
147.759441 99.233 154.9504
148.830166 99.133 155.4009
149.908651 99.036 155.8742
150.994951 98.942 156.3695
152.089123 98.852 156.8858
153.191223 98.767 157.4221
154.301310 98.688 157.9772
155.419441 98.614 158.5497
156.545674 98.545 159.1383
157.680069 98.483 159.7415
158.822683 98.427 160.3579
159.973578 98.377 160.9861
161.132813 98.332 161.6246
162.300447 98.292 162.2720
163.476543 98.257 162.9266
164.661162 98.228 163.5869
165.854364 98.203 164.2512
167.056213 98.182 164.9177
168.266772 98.166 165.5843
169.486102 98.154 166.2489
170.714268 98.147 166.9091
171.951334 98.144 167.5627
173.197364 98.145 168.2073
174.452424 98.149 168.8410
175.716578 98.157 169.4620
176.989893 98.168 170.0689
178.272434 98.182 170.6608
179.564270 98.198 171.2369
180.865467 98.215 171.7972
182.176092 98.234 172.3416
183.496216 98.254 172.8707
184.825905 98.275 173.3850
186.165229 98.296 173.8851
187.514259 98.317 174.3718
188.873065 98.339 174.8455
190.241717 98.361 175.3068
191.620287 98.383 175.7562
193.008847 98.405 176.1942
194.407468 98.428 176.6211
195.816225 98.451 177.0370
197.235190 98.476 177.4412
198.664438 98.503 177.8318
200.104042 98.532 178.2062
201.554078 98.564 178.5603
203.014622 98.600 178.8896
204.485750 98.638 179.1895
205.967538 98.681 179.4561
207.460064 98.726 179.6860
208.963405 98.776 179.8776
210.477640 98.828 -179.9695
212.002848 98.884 -179.8547
213.539108 98.943 -179.7757
215.086500 99.005 -179.7296
216.645105 99.070 -179.7130
218.215005 99.137 -179.7221
219.796281 99.206 -179.7535
221.389015 99.277 -179.8038
222.993292 99.350 -179.8703
224.609193 99.424 -179.9506
226.236804 99.498 179.9571
227.876209 99.573 179.8545
229.527494 99.647 179.7427
231.190745 99.722 179.6227
232.866048 99.795 179.4953
234.553491 99.868 179.3611
236.253163 99.940 179.2209
237.965150 100.011 179.0753
239.689544 100.080 178.9251
241.426433 100.148 178.7707
243.175909 100.214 178.6128
244.938062 100.278 178.4517
246.712984 100.339 178.2878
248.500768 100.398 178.1215
250.301507 100.454 177.9530
252.115295 100.508 177.7825
253.942226 100.559 177.6104
255.782396 100.608 177.4371
257.635901 100.654 177.2627
259.502837 100.699 177.0874
261.383301 100.743 176.9113
263.277392 100.784 176.7342
265.185209 100.823 176.5559
267.106850 100.861 176.3760
269.042417 100.897 176.1944
270.992009 100.929 176.0105
272.955729 100.959 175.8242
274.933678 100.985 175.6351
276.925961 101.008 175.4431
278.932681 101.026 175.2481
280.953942 101.039 175.0500
282.989850 101.047 174.8488
285.040511 101.050 174.6445
287.106032 101.048 174.4374
289.186521 101.041 174.2278
291.282086 101.028 174.0157
293.392836 101.011 173.8013
295.518881 100.990 173.5847
297.660333 100.964 173.3660
299.817302 100.935 173.1454
301.989902 100.903 172.9232
304.178245 100.868 172.6995
306.382446 100.832 172.4747
308.602620 100.795 172.2492
310.838882 100.757 172.0233
313.091348 100.720 171.7975
315.360137 100.683 171.5721
317.645367 100.648 171.3475
319.947156 100.615 171.1241
322.265625 100.585 170.9023
324.600895 100.558 170.6823
326.953086 100.534 170.4642
329.322323 100.514 170.2480
331.708729 100.499 170.0339
334.112427 100.488 169.8220
336.533543 100.481 169.6123
338.972204 100.478 169.4052
341.428536 100.480 169.2006
343.902668 100.486 168.9987
346.394729 100.496 168.7997
348.904848 100.509 168.6039
351.433156 100.524 168.4113
353.979786 100.542 168.2222
356.544869 100.559 168.0367
359.128540 100.577 167.8549
361.730934 100.594 167.6768
364.352185 100.608 167.5027
366.992431 100.620 167.3325
369.651810 100.628 167.1661
372.330459 100.632 167.0035
375.028519 100.631 166.8448
377.746130 100.625 166.6898
380.483434 100.613 166.5389
383.240574 100.596 166.3921
386.017693 100.574 166.2495
388.814937 100.547 166.1113
391.632450 100.516 165.9774
394.470380 100.482 165.8478
397.328875 100.445 165.7224
400.208084 100.408 165.6008
403.108157 100.370 165.4828
406.029245 100.334 165.3680
408.971500 100.300 165.2559
411.935076 100.270 165.1460
414.920127 100.243 165.0378
417.926810 100.221 164.9308
420.955280 100.204 164.8242
424.005695 100.191 164.7177
427.078215 100.182 164.6104
430.173000 100.177 164.5020
433.290211 100.175 164.3917
436.430010 100.174 164.2791
439.592562 100.174 164.1639
442.778031 100.174 164.0456
445.986583 100.172 163.9241
449.218386 100.169 163.7992
452.473607 100.162 163.6710
455.752418 100.152 163.5398
459.054987 100.138 163.4060
462.381489 100.121 163.2704
465.732096 100.100 163.1339
469.106983 100.076 162.9975
472.506325 100.048 162.8628
475.930301 100.018 162.7310
479.379088 99.985 162.6036
482.852867 99.950 162.4823
486.351817 99.914 162.3683
489.876123 99.876 162.2628
493.425968 99.838 162.1665
497.001536 99.801 162.0797
500.603014 99.764 162.0021
504.230589 99.730 161.9327
507.884452 99.699 161.8705
511.564792 99.672 161.8143
515.271802 99.649 161.7634
519.005673 99.632 161.7174
522.766602 99.621 161.6764
526.554785 99.615 161.6407
530.370418 99.615 161.6115
534.213700 99.621 161.5895
538.084833 99.630 161.5760
541.984018 99.643 161.5721
545.911457 99.659 161.5786
549.867357 99.675 161.5963
553.851922 99.690 161.6256
557.865362 99.704 161.6669
561.907884 99.714 161.7202
565.979700 99.720 161.7854
570.081022 99.721 161.8622
574.212064 99.716 161.9501
578.373042 99.704 162.0484
582.564171 99.685 162.1561
586.785671 99.657 162.2720
591.037762 99.621 162.3948
595.320665 99.577 162.5229
599.634604 99.525 162.6550
603.979804 99.464 162.7893
608.356491 99.397 162.9243
612.764893 99.323 163.0587
617.205240 99.243 163.1913
621.677763 99.161 163.3211
626.182696 99.076 163.4473
630.720274 98.990 163.5691
635.290733 98.907 163.6861
639.894312 98.826 163.7978
644.531250 98.751 163.9039
649.201789 98.681 164.0042
653.906173 98.619 164.0984
658.644647 98.564 164.1862
663.417457 98.519 164.2675
668.224854 98.483 164.3420
673.067086 98.456 164.4094
677.944408 98.439 164.4693
682.857073 98.431 164.5214
687.805336 98.432 164.5652
692.789457 98.442 164.6003
697.809695 98.460 164.6265
702.866312 98.485 164.6435
707.959571 98.515 164.6511
713.089738 98.549 164.6494
718.257080 98.586 164.6382
723.461867 98.624 164.6178
728.704370 98.661 164.5883
733.984862 98.696 164.5502
739.303619 98.727 164.5037
744.660918 98.753 164.4497
750.057038 98.775 164.3889
755.492260 98.791 164.3225
760.966869 98.801 164.2516
766.481148 98.806 164.1774
772.035387 98.806 164.1013
777.629873 98.802 164.0246
783.264900 98.793 163.9487
788.940760 98.779 163.8751
794.657750 98.760 163.8051
800.416168 98.735 163.7401
806.216313 98.703 163.6815
812.058489 98.665 163.6304
817.943000 98.618 163.5881
823.870152 98.563 163.5555
829.840255 98.499 163.5335
835.853619 98.427 163.5227
841.910559 98.349 163.5236
848.011390 98.265 163.5367
854.156430 98.178 163.5620
860.346000 98.090 163.5992
866.580422 98.005 163.6478
872.860020 97.924 163.7066
879.185124 97.851 163.7738
885.556062 97.788 163.8472
891.973166 97.737 163.9237
898.436771 97.699 163.9997
904.947215 97.675 164.0708
911.504835 97.664 164.1322
918.109975 97.664 164.1788
924.762978 97.675 164.2058
931.464192 97.694 164.2092
938.213966 97.717 164.1866
945.012651 97.742 164.1378
951.860602 97.765 164.0654
958.758176 97.784 163.9753
965.705733 97.796 163.8763
972.703635 97.800 163.7800
979.752246 97.795 163.6992
986.851935 97.780 163.6474
994.003071 97.758 163.6370
1001.206027 97.728 163.6787
1008.461179 97.694 163.7816
1015.768904 97.658 163.9527
1023.129584 97.624 164.1969
1030.543603 97.595 164.5172
1038.011347 97.575 164.9145
1045.533205 97.567 165.3865
1053.109569 97.575 165.9275
1060.740836 97.603 166.5264
1068.427401 97.652 167.1664
1076.169666 97.725 167.8240
1083.968035 97.821 168.4691
1091.822915 97.938 169.0677
1099.734713 98.072 169.5843
1107.703844 98.219 169.9868
1115.730723 98.370 170.2510
1123.815768 98.520 170.3638
1131.959400 98.660 170.3254
1140.162045 98.787 170.1483
1148.424129 98.895 169.8552
1156.746083 98.982 169.4752
1165.128342 99.047 169.0396
1173.571343 99.092 168.5781
1182.075524 99.119 168.1171
1190.641331 99.130 167.6772
1199.269209 99.130 167.2742
1207.959608 99.123 166.9179
1216.712981 99.111 166.6140
1225.529785 99.099 166.3641
1234.410479 99.089 166.1672
1243.355526 99.082 166.0202
1252.365393 99.081 165.9186
1261.440549 99.087 165.8571
1270.581467 99.099 165.8301
1279.788624 99.118 165.8320
1289.062500 99.143 165.8575
1298.403578 99.174 165.9019
1307.812346 99.208 165.9612
1317.289293 99.246 166.0324
1326.834914 99.285 166.1133
1336.449707 99.325 166.2024
1346.134173 99.365 166.2988
1355.888816 99.403 166.4019
1365.714145 99.441 166.5109
1375.610673 99.476 166.6251
1385.578915 99.508 166.7435
1395.619391 99.539 166.8647
1405.732624 99.566 166.9877
1415.919142 99.591 167.1109
1426.179476 99.614 167.2332
1436.514160 99.635 167.3534
1446.923734 99.653 167.4708
1457.408740 99.670 167.5847
1467.969724 99.685 167.6948
1478.607238 99.698 167.8008
1489.321836 99.709 167.9027
1500.114076 99.717 168.0006
1510.984521 99.723 168.0948
1521.933737 99.727 168.1854
1532.962297 99.727 168.2727
1544.070773 99.723 168.3568
1555.259747 99.717 168.4380
1566.529800 99.707 168.5163
1577.881521 99.694 168.5919
1589.315501 99.678 168.6649
1600.832336 99.661 168.7355
1612.432627 99.641 168.8038
1624.116978 99.621 168.8704
1635.886000 99.600 168.9353
1647.740304 99.579 168.9990
1659.680509 99.557 169.0620
1671.707238 99.535 169.1245
1683.821118 99.513 169.1868
1696.022780 99.490 169.2491
1708.312860 99.467 169.3116
1720.692000 99.444 169.3742
1733.160843 99.420 169.4372
1745.720041 99.396 169.5005
1758.370248 99.373 169.5642
1771.112124 99.351 169.6284
1783.946332 99.330 169.6932
1796.873543 99.310 169.7587
1809.894429 99.292 169.8251
1823.009670 99.276 169.8927
1836.219950 99.260 169.9620
1849.525956 99.245 170.0336
1862.928384 99.230 170.1081
1876.427931 99.214 170.1863
1890.025301 99.196 170.2692
1903.721204 99.176 170.3575
1917.516352 99.152 170.4521
1931.411466 99.125 170.5538
1945.407270 99.094 170.6633
1959.504493 99.060 170.7814
1973.703870 99.021 170.9085
1988.006142 98.980 171.0451
2002.412054 98.936 171.1917
2016.922357 98.891 171.3484
2031.537808 98.845 171.5155
2046.259169 98.799 171.6932
2061.087206 98.754 171.8814
2076.022694 98.712 172.0803
2091.066410 98.672 172.2896
2106.219139 98.636 172.5095
2121.481671 98.605 172.7401
2136.854802 98.578 172.9815
2152.339333 98.557 173.2338
2167.936071 98.542 173.4971
2183.645829 98.534 173.7716
2199.469427 98.533 174.0571
2215.407689 98.540 174.3534
2231.461446 98.555 174.6600
2247.631536 98.579 174.9761
2263.918800 98.611 175.3008
2280.324089 98.653 175.6325
2296.848258 98.703 175.9698
2313.492167 98.762 176.3108
2330.256685 98.829 176.6537
2347.142685 98.904 176.9966
2364.151049 98.985 177.3381
2381.282662 99.071 177.6767
2398.538418 99.162 178.0114
2415.919216 99.256 178.3414
2433.425962 99.351 178.6666
2451.059570 99.447 178.9873
2468.820958 99.543 179.3041
2486.711052 99.636 179.6180
2504.730786 99.727 179.9303
2522.881098 99.814 -179.7572
2541.162934 99.897 -179.4429
2559.577248 99.975 -179.1249
2578.125000 100.047 -178.8011
2596.807157 100.113 -178.4699
2615.624692 100.173 -178.1294
2634.578586 100.227 -177.7782
2653.669829 100.275 -177.4153
2672.899414 100.317 -177.0402
2692.268345 100.354 -176.6528
2711.777632 100.386 -176.2543
2731.428290 100.414 -175.8465
2751.221345 100.438 -175.4323
2771.157829 100.459 -175.0154
2791.238781 100.477 -174.5998
2811.465248 100.492 -174.1900
2831.838284 100.505 -173.7900
2852.358952 100.516 -173.4030
2873.028321 100.524 -173.0312
2893.847468 100.529 -172.6760
2914.817480 100.531 -172.3372
2935.939449 100.530 -172.0140
2957.214476 100.525 -171.7046
2978.643672 100.517 -171.4065
3000.228152 100.505 -171.1167
3021.969041 100.491 -170.8320
3043.867475 100.473 -170.5493
3065.924593 100.454 -170.2657
3088.141547 100.432 -169.9784
3110.519493 100.409 -169.6855
3133.059600 100.385 -169.3853
3155.763041 100.361 -169.0765
