* Measurement data measured by REW V5.31.3
* Source: EXCL: Headset (USB-C to 3.5mm Headphone Jack Adapter), MICROPHONE (Master Volume), 0, volume: 0.260
* Format: 256k Log Swept Sine, 1 sweep at -12.0 dBFS with no timing reference
* Dated: Mar 5, 2025 10:58:06 AM
* REW Settings:
*  C-weighting compensation: Off
*  Target level: 75.0 dB
* Note: ; 
* Measurement: Ouroboros Reprint R10
* Smoothing: 1/6 octave
* Frequency Step: 96 ppo
* Start Frequency: 20.0 Hz
*
* Freq(Hz) SPL(dB) Phase(degrees)
20.141602 97.830 -116.8237
20.287556 97.817 -117.0899
20.434568 97.800 -117.4492
20.582645 97.778 -117.8933
20.731796 97.754 -118.4128
20.882027 97.727 -118.9966
21.033346 97.699 -119.6331
21.185763 97.670 -120.3101
21.339284 97.641 -121.0156
21.493917 97.614 -121.7380
21.649671 97.587 -122.4664
21.806553 97.563 -123.1913
21.964572 97.539 -123.9047
22.123737 97.517 -124.6005
22.284054 97.496 -125.2743
22.445534 97.473 -125.9235
22.608183 97.449 -126.5477
22.772012 97.422 -127.1478
22.937027 97.390 -127.7261
23.103238 97.353 -128.2863
23.270654 97.308 -128.8327
23.439282 97.256 -129.3697
23.609133 97.196 -129.9023
23.780215 97.127 -130.4345
23.952536 97.051 -130.9702
24.126106 96.967 -131.5117
24.300934 96.879 -132.0605
24.477028 96.787 -132.6163
24.654399 96.695 -133.1774
24.833055 96.605 -133.7404
25.013005 96.521 -134.3005
25.194260 96.445 -134.8520
25.376828 96.381 -135.3884
25.560719 96.330 -135.9030
25.745942 96.294 -136.3895
25.932508 96.274 -136.8424
26.120426 96.270 -137.2580
26.309705 96.280 -137.6339
26.500356 96.302 -137.9701
26.692388 96.335 -138.2686
26.885812 96.374 -138.5334
27.080638 96.418 -138.7705
27.276876 96.462 -138.9874
27.474535 96.505 -139.1928
27.673627 96.543 -139.3963
27.874161 96.574 -139.6074
28.076149 96.598 -139.8353
28.279600 96.612 -140.0880
28.484526 96.616 -140.3717
28.690937 96.610 -140.6905
28.898843 96.594 -141.0457
29.108256 96.568 -141.4358
29.319186 96.535 -141.8568
29.531645 96.495 -142.3024
29.745644 96.449 -142.7646
29.961193 96.400 -143.2343
30.178304 96.348 -143.7023
30.396989 96.295 -144.1596
30.617258 96.241 -144.5983
30.839123 96.188 -145.0119
31.062596 96.134 -145.3954
31.287688 96.080 -145.7456
31.514412 96.026 -146.0612
31.742778 95.972 -146.3431
31.972800 95.919 -146.5940
32.204488 95.866 -146.8188
32.437855 95.814 -147.0238
32.672913 95.765 -147.2167
32.909674 95.719 -147.4051
33.148151 95.676 -147.5959
33.388356 95.637 -147.7943
33.630302 95.602 -148.0028
33.874001 95.569 -148.2213
34.119466 95.540 -148.4471
34.366710 95.513 -148.6761
34.615745 95.489 -148.9035
34.866585 95.466 -149.1251
35.119243 95.444 -149.3377
35.373731 95.423 -149.5396
35.630064 95.402 -149.7294
35.888254 95.382 -149.9059
36.148315 95.360 -150.0669
36.410261 95.339 -150.2086
36.674104 95.316 -150.3259
36.939860 95.295 -150.4123
37.207542 95.274 -150.4615
37.477163 95.254 -150.4681
37.748738 95.238 -150.4284
38.022281 95.223 -150.3411
38.297806 95.212 -150.2071
38.575327 95.201 -150.0300
38.854860 95.192 -149.8152
39.136419 95.182 -149.5706
39.420017 95.171 -149.3060
39.705671 95.158 -149.0332
39.993395 95.142 -148.7653
40.283203 95.126 -148.5159
40.575112 95.108 -148.2974
40.869136 95.091 -148.1197
41.165290 95.076 -147.9890
41.463591 95.066 -147.9073
41.764053 95.062 -147.8722
42.066693 95.066 -147.8780
42.371525 95.081 -147.9165
42.678567 95.105 -147.9783
42.987834 95.138 -148.0538
43.299341 95.180 -148.1349
43.613106 95.229 -148.2153
43.929145 95.281 -148.2915
44.247473 95.335 -148.3633
44.568109 95.390 -148.4337
44.891068 95.444 -148.5082
45.216367 95.497 -148.5934
45.544023 95.549 -148.6956
45.874054 95.599 -148.8187
46.206476 95.649 -148.9637
46.541307 95.700 -149.1281
46.878565 95.752 -149.3075
47.218266 95.805 -149.4965
47.560429 95.861 -149.6908
47.905072 95.918 -149.8883
48.252212 95.977 -150.0895
48.601867 96.037 -150.2973
48.954056 96.096 -150.5161
49.308798 96.154 -150.7504
49.666109 96.211 -151.0041
50.026010 96.267 -151.2792
50.388520 96.321 -151.5760
50.753656 96.373 -151.8925
51.121437 96.424 -152.2250
51.491884 96.473 -152.5688
51.865016 96.521 -152.9190
52.240851 96.568 -153.2721
52.619410 96.613 -153.6259
53.000712 96.656 -153.9802
53.384777 96.698 -154.3360
53.771625 96.737 -154.6951
54.161276 96.775 -155.0586
54.553751 96.810 -155.4270
54.949070 96.843 -155.7995
55.347254 96.874 -156.1747
55.748323 96.903 -156.5508
56.152298 96.930 -156.9259
56.559201 96.956 -157.2987
56.969052 96.982 -157.6685
57.381873 97.008 -158.0351
57.797686 97.035 -158.3999
58.216512 97.063 -158.7650
58.638373 97.092 -159.1339
59.063291 97.121 -159.5102
59.491288 97.151 -159.8976
59.922386 97.181 -160.2980
60.356608 97.211 -160.7121
60.793977 97.239 -161.1387
61.234515 97.266 -161.5761
61.678246 97.292 -162.0220
62.125192 97.317 -162.4746
62.575377 97.341 -162.9327
63.028824 97.364 -163.3950
63.485557 97.386 -163.8607
63.945599 97.405 -164.3295
64.408975 97.424 -164.8008
64.875709 97.440 -165.2745
65.345825 97.454 -165.7506
65.819348 97.467 -166.2290
66.296302 97.477 -166.7098
66.776713 97.486 -167.1928
67.260604 97.494 -167.6780
67.748002 97.500 -168.1653
68.238932 97.505 -168.6544
68.733420 97.508 -169.1450
69.231490 97.509 -169.6363
69.733170 97.509 -170.1277
70.238485 97.507 -170.6184
70.747463 97.504 -171.1075
71.260128 97.499 -171.5944
71.776508 97.493 -172.0789
72.296630 97.484 -172.5603
72.820521 97.475 -173.0384
73.348209 97.464 -173.5125
73.879720 97.452 -173.9817
74.415083 97.440 -174.4453
74.954326 97.426 -174.9026
75.497475 97.412 -175.3532
76.044561 97.397 -175.7967
76.595612 97.383 -176.2330
77.150655 97.368 -176.6621
77.709720 97.353 -177.0844
78.272837 97.338 -177.5002
78.840034 97.324 -177.9099
79.411342 97.308 -178.3140
79.986789 97.293 -178.7129
80.566406 97.277 -179.1069
81.150224 97.261 -179.4966
81.738272 97.244 -179.8821
82.330581 97.226 179.7358
82.927182 97.209 179.3569
83.528107 97.191 178.9805
84.133386 97.173 178.6061
84.743051 97.156 178.2334
85.357134 97.138 177.8618
85.975667 97.122 177.4910
86.598682 97.105 177.1207
87.226212 97.090 176.7506
87.858289 97.076 176.3807
88.494946 97.062 176.0112
89.136217 97.050 175.6421
89.782135 97.039 175.2738
90.432733 97.028 174.9064
91.088046 97.019 174.5396
91.748108 97.010 174.1731
92.412952 97.001 173.8061
93.082615 96.992 173.4379
93.757130 96.982 173.0677
94.436533 96.971 172.6946
95.120859 96.960 172.3181
95.810144 96.946 171.9379
96.504423 96.930 171.5536
97.203734 96.912 171.1656
97.908112 96.890 170.7743
98.617595 96.866 170.3802
99.332219 96.838 169.9839
100.052021 96.808 169.5860
100.777039 96.775 169.1868
101.507311 96.740 168.7867
102.242875 96.703 168.3859
102.983769 96.665 167.9849
103.730032 96.626 167.5840
104.481702 96.587 167.1838
105.238820 96.547 166.7853
106.001424 96.508 166.3892
106.769554 96.469 165.9963
107.543250 96.431 165.6074
108.322553 96.394 165.2228
109.107503 96.357 164.8423
109.898141 96.320 164.4658
110.694508 96.284 164.0928
111.496646 96.247 163.7228
112.304596 96.211 163.3551
113.118402 96.173 162.9891
113.938104 96.134 162.6243
114.763747 96.094 162.2606
115.595372 96.052 161.8982
116.433024 96.008 161.5376
117.276746 95.962 161.1795
118.126581 95.914 160.8253
118.982575 95.864 160.4763
119.844772 95.813 160.1341
120.713217 95.760 159.7999
121.587954 95.705 159.4740
122.469031 95.650 159.1563
123.356492 95.594 158.8461
124.250384 95.538 158.5427
125.150753 95.481 158.2457
126.057647 95.425 157.9550
126.971113 95.368 157.6705
127.891198 95.312 157.3928
128.817950 95.256 157.1219
129.751418 95.200 156.8582
130.691651 95.145 156.6020
131.638696 95.090 156.3535
132.592604 95.036 156.1129
133.553425 94.981 155.8806
134.521208 94.926 155.6570
135.496004 94.870 155.4421
136.477864 94.813 155.2361
137.466839 94.754 155.0392
138.462981 94.693 154.8513
139.466340 94.630 154.6727
140.476971 94.563 154.5034
141.494925 94.494 154.3439
142.520256 94.422 154.1946
143.553016 94.347 154.0559
144.593260 94.269 153.9283
145.641043 94.189 153.8123
146.696418 94.108 153.7079
147.759441 94.025 153.6154
148.830166 93.942 153.5345
149.908651 93.859 153.4650
150.994951 93.776 153.4066
152.089123 93.695 153.3589
153.191223 93.614 153.3216
154.301310 93.535 153.2945
155.419441 93.458 153.2775
156.545674 93.382 153.2710
157.680069 93.309 153.2753
158.822683 93.236 153.2909
159.973578 93.165 153.3181
161.132813 93.095 153.3573
162.300447 93.026 153.4089
163.476543 92.958 153.4732
164.661162 92.890 153.5508
165.854364 92.822 153.6420
167.056213 92.755 153.7466
168.266772 92.688 153.8645
169.486102 92.622 153.9950
170.714268 92.556 154.1374
171.951334 92.491 154.2910
173.197364 92.428 154.4551
174.452424 92.365 154.6294
175.716578 92.302 154.8134
176.989893 92.241 155.0065
178.272434 92.180 155.2085
179.564270 92.119 155.4191
180.865467 92.059 155.6381
182.176092 91.999 155.8655
183.496216 91.939 156.1011
184.825905 91.880 156.3447
186.165229 91.821 156.5961
187.514259 91.763 156.8548
188.873065 91.704 157.1199
190.241717 91.645 157.3905
191.620287 91.587 157.6657
193.008847 91.528 157.9447
194.407468 91.469 158.2266
195.816225 91.410 158.5108
197.235190 91.350 158.7964
198.664438 91.291 159.0826
200.104042 91.231 159.3684
201.554078 91.172 159.6528
203.014622 91.114 159.9349
204.485750 91.057 160.2140
205.967538 91.003 160.4894
207.460064 90.951 160.7611
208.963405 90.902 161.0293
210.477640 90.858 161.2946
212.002848 90.818 161.5576
213.539108 90.784 161.8189
215.086500 90.755 162.0789
216.645105 90.732 162.3379
218.215005 90.716 162.5956
219.796281 90.706 162.8519
221.389015 90.702 163.1062
222.993292 90.703 163.3582
224.609193 90.710 163.6073
226.236804 90.721 163.8529
227.876209 90.737 164.0945
229.527494 90.756 164.3316
231.190745 90.778 164.5638
232.866048 90.803 164.7907
234.553491 90.830 165.0120
236.253163 90.859 165.2276
237.965150 90.890 165.4375
239.689544 90.921 165.6418
241.426433 90.953 165.8406
243.175909 90.985 166.0344
244.938062 91.017 166.2235
246.712984 91.048 166.4087
248.500768 91.078 166.5906
250.301507 91.107 166.7699
252.115295 91.134 166.9471
253.942226 91.161 167.1227
255.782396 91.186 167.2970
257.635901 91.210 167.4700
259.502837 91.233 167.6419
261.383301 91.255 167.8126
263.277392 91.277 167.9821
265.185209 91.298 168.1508
267.106850 91.318 168.3187
269.042417 91.337 168.4861
270.992009 91.355 168.6533
272.955729 91.371 168.8205
274.933678 91.386 168.9881
276.925961 91.398 169.1564
278.932681 91.408 169.3250
280.953942 91.415 169.4935
282.989850 91.419 169.6610
285.040511 91.419 169.8264
287.106032 91.416 169.9884
289.186521 91.410 170.1460
291.282086 91.401 170.2980
293.392836 91.390 170.4433
295.518881 91.376 170.5809
297.660333 91.360 170.7097
299.817302 91.342 170.8287
301.989902 91.324 170.9370
304.178245 91.305 171.0338
306.382446 91.286 171.1185
308.602620 91.268 171.1910
310.838882 91.252 171.2510
313.091348 91.236 171.2986
315.360137 91.223 171.3342
317.645367 91.213 171.3581
319.947156 91.205 171.3710
322.265625 91.200 171.3737
324.600895 91.199 171.3674
326.953086 91.202 171.3532
329.322323 91.209 171.3321
331.708729 91.219 171.3053
334.112427 91.234 171.2738
336.533543 91.253 171.2386
338.972204 91.276 171.2007
341.428536 91.303 171.1609
343.902668 91.334 171.1200
346.394729 91.368 171.0787
348.904848 91.405 171.0373
351.433156 91.445 170.9957
353.979786 91.487 170.9536
356.544869 91.529 170.9106
359.128540 91.572 170.8659
361.730934 91.615 170.8189
364.352185 91.656 170.7689
366.992431 91.695 170.7153
369.651810 91.730 170.6577
372.330459 91.762 170.5956
375.028519 91.790 170.5286
377.746130 91.812 170.4561
380.483434 91.830 170.3780
383.240574 91.842 170.2939
386.017693 91.849 170.2036
388.814937 91.852 170.1074
391.632450 91.850 170.0053
394.470380 91.845 169.8975
397.328875 91.836 169.7843
400.208084 91.826 169.6661
403.108157 91.816 169.5432
406.029245 91.805 169.4157
408.971500 91.796 169.2839
411.935076 91.789 169.1479
414.920127 91.785 169.0077
417.926810 91.783 168.8634
420.955280 91.785 168.7150
424.005695 91.789 168.5630
427.078215 91.797 168.4077
430.173000 91.806 168.2499
433.290211 91.816 168.0907
436.430010 91.827 167.9308
439.592562 91.837 167.7715
442.778031 91.845 167.6134
445.986583 91.851 167.4576
449.218386 91.854 167.3045
452.473607 91.853 167.1547
455.752418 91.848 167.0085
459.054987 91.840 166.8662
462.381489 91.828 166.7281
465.732096 91.812 166.5946
469.106983 91.793 166.4661
472.506325 91.771 166.3427
475.930301 91.746 166.2249
479.379088 91.719 166.1129
482.852867 91.690 166.0071
486.351817 91.660 165.9082
489.876123 91.628 165.8167
493.425968 91.596 165.7336
497.001536 91.563 165.6596
500.603014 91.532 165.5956
504.230589 91.501 165.5422
507.884452 91.474 165.5000
511.564792 91.450 165.4694
515.271802 91.431 165.4504
519.005673 91.417 165.4435
522.766602 91.409 165.4484
526.554785 91.408 165.4655
530.370418 91.413 165.4944
534.213700 91.424 165.5352
538.084833 91.441 165.5877
541.984018 91.463 165.6513
545.911457 91.489 165.7253
549.867357 91.517 165.8090
553.851922 91.546 165.9014
557.865362 91.574 166.0015
561.907884 91.600 166.1082
565.979700 91.623 166.2206
570.081022 91.641 166.3374
574.212064 91.654 166.4576
578.373042 91.660 166.5799
582.564171 91.659 166.7030
586.785671 91.651 166.8256
591.037762 91.634 166.9464
595.320665 91.608 167.0640
599.634604 91.574 167.1773
603.979804 91.531 167.2852
608.356491 91.481 167.3868
612.764893 91.424 167.4813
617.205240 91.361 167.5681
621.677763 91.294 167.6464
626.182696 91.224 167.7158
630.720274 91.154 167.7758
635.290733 91.084 167.8261
639.894312 91.017 167.8668
644.531250 90.954 167.8978
649.201789 90.896 167.9196
653.906173 90.844 167.9325
658.644647 90.798 167.9371
663.417457 90.760 167.9339
668.224854 90.730 167.9233
673.067086 90.707 167.9058
677.944408 90.692 167.8817
682.857073 90.685 167.8517
687.805336 90.685 167.8163
692.789457 90.692 167.7766
697.809695 90.706 167.7336
702.866312 90.724 167.6887
707.959571 90.747 167.6430
713.089738 90.772 167.5983
718.257080 90.799 167.5562
723.461867 90.826 167.5181
728.704370 90.852 167.4860
733.984862 90.875 167.4612
739.303619 90.894 167.4457
744.660918 90.909 167.4406
750.057038 90.919 167.4475
755.492260 90.924 167.4672
760.966869 90.925 167.5006
766.481148 90.923 167.5480
772.035387 90.918 167.6093
777.629873 90.911 167.6838
783.264900 90.902 167.7707
788.940760 90.892 167.8684
794.657750 90.880 167.9750
800.416168 90.865 168.0881
806.216313 90.849 168.2048
812.058489 90.829 168.3218
817.943000 90.805 168.4350
823.870152 90.776 168.5400
829.840255 90.743 168.6319
835.853619 90.706 168.7055
841.910559 90.664 168.7558
848.011390 90.619 168.7784
854.156430 90.571 168.7703
860.346000 90.521 168.7302
866.580422 90.471 168.6597
872.860020 90.421 168.5631
879.185124 90.373 168.4474
885.556062 90.328 168.3217
891.973166 90.288 168.1960
898.436771 90.252 168.0801
904.947215 90.223 167.9824
911.504835 90.201 167.9089
918.109975 90.187 167.8638
924.762978 90.180 167.8482
931.464192 90.180 167.8616
938.213966 90.186 167.9018
945.012651 90.198 167.9654
951.860602 90.213 168.0487
958.758176 90.232 168.1476
965.705733 90.252 168.2584
972.703635 90.273 168.3774
979.752246 90.293 168.5017
986.851935 90.313 168.6286
994.003071 90.331 168.7561
1001.206027 90.349 168.8828
1008.461179 90.366 169.0076
1015.768904 90.383 169.1301
1023.129584 90.401 169.2504
1030.543603 90.420 169.3689
1038.011347 90.443 169.4863
1045.533205 90.468 169.6038
1053.109569 90.498 169.7228
1060.740836 90.533 169.8452
1068.427401 90.572 169.9729
1076.169666 90.615 170.1083
1083.968035 90.662 170.2541
1091.822915 90.711 170.4131
1099.734713 90.762 170.5882
1107.703844 90.813 170.7828
1115.730723 90.863 170.9998
1123.815768 90.912 171.2424
1131.959400 90.959 171.5132
1140.162045 91.005 171.8138
1148.424129 91.051 172.1447
1156.746083 91.098 172.5038
1165.128342 91.149 172.8867
1173.571343 91.206 173.2849
1182.075524 91.272 173.6860
1190.641331 91.349 174.0732
1199.269209 91.438 174.4257
1207.959608 91.541 174.7207
1216.712981 91.656 174.9355
1225.529785 91.780 175.0505
1234.410479 91.911 175.0530
1243.355526 92.044 174.9395
1252.365393 92.174 174.7171
1261.440549 92.297 174.4030
1270.581467 92.411 174.0208
1279.788624 92.514 173.5977
1289.062500 92.606 173.1602
1298.403578 92.687 172.7316
1307.812346 92.758 172.3300
1317.289293 92.822 171.9680
1326.834914 92.878 171.6530
1336.449707 92.930 171.3877
1346.134173 92.978 171.1713
1355.888816 93.023 171.0005
1365.714145 93.065 170.8704
1375.610673 93.106 170.7754
1385.578915 93.145 170.7097
1395.619391 93.183 170.6678
1405.732624 93.220 170.6446
1415.919142 93.255 170.6355
1426.179476 93.290 170.6365
1436.514160 93.325 170.6442
1446.923734 93.359 170.6556
1457.408740 93.393 170.6681
1467.969724 93.426 170.6794
1478.607238 93.459 170.6877
1489.321836 93.491 170.6912
1500.114076 93.523 170.6886
1510.984521 93.553 170.6788
1521.933737 93.581 170.6607
1532.962297 93.607 170.6337
1544.070773 93.631 170.5970
1555.259747 93.652 170.5504
1566.529800 93.671 170.4933
1577.881521 93.687 170.4255
1589.315501 93.701 170.3468
1600.832336 93.713 170.2571
1612.432627 93.724 170.1562
1624.116978 93.734 170.0444
1635.886000 93.744 169.9218
1647.740304 93.753 169.7886
1659.680509 93.763 169.6451
1671.707238 93.772 169.4916
1683.821118 93.780 169.3284
1696.022780 93.788 169.1557
1708.312860 93.795 168.9738
1720.692000 93.802 168.7831
1733.160843 93.808 168.5839
1745.720041 93.814 168.3765
1758.370248 93.820 168.1609
1771.112124 93.827 167.9376
1783.946332 93.834 167.7064
1796.873543 93.843 167.4676
1809.894429 93.853 167.2213
1823.009670 93.864 166.9676
1836.219950 93.876 166.7066
1849.525956 93.887 166.4385
1862.928384 93.898 166.1636
1876.427931 93.906 165.8821
1890.025301 93.913 165.5943
1903.721204 93.915 165.3005
1917.516352 93.914 165.0013
1931.411466 93.908 164.6972
1945.407270 93.897 164.3887
1959.504493 93.881 164.0767
1973.703870 93.860 163.7619
1988.006142 93.834 163.4453
2002.412054 93.804 163.1280
2016.922357 93.770 162.8112
2031.537808 93.734 162.4963
2046.259169 93.695 162.1849
2061.087206 93.656 161.8786
2076.022694 93.617 161.5788
2091.066410 93.579 161.2868
2106.219139 93.542 161.0038
2121.481671 93.508 160.7301
2136.854802 93.477 160.4659
2152.339333 93.451 160.2106
2167.936071 93.429 159.9631
2183.645829 93.413 159.7218
2199.469427 93.402 159.4848
2215.407689 93.398 159.2499
2231.461446 93.400 159.0146
2247.631536 93.408 158.7767
2263.918800 93.423 158.5340
2280.324089 93.445 158.2849
2296.848258 93.471 158.0286
2313.492167 93.503 157.7648
2330.256685 93.539 157.4941
2347.142685 93.578 157.2177
2364.151049 93.619 156.9376
2381.282662 93.661 156.6561
2398.538418 93.704 156.3760
2415.919216 93.745 156.1001
2433.425962 93.786 155.8311
2451.059570 93.824 155.5713
2468.820958 93.859 155.3227
2486.711052 93.890 155.0867
2504.730786 93.916 154.8639
2522.881098 93.938 154.6546
2541.162934 93.953 154.4587
2559.577248 93.963 154.2757
2578.125000 93.966 154.1051
2596.807157 93.961 153.9465
2615.624692 93.949 153.7997
2634.578586 93.928 153.6650
2653.669829 93.899 153.5432
2672.899414 93.861 153.4355
2692.268345 93.814 153.3437
2711.777632 93.759 153.2692
2731.428290 93.695 153.2139
2751.221345 93.624 153.1791
2771.157829 93.545 153.1657
2791.238781 93.459 153.1744
2811.465248 93.367 153.2054
2831.838284 93.268 153.2589
2852.358952 93.164 153.3346
2873.028321 93.055 153.4320
2893.847468 92.941 153.5507
2914.817480 92.823 153.6899
2935.939449 92.701 153.8491
2957.214476 92.575 154.0275
2978.643672 92.446 154.2244
3000.228152 92.314 154.4393
3021.969041 92.179 154.6718
3043.867475 92.041 154.9219
3065.924593 91.902 155.1896
3088.141547 91.761 155.4756
3110.519493 91.619 155.7810
3133.059600 91.475 156.1075
3155.763041 91.330 156.4573
3178.631001 91.184 156.8330
3201.664672 91.037 157.2381
3224.865254 90.889 157.6760
3248.233957 90.741 158.1509
3271.771999 90.594 158.6671
3295.480608 90.447 159.2289
3319.361019 90.303 159.8406
3343.414477 90.161 160.5064
3367.642236 90.024 161.2299
3392.045560 89.892 162.0149
3416.625721 89.766 162.8648
3441.383999 89.649 163.7829
3466.321686 89.542 164.7726
3491.440082 89.446 165.8370
3516.740496 89.362 166.9788
