* Measurement data measured by REW V5.31.3
* Source: EXCL: Headset (USB-C to 3.5mm Headphone Jack Adapter), MICROPHONE (Master Volume), 0, volume: 0.260
* Format: 256k Log Swept Sine, 1 sweep at -12.0 dBFS with no timing reference
* Dated: Mar 5, 2025 10:52:51 AM
* REW Settings:
*  C-weighting compensation: Off
*  Target level: 75.0 dB
* Note: ; 
* Measurement: Ouroboros Reprint L2
* Smoothing: 1/6 octave
* Frequency Step: 96 ppo
* Start Frequency: 20.0 Hz
*
* Freq(Hz) SPL(dB) Phase(degrees)
20.141602 98.523 -103.3122
20.287556 98.507 -103.5209
20.434568 98.485 -103.8032
20.582645 98.459 -104.1541
20.731796 98.429 -104.5681
20.882027 98.397 -105.0399
21.033346 98.363 -105.5641
21.185763 98.329 -106.1352
21.339284 98.294 -106.7478
21.493917 98.260 -107.3955
21.649671 98.227 -108.0713
21.806553 98.194 -108.7672
21.964572 98.162 -109.4746
22.123737 98.131 -110.1841
22.284054 98.102 -110.8866
22.445534 98.074 -111.5733
22.608183 98.047 -112.2368
22.772012 98.023 -112.8716
22.937027 98.001 -113.4744
23.103238 97.983 -114.0451
23.270654 97.968 -114.5860
23.439282 97.956 -115.1025
23.609133 97.947 -115.6017
23.780215 97.941 -116.0923
23.952536 97.937 -116.5833
24.126106 97.934 -117.0830
24.300934 97.931 -117.5984
24.477028 97.926 -118.1343
24.654399 97.920 -118.6928
24.833055 97.911 -119.2736
25.013005 97.899 -119.8739
25.194260 97.885 -120.4887
25.376828 97.867 -121.1119
25.560719 97.849 -121.7364
25.745942 97.829 -122.3555
25.932508 97.811 -122.9628
26.120426 97.795 -123.5534
26.309705 97.782 -124.1238
26.500356 97.774 -124.6727
26.692388 97.771 -125.2004
26.885812 97.773 -125.7092
27.080638 97.781 -126.2030
27.276876 97.794 -126.6870
27.474535 97.811 -127.1674
27.673627 97.832 -127.6509
27.874161 97.854 -128.1444
28.076149 97.876 -128.6543
28.279600 97.897 -129.1861
28.484526 97.915 -129.7441
28.690937 97.928 -130.3309
28.898843 97.935 -130.9471
29.108256 97.936 -131.5911
29.319186 97.929 -132.2593
29.531645 97.914 -132.9461
29.745644 97.892 -133.6444
29.961193 97.862 -134.3459
30.178304 97.826 -135.0418
30.396989 97.784 -135.7230
30.617258 97.738 -136.3811
30.839123 97.689 -137.0083
31.062596 97.637 -137.5977
31.287688 97.584 -138.1440
31.514412 97.531 -138.6431
31.742778 97.480 -139.0924
31.972800 97.431 -139.4911
32.204488 97.385 -139.8404
32.437855 97.344 -140.1432
32.672913 97.309 -140.4049
32.909674 97.280 -140.6322
33.148151 97.259 -140.8336
33.388356 97.246 -141.0182
33.630302 97.239 -141.1949
33.874001 97.240 -141.3720
34.119466 97.246 -141.5558
34.366710 97.256 -141.7509
34.615745 97.269 -141.9595
34.866585 97.282 -142.1823
35.119243 97.295 -142.4184
35.373731 97.306 -142.6663
35.630064 97.314 -142.9240
35.888254 97.316 -143.1897
36.148315 97.313 -143.4614
36.410261 97.303 -143.7372
36.674104 97.286 -144.0147
36.939860 97.262 -144.2912
37.207542 97.230 -144.5639
37.477163 97.191 -144.8295
37.748738 97.146 -145.0852
38.022281 97.096 -145.3286
38.297806 97.042 -145.5582
38.575327 96.985 -145.7733
38.854860 96.927 -145.9743
39.136419 96.868 -146.1618
39.420017 96.809 -146.3369
39.705671 96.751 -146.5005
39.993395 96.693 -146.6532
40.283203 96.635 -146.7957
40.575112 96.579 -146.9279
40.869136 96.524 -147.0503
41.165290 96.470 -147.1629
41.463591 96.418 -147.2665
41.764053 96.368 -147.3616
42.066693 96.321 -147.4493
42.371525 96.278 -147.5305
42.678567 96.239 -147.6058
42.987834 96.207 -147.6757
43.299341 96.181 -147.7403
43.613106 96.162 -147.7994
43.929145 96.150 -147.8527
44.247473 96.145 -147.8996
44.568109 96.148 -147.9395
44.891068 96.157 -147.9715
45.216367 96.172 -147.9947
45.544023 96.191 -148.0077
45.874054 96.214 -148.0093
46.206476 96.241 -147.9989
46.541307 96.270 -147.9767
46.878565 96.301 -147.9446
47.218266 96.335 -147.9059
47.560429 96.370 -147.8652
47.905072 96.407 -147.8282
48.252212 96.446 -147.8005
48.601867 96.485 -147.7870
48.954056 96.525 -147.7920
49.308798 96.565 -147.8184
49.666109 96.605 -147.8684
50.026010 96.646 -147.9432
50.388520 96.688 -148.0431
50.753656 96.732 -148.1677
51.121437 96.777 -148.3153
51.491884 96.825 -148.4828
51.865016 96.875 -148.6658
52.240851 96.927 -148.8593
52.619410 96.982 -149.0580
53.000712 97.037 -149.2574
53.384777 97.094 -149.4543
53.771625 97.150 -149.6475
54.161276 97.205 -149.8375
54.553751 97.258 -150.0262
54.949070 97.308 -150.2163
55.347254 97.354 -150.4106
55.748323 97.397 -150.6117
56.152298 97.437 -150.8217
56.559201 97.474 -151.0419
56.969052 97.507 -151.2729
57.381873 97.539 -151.5150
57.797686 97.570 -151.7684
58.216512 97.601 -152.0339
58.638373 97.633 -152.3129
59.063291 97.665 -152.6077
59.491288 97.700 -152.9209
59.922386 97.737 -153.2546
60.356608 97.777 -153.6094
60.793977 97.818 -153.9837
61.234515 97.861 -154.3739
61.678246 97.905 -154.7753
62.125192 97.948 -155.1831
62.575377 97.991 -155.5932
63.028824 98.032 -156.0031
63.485557 98.072 -156.4117
63.945599 98.109 -156.8192
64.408975 98.143 -157.2263
64.875709 98.174 -157.6343
65.345825 98.203 -158.0443
65.819348 98.229 -158.4575
66.296302 98.252 -158.8745
66.776713 98.274 -159.2959
67.260604 98.294 -159.7215
67.748002 98.313 -160.1509
68.238932 98.331 -160.5832
68.733420 98.349 -161.0175
69.231490 98.365 -161.4527
69.733170 98.382 -161.8883
70.238485 98.398 -162.3239
70.747463 98.413 -162.7595
71.260128 98.428 -163.1953
71.776508 98.443 -163.6316
72.296630 98.457 -164.0685
72.820521 98.471 -164.5061
73.348209 98.484 -164.9440
73.879720 98.496 -165.3823
74.415083 98.508 -165.8206
74.954326 98.520 -166.2589
75.497475 98.530 -166.6972
76.044561 98.540 -167.1354
76.595612 98.549 -167.5735
77.150655 98.556 -168.0113
77.709720 98.563 -168.4487
78.272837 98.567 -168.8855
78.840034 98.570 -169.3216
79.411342 98.572 -169.7565
79.986789 98.572 -170.1894
80.566406 98.571 -170.6194
81.150224 98.569 -171.0454
81.738272 98.566 -171.4667
82.330581 98.562 -171.8826
82.927182 98.557 -172.2933
83.528107 98.553 -172.6991
84.133386 98.548 -173.1009
84.743051 98.543 -173.4996
85.357134 98.539 -173.8962
85.975667 98.535 -174.2917
86.598682 98.532 -174.6865
87.226212 98.529 -175.0808
87.858289 98.528 -175.4746
88.494946 98.528 -175.8681
89.136217 98.528 -176.2614
89.782135 98.530 -176.6550
90.432733 98.533 -177.0495
91.088046 98.537 -177.4457
91.748108 98.542 -177.8442
92.412952 98.547 -178.2456
93.082615 98.552 -178.6506
93.757130 98.556 -179.0601
94.436533 98.559 -179.4749
95.120859 98.561 -179.8958
95.810144 98.560 179.6771
96.504423 98.558 179.2438
97.203734 98.552 178.8052
97.908112 98.544 178.3626
98.617595 98.533 177.9175
99.332219 98.519 177.4717
100.052021 98.503 177.0265
100.777039 98.484 176.5831
101.507311 98.464 176.1422
102.242875 98.442 175.7042
102.983769 98.420 175.2687
103.730032 98.396 174.8355
104.481702 98.372 174.4041
105.238820 98.348 173.9743
106.001424 98.323 173.5465
106.769554 98.297 173.1213
107.543250 98.271 172.6993
108.322553 98.246 172.2811
109.107503 98.220 171.8669
109.898141 98.194 171.4567
110.694508 98.169 171.0504
111.496646 98.144 170.6479
112.304596 98.118 170.2496
113.118402 98.093 169.8559
113.938104 98.066 169.4677
114.763747 98.039 169.0853
115.595372 98.010 168.7089
116.433024 97.980 168.3376
117.276746 97.948 167.9701
118.126581 97.914 167.6044
118.982575 97.879 167.2386
119.844772 97.842 166.8712
120.713217 97.804 166.5015
121.587954 97.765 166.1298
122.469031 97.724 165.7571
123.356492 97.684 165.3852
124.250384 97.643 165.0156
125.150753 97.603 164.6497
126.057647 97.563 164.2886
126.971113 97.523 163.9329
127.891198 97.485 163.5829
128.817950 97.447 163.2386
129.751418 97.410 162.9000
130.691651 97.374 162.5664
131.638696 97.338 162.2375
132.592604 97.303 161.9128
133.553425 97.268 161.5920
134.521208 97.232 161.2749
135.496004 97.196 160.9616
136.477864 97.158 160.6520
137.466839 97.119 160.3463
138.462981 97.079 160.0447
139.466340 97.036 159.7473
140.476971 96.990 159.4545
141.494925 96.942 159.1670
142.520256 96.892 158.8853
143.553016 96.838 158.6097
144.593260 96.782 158.3408
145.641043 96.724 158.0782
146.696418 96.664 157.8221
147.759441 96.602 157.5720
148.830166 96.540 157.3275
149.908651 96.477 157.0881
150.994951 96.414 156.8535
152.089123 96.352 156.6233
153.191223 96.290 156.3971
154.301310 96.229 156.1746
155.419441 96.169 155.9553
156.545674 96.109 155.7393
157.680069 96.050 155.5268
158.822683 95.992 155.3183
159.973578 95.933 155.1144
161.132813 95.875 154.9161
162.300447 95.816 154.7242
163.476543 95.757 154.5394
164.661162 95.697 154.3627
165.854364 95.637 154.1947
167.056213 95.576 154.0359
168.266772 95.514 153.8870
169.486102 95.452 153.7480
170.714268 95.389 153.6189
171.951334 95.325 153.4996
173.197364 95.260 153.3899
174.452424 95.195 153.2896
175.716578 95.129 153.1985
176.989893 95.062 153.1169
178.272434 94.994 153.0448
179.564270 94.924 152.9825
180.865467 94.854 152.9304
182.176092 94.782 152.8885
183.496216 94.709 152.8572
184.825905 94.634 152.8363
186.165229 94.559 152.8260
187.514259 94.482 152.8260
188.873065 94.404 152.8364
190.241717 94.324 152.8568
191.620287 94.244 152.8869
193.008847 94.162 152.9266
194.407468 94.079 152.9756
195.816225 93.995 153.0334
197.235190 93.910 153.0997
198.664438 93.823 153.1741
200.104042 93.736 153.2567
201.554078 93.648 153.3471
203.014622 93.560 153.4455
204.485750 93.473 153.5516
205.967538 93.386 153.6652
207.460064 93.302 153.7856
208.963405 93.219 153.9122
210.477640 93.141 154.0445
212.002848 93.066 154.1819
213.539108 92.996 154.3241
215.086500 92.930 154.4708
216.645105 92.871 154.6220
218.215005 92.817 154.7776
219.796281 92.769 154.9377
221.389015 92.726 155.1028
222.993292 92.690 155.2733
224.609193 92.658 155.4494
226.236804 92.631 155.6317
227.876209 92.609 155.8206
229.527494 92.591 156.0163
231.190745 92.577 156.2191
232.866048 92.565 156.4289
234.553491 92.557 156.6455
236.253163 92.550 156.8685
237.965150 92.546 157.0972
239.689544 92.544 157.3306
241.426433 92.543 157.5679
243.175909 92.543 157.8082
244.938062 92.544 158.0505
246.712984 92.546 158.2940
248.500768 92.549 158.5376
250.301507 92.552 158.7804
252.115295 92.555 159.0215
253.942226 92.559 159.2601
255.782396 92.563 159.4957
257.635901 92.567 159.7283
259.502837 92.572 159.9578
261.383301 92.577 160.1846
263.277392 92.582 160.4092
265.185209 92.587 160.6321
267.106850 92.592 160.8536
269.042417 92.596 161.0736
270.992009 92.599 161.2917
272.955729 92.601 161.5072
274.933678 92.601 161.7188
276.925961 92.599 161.9256
278.932681 92.593 162.1265
280.953942 92.584 162.3207
282.989850 92.572 162.5080
285.040511 92.556 162.6884
287.106032 92.536 162.8622
289.186521 92.512 163.0305
291.282086 92.484 163.1937
293.392836 92.452 163.3530
295.518881 92.417 163.5087
297.660333 92.379 163.6613
299.817302 92.339 163.8113
301.989902 92.296 163.9587
304.178245 92.253 164.1039
306.382446 92.209 164.2472
308.602620 92.166 164.3887
310.838882 92.123 164.5287
313.091348 92.082 164.6676
315.360137 92.043 164.8055
317.645367 92.007 164.9426
319.947156 91.974 165.0792
322.265625 91.945 165.2153
324.600895 91.921 165.3509
326.953086 91.901 165.4860
329.322323 91.887 165.6201
331.708729 91.878 165.7532
334.112427 91.875 165.8848
336.533543 91.878 166.0148
338.972204 91.887 166.1429
341.428536 91.901 166.2690
343.902668 91.921 166.3932
346.394729 91.945 166.5156
348.904848 91.974 166.6362
351.433156 92.006 166.7554
353.979786 92.041 166.8736
356.544869 92.078 166.9912
359.128540 92.115 167.1085
361.730934 92.153 167.2255
364.352185 92.189 167.3421
366.992431 92.223 167.4578
369.651810 92.255 167.5718
372.330459 92.283 167.6834
375.028519 92.308 167.7919
377.746130 92.328 167.8965
380.483434 92.344 167.9968
383.240574 92.355 168.0925
386.017693 92.362 168.1832
388.814937 92.365 168.2687
391.632450 92.365 168.3489
394.470380 92.362 168.4236
397.328875 92.358 168.4926
400.208084 92.353 168.5555
403.108157 92.349 168.6121
406.029245 92.347 168.6620
408.971500 92.347 168.7049
411.935076 92.351 168.7403
414.920127 92.359 168.7676
417.926810 92.371 168.7864
420.955280 92.388 168.7963
424.005695 92.409 168.7973
427.078215 92.433 168.7892
430.173000 92.461 168.7722
433.290211 92.491 168.7464
436.430010 92.521 168.7123
439.592562 92.552 168.6703
442.778031 92.581 168.6213
445.986583 92.609 168.5660
449.218386 92.633 168.5054
452.473607 92.654 168.4407
455.752418 92.671 168.3727
459.054987 92.684 168.3023
462.381489 92.693 168.2302
465.732096 92.698 168.1571
469.106983 92.700 168.0838
472.506325 92.700 168.0109
475.930301 92.696 167.9391
479.379088 92.691 167.8692
482.852867 92.683 167.8015
486.351817 92.675 167.7365
489.876123 92.666 167.6743
493.425968 92.657 167.6151
497.001536 92.648 167.5588
500.603014 92.641 167.5055
504.230589 92.635 167.4553
507.884452 92.633 167.4083
511.564792 92.634 167.3649
515.271802 92.640 167.3255
519.005673 92.651 167.2905
522.766602 92.668 167.2602
526.554785 92.691 167.2349
530.370418 92.720 167.2149
534.213700 92.754 167.2000
538.084833 92.794 167.1901
541.984018 92.837 167.1848
545.911457 92.884 167.1837
549.867357 92.931 167.1860
553.851922 92.979 167.1910
557.865362 93.025 167.1980
561.907884 93.068 167.2059
565.979700 93.107 167.2139
570.081022 93.141 167.2208
574.212064 93.167 167.2256
578.373042 93.186 167.2275
582.564171 93.197 167.2256
586.785671 93.199 167.2195
591.037762 93.191 167.2089
595.320665 93.173 167.1937
599.634604 93.145 167.1743
603.979804 93.107 167.1509
608.356491 93.060 167.1243
612.764893 93.005 167.0950
617.205240 92.942 167.0640
621.677763 92.874 167.0319
626.182696 92.801 166.9995
630.720274 92.727 166.9677
635.290733 92.652 166.9372
639.894312 92.580 166.9086
644.531250 92.510 166.8821
649.201789 92.446 166.8581
653.906173 92.388 166.8362
658.644647 92.338 166.8160
663.417457 92.296 166.7966
668.224854 92.264 166.7770
673.067086 92.241 166.7558
677.944408 92.227 166.7316
682.857073 92.223 166.7029
687.805336 92.228 166.6685
692.789457 92.242 166.6272
697.809695 92.263 166.5786
702.866312 92.291 166.5225
707.959571 92.325 166.4594
713.089738 92.362 166.3901
718.257080 92.402 166.3159
723.461867 92.442 166.2376
728.704370 92.481 166.1565
733.984862 92.518 166.0733
739.303619 92.552 165.9888
744.660918 92.582 165.9035
750.057038 92.607 165.8176
755.492260 92.627 165.7314
760.966869 92.643 165.6452
766.481148 92.654 165.5593
772.035387 92.661 165.4740
777.629873 92.665 165.3900
783.264900 92.665 165.3079
788.940760 92.661 165.2284
794.657750 92.652 165.1523
800.416168 92.639 165.0805
806.216313 92.621 165.0138
812.058489 92.596 164.9528
817.943000 92.565 164.8981
823.870152 92.526 164.8500
829.840255 92.481 164.8086
835.853619 92.429 164.7731
841.910559 92.373 164.7423
848.011390 92.314 164.7134
854.156430 92.254 164.6826
860.346000 92.196 164.6449
866.580422 92.143 164.5939
872.860020 92.097 164.5224
879.185124 92.060 164.4233
885.556062 92.032 164.2899
891.973166 92.014 164.1170
898.436771 92.006 163.9023
904.947215 92.006 163.6467
911.504835 92.011 163.3547
918.109975 92.020 163.0342
924.762978 92.029 162.6956
931.464192 92.038 162.3508
938.213966 92.045 162.0115
945.012651 92.047 161.6884
951.860602 92.046 161.3900
958.758176 92.040 161.1228
965.705733 92.028 160.8909
972.703635 92.012 160.6964
979.752246 91.991 160.5397
986.851935 91.966 160.4200
994.003071 91.938 160.3359
1001.206027 91.907 160.2857
1008.461179 91.874 160.2676
1015.768904 91.840 160.2803
1023.129584 91.806 160.3226
1030.543603 91.775 160.3942
1038.011347 91.746 160.4952
1045.533205 91.721 160.6264
1053.109569 91.702 160.7897
1060.740836 91.688 160.9876
1068.427401 91.680 161.2234
1076.169666 91.680 161.5013
1083.968035 91.686 161.8259
1091.822915 91.700 162.2020
1099.734713 91.721 162.6339
1107.703844 91.750 163.1240
1115.730723 91.787 163.6722
1123.815768 91.834 164.2738
1131.959400 91.892 164.9182
1140.162045 91.963 165.5876
1148.424129 92.047 166.2567
1156.746083 92.146 166.8933
1165.128342 92.260 167.4608
1173.571343 92.386 167.9225
1182.075524 92.523 168.2467
1190.641331 92.665 168.4114
1199.269209 92.807 168.4083
1207.959608 92.946 168.2430
1216.712981 93.077 167.9338
1225.529785 93.198 167.5073
1234.410479 93.306 166.9939
1243.355526 93.402 166.4239
1252.365393 93.486 165.8247
1261.440549 93.560 165.2189
1270.581467 93.625 164.6239
1279.788624 93.682 164.0524
1289.062500 93.734 163.5126
1298.403578 93.780 163.0089
1307.812346 93.822 162.5435
1317.289293 93.860 162.1164
1326.834914 93.895 161.7261
1336.449707 93.927 161.3709
1346.134173 93.954 161.0484
1355.888816 93.979 160.7562
1365.714145 93.999 160.4922
1375.610673 94.016 160.2542
1385.578915 94.028 160.0402
1395.619391 94.037 159.8484
1405.732624 94.042 159.6771
1415.919142 94.043 159.5247
1426.179476 94.041 159.3895
1436.514160 94.036 159.2702
1446.923734 94.028 159.1655
1457.408740 94.018 159.0742
1467.969724 94.007 158.9951
1478.607238 93.994 158.9272
1489.321836 93.979 158.8695
1500.114076 93.962 158.8209
1510.984521 93.944 158.7803
1521.933737 93.924 158.7464
1532.962297 93.902 158.7180
1544.070773 93.878 158.6940
1555.259747 93.851 158.6730
1566.529800 93.822 158.6539
1577.881521 93.791 158.6357
1589.315501 93.758 158.6172
1600.832336 93.724 158.5976
1612.432627 93.689 158.5762
1624.116978 93.654 158.5524
1635.886000 93.618 158.5258
1647.740304 93.583 158.4960
1659.680509 93.548 158.4632
1671.707238 93.513 158.4274
1683.821118 93.477 158.3889
1696.022780 93.441 158.3480
1708.312860 93.405 158.3055
1720.692000 93.368 158.2617
1733.160843 93.331 158.2172
1745.720041 93.294 158.1726
1758.370248 93.257 158.1283
1771.112124 93.221 158.0847
1783.946332 93.186 158.0421
1796.873543 93.152 158.0010
1809.894429 93.120 157.9615
1823.009670 93.090 157.9240
1836.219950 93.060 157.8889
1849.525956 93.031 157.8563
1862.928384 93.003 157.8267
1876.427931 92.973 157.8007
1890.025301 92.942 157.7786
1903.721204 92.909 157.7610
1917.516352 92.872 157.7485
1931.411466 92.833 157.7416
1945.407270 92.789 157.7407
1959.504493 92.742 157.7464
1973.703870 92.691 157.7591
1988.006142 92.637 157.7790
2002.412054 92.580 157.8062
2016.922357 92.522 157.8405
2031.537808 92.464 157.8816
2046.259169 92.405 157.9285
2061.087206 92.347 157.9804
2076.022694 92.292 158.0364
2091.066410 92.239 158.0957
2106.219139 92.188 158.1578
2121.481671 92.141 158.2231
2136.854802 92.098 158.2924
2152.339333 92.059 158.3669
2167.936071 92.024 158.4483
2183.645829 91.994 158.5383
2199.469427 91.970 158.6381
2215.407689 91.951 158.7485
2231.461446 91.939 158.8696
2247.631536 91.934 159.0009
2263.918800 91.935 159.1417
2280.324089 91.944 159.2912
2296.848258 91.960 159.4489
2313.492167 91.983 159.6148
2330.256685 92.011 159.7891
2347.142685 92.046 159.9727
2364.151049 92.085 160.1667
2381.282662 92.128 160.3721
2398.538418 92.175 160.5901
2415.919216 92.224 160.8220
2433.425962 92.275 161.0684
2451.059570 92.327 161.3302
2468.820958 92.380 161.6075
2486.711052 92.432 161.9003
2504.730786 92.483 162.2079
2522.881098 92.533 162.5294
2541.162934 92.581 162.8630
2559.577248 92.626 163.2070
2578.125000 92.668 163.5593
2596.807157 92.706 163.9174
2615.624692 92.740 164.2796
2634.578586 92.770 164.6439
2653.669829 92.795 165.0090
2672.899414 92.815 165.3734
2692.268345 92.830 165.7363
2711.777632 92.840 166.0966
2731.428290 92.845 166.4535
2751.221345 92.844 166.8061
2771.157829 92.839 167.1537
2791.238781 92.829 167.4957
2811.465248 92.814 167.8317
2831.838284 92.795 168.1614
2852.358952 92.772 168.4850
2873.028321 92.744 168.8026
2893.847468 92.713 169.1149
2914.817480 92.677 169.4229
2935.939449 92.637 169.7282
2957.214476 92.593 170.0324
2978.643672 92.545 170.3379
3000.228152 92.494 170.6469
3021.969041 92.440 170.9619
3043.867475 92.383 171.2855
3065.924593 92.324 171.6198
3088.141547 92.264 171.9668
3110.519493 92.204 172.3280
3133.059600 92.143 172.7044
3155.763041 92.084 173.0965
3178.631001 92.026 173.5044
3201.664672 91.970 173.9277
3224.865254 91.917 174.3653
3248.233957 91.867 174.8159
3271.771999 91.822 175.2777
3295.480608 91.782 175.7488
3319.361019 91.747 176.2270
3343.414477 91.718 176.7106
3367.642236 91.696 177.1981
3392.045560 91.681 177.6884
3416.625721 91.673 178.1809
3441.383999 91.673 178.6752
3466.321686 91.680 179.1711
3491.440082 91.696 179.6682
3516.740496 91.720 -179.8341
