* Measurement data measured by REW V5.31.3
* Source: EXCL: Headset (USB-C to 3.5mm Headphone Jack Adapter), MICROPHONE (Master Volume), 0, volume: 0.260
* Format: 256k Log Swept Sine, 1 sweep at -12.0 dBFS with no timing reference
* Dated: Mar 5, 2025 10:53:09 AM
* REW Settings:
*  C-weighting compensation: Off
*  Target level: 75.0 dB
* Note: ; 
* Measurement: Ouroboros Reprint L3
* Smoothing: 1/6 octave
* Frequency Step: 96 ppo
* Start Frequency: 20.0 Hz
*
* Freq(Hz) SPL(dB) Phase(degrees)
20.141602 98.860 -109.3715
20.287556 98.842 -109.5748
20.434568 98.819 -109.8466
20.582645 98.792 -110.1782
20.731796 98.762 -110.5606
20.882027 98.732 -110.9856
21.033346 98.701 -111.4468
21.185763 98.672 -111.9390
21.339284 98.644 -112.4587
21.493917 98.618 -113.0035
21.649671 98.593 -113.5715
21.806553 98.569 -114.1608
21.964572 98.545 -114.7691
22.123737 98.519 -115.3931
22.284054 98.491 -116.0290
22.445534 98.460 -116.6719
22.608183 98.425 -117.3167
22.772012 98.386 -117.9580
22.937027 98.345 -118.5912
23.103238 98.300 -119.2126
23.270654 98.253 -119.8197
23.439282 98.205 -120.4118
23.609133 98.157 -120.9895
23.780215 98.110 -121.5546
23.952536 98.064 -122.1097
24.126106 98.021 -122.6570
24.300934 97.979 -123.1982
24.477028 97.940 -123.7338
24.654399 97.902 -124.2627
24.833055 97.865 -124.7830
25.013005 97.831 -125.2918
25.194260 97.798 -125.7868
25.376828 97.767 -126.2666
25.560719 97.740 -126.7318
25.745942 97.717 -127.1860
25.932508 97.698 -127.6349
26.120426 97.686 -128.0867
26.309705 97.679 -128.5505
26.500356 97.676 -129.0352
26.692388 97.678 -129.5479
26.885812 97.681 -130.0921
27.080638 97.685 -130.6676
27.276876 97.688 -131.2693
27.474535 97.688 -131.8887
27.673627 97.684 -132.5140
27.874161 97.676 -133.1327
28.076149 97.663 -133.7325
28.279600 97.647 -134.3036
28.484526 97.628 -134.8397
28.690937 97.607 -135.3390
28.898843 97.584 -135.8039
29.108256 97.562 -136.2403
29.319186 97.539 -136.6567
29.531645 97.514 -137.0621
29.745644 97.489 -137.4647
29.961193 97.461 -137.8707
30.178304 97.430 -138.2835
30.396989 97.395 -138.7035
30.617258 97.356 -139.1284
30.839123 97.313 -139.5537
31.062596 97.266 -139.9736
31.287688 97.217 -140.3817
31.514412 97.166 -140.7717
31.742778 97.115 -141.1380
31.972800 97.065 -141.4766
32.204488 97.018 -141.7852
32.437855 96.975 -142.0639
32.672913 96.938 -142.3152
32.909674 96.908 -142.5436
33.148151 96.886 -142.7560
33.388356 96.872 -142.9600
33.630302 96.865 -143.1632
33.874001 96.864 -143.3723
34.119466 96.868 -143.5917
34.366710 96.874 -143.8232
34.615745 96.882 -144.0653
34.866585 96.888 -144.3140
35.119243 96.892 -144.5634
35.373731 96.892 -144.8061
35.630064 96.886 -145.0347
35.888254 96.874 -145.2423
36.148315 96.856 -145.4229
36.410261 96.832 -145.5718
36.674104 96.801 -145.6860
36.939860 96.764 -145.7633
37.207542 96.722 -145.8030
37.477163 96.676 -145.8055
37.748738 96.628 -145.7722
38.022281 96.577 -145.7055
38.297806 96.527 -145.6089
38.575327 96.479 -145.4868
38.854860 96.433 -145.3443
39.136419 96.391 -145.1874
39.420017 96.353 -145.0226
39.705671 96.321 -144.8569
39.993395 96.294 -144.6973
40.283203 96.273 -144.5508
40.575112 96.257 -144.4238
40.869136 96.245 -144.3214
41.165290 96.237 -144.2468
41.463591 96.232 -144.2015
41.764053 96.229 -144.1846
42.066693 96.230 -144.1935
42.371525 96.232 -144.2240
42.678567 96.236 -144.2711
42.987834 96.244 -144.3300
43.299341 96.254 -144.3960
43.613106 96.267 -144.4654
43.929145 96.283 -144.5354
44.247473 96.303 -144.6043
44.568109 96.326 -144.6709
44.891068 96.353 -144.7351
45.216367 96.384 -144.7970
45.544023 96.419 -144.8574
45.874054 96.457 -144.9176
46.206476 96.499 -144.9793
46.541307 96.546 -145.0448
46.878565 96.596 -145.1166
47.218266 96.651 -145.1972
47.560429 96.708 -145.2890
47.905072 96.768 -145.3935
48.252212 96.830 -145.5120
48.601867 96.893 -145.6451
48.954056 96.957 -145.7933
49.308798 97.022 -145.9572
49.666109 97.087 -146.1377
50.026010 97.152 -146.3355
50.388520 97.216 -146.5514
50.753656 97.281 -146.7852
51.121437 97.344 -147.0361
51.491884 97.406 -147.3025
51.865016 97.467 -147.5828
52.240851 97.526 -147.8754
52.619410 97.582 -148.1794
53.000712 97.636 -148.4944
53.384777 97.688 -148.8203
53.771625 97.737 -149.1571
54.161276 97.783 -149.5046
54.553751 97.826 -149.8622
54.949070 97.867 -150.2290
55.347254 97.904 -150.6043
55.748323 97.938 -150.9874
56.152298 97.969 -151.3779
56.559201 97.997 -151.7758
56.969052 98.022 -152.1815
57.381873 98.044 -152.5950
57.797686 98.064 -153.0157
58.216512 98.084 -153.4424
58.638373 98.105 -153.8723
59.063291 98.128 -154.3025
59.491288 98.156 -154.7297
59.922386 98.189 -155.1521
60.356608 98.227 -155.5694
60.793977 98.271 -155.9833
61.234515 98.318 -156.3963
61.678246 98.368 -156.8114
62.125192 98.418 -157.2314
62.575377 98.467 -157.6582
63.028824 98.513 -158.0931
63.485557 98.555 -158.5366
63.945599 98.593 -158.9880
64.408975 98.626 -159.4461
64.875709 98.656 -159.9093
65.345825 98.681 -160.3759
65.819348 98.703 -160.8445
66.296302 98.722 -161.3143
66.776713 98.738 -161.7850
67.260604 98.752 -162.2565
67.748002 98.764 -162.7290
68.238932 98.776 -163.2031
68.733420 98.786 -163.6791
69.231490 98.796 -164.1571
69.733170 98.806 -164.6373
70.238485 98.816 -165.1197
70.747463 98.826 -165.6042
71.260128 98.835 -166.0906
71.776508 98.844 -166.5787
72.296630 98.853 -167.0681
72.820521 98.861 -167.5586
73.348209 98.868 -168.0497
73.879720 98.875 -168.5412
74.415083 98.880 -169.0326
74.954326 98.883 -169.5238
75.497475 98.886 -170.0145
76.044561 98.887 -170.5042
76.595612 98.886 -170.9930
77.150655 98.884 -171.4803
77.709720 98.881 -171.9659
78.272837 98.876 -172.4491
78.840034 98.869 -172.9290
79.411342 98.861 -173.4047
79.986789 98.852 -173.8749
80.566406 98.841 -174.3388
81.150224 98.829 -174.7956
81.738272 98.815 -175.2449
82.330581 98.801 -175.6866
82.927182 98.786 -176.1207
83.528107 98.770 -176.5475
84.133386 98.754 -176.9671
84.743051 98.737 -177.3798
85.357134 98.720 -177.7863
85.975667 98.704 -178.1872
86.598682 98.687 -178.5834
87.226212 98.671 -178.9758
87.858289 98.656 -179.3652
88.494946 98.642 -179.7524
89.136217 98.628 179.8619
89.782135 98.616 179.4771
90.432733 98.604 179.0928
91.088046 98.594 178.7090
91.748108 98.585 178.3260
92.412952 98.576 177.9440
93.082615 98.568 177.5637
93.757130 98.560 177.1855
94.436533 98.552 176.8100
95.120859 98.543 176.4374
95.810144 98.533 176.0676
96.504423 98.522 175.7004
97.203734 98.509 175.3354
97.908112 98.493 174.9717
98.617595 98.476 174.6090
99.332219 98.457 174.2466
100.052021 98.435 173.8843
100.777039 98.412 173.5214
101.507311 98.388 173.1575
102.242875 98.363 172.7921
102.983769 98.338 172.4249
103.730032 98.313 172.0555
104.481702 98.288 171.6838
105.238820 98.263 171.3097
106.001424 98.239 170.9333
106.769554 98.217 170.5542
107.543250 98.195 170.1724
108.322553 98.173 169.7875
109.107503 98.153 169.3995
109.898141 98.133 169.0084
110.694508 98.113 168.6144
111.496646 98.094 168.2178
112.304596 98.074 167.8191
113.118402 98.054 167.4185
113.938104 98.033 167.0162
114.763747 98.010 166.6127
115.595372 97.987 166.2081
116.433024 97.961 165.8029
117.276746 97.933 165.3972
118.126581 97.903 164.9914
118.982575 97.872 164.5856
119.844772 97.838 164.1804
120.713217 97.803 163.7763
121.587954 97.767 163.3742
122.469031 97.729 162.9746
123.356492 97.691 162.5781
124.250384 97.652 162.1845
125.150753 97.612 161.7935
126.057647 97.572 161.4046
126.971113 97.532 161.0173
127.891198 97.492 160.6314
128.817950 97.452 160.2469
129.751418 97.413 159.8640
130.691651 97.373 159.4832
131.638696 97.334 159.1052
132.592604 97.295 158.7307
133.553425 97.255 158.3608
134.521208 97.215 157.9965
135.496004 97.173 157.6387
136.477864 97.130 157.2879
137.466839 97.084 156.9447
138.462981 97.036 156.6093
139.466340 96.984 156.2819
140.476971 96.930 155.9626
141.494925 96.872 155.6516
142.520256 96.810 155.3488
143.553016 96.745 155.0543
144.593260 96.678 154.7677
145.641043 96.608 154.4888
146.696418 96.536 154.2174
147.759441 96.462 153.9533
148.830166 96.388 153.6966
149.908651 96.313 153.4474
150.994951 96.239 153.2061
152.089123 96.165 152.9731
153.191223 96.092 152.7492
154.301310 96.020 152.5348
155.419441 95.950 152.3301
156.545674 95.880 152.1350
157.680069 95.812 151.9490
158.822683 95.744 151.7714
159.973578 95.677 151.6017
161.132813 95.610 151.4396
162.300447 95.542 151.2854
163.476543 95.475 151.1393
164.661162 95.408 151.0020
165.854364 95.340 150.8738
167.056213 95.273 150.7550
168.266772 95.205 150.6456
169.486102 95.137 150.5452
170.714268 95.069 150.4534
171.951334 95.000 150.3697
173.197364 94.932 150.2935
174.452424 94.863 150.2244
175.716578 94.794 150.1620
176.989893 94.724 150.1059
178.272434 94.654 150.0561
179.564270 94.583 150.0127
180.865467 94.511 149.9759
182.176092 94.439 149.9462
183.496216 94.365 149.9241
184.825905 94.290 149.9102
186.165229 94.213 149.9052
187.514259 94.135 149.9096
188.873065 94.055 149.9238
190.241717 93.973 149.9481
191.620287 93.888 149.9828
193.008847 93.802 150.0279
194.407468 93.714 150.0830
195.816225 93.624 150.1479
197.235190 93.533 150.2219
198.664438 93.439 150.3049
200.104042 93.344 150.3965
201.554078 93.249 150.4969
203.014622 93.152 150.6063
204.485750 93.056 150.7250
205.967538 92.961 150.8531
207.460064 92.868 150.9910
208.963405 92.777 151.1385
210.477640 92.689 151.2959
212.002848 92.605 151.4629
213.539108 92.525 151.6392
215.086500 92.451 151.8242
216.645105 92.382 152.0174
218.215005 92.319 152.2181
219.796281 92.262 152.4263
221.389015 92.211 152.6415
222.993292 92.166 152.8640
224.609193 92.126 153.0941
226.236804 92.091 153.3321
227.876209 92.061 153.5786
229.527494 92.035 153.8337
231.190745 92.012 154.0974
232.866048 91.993 154.3694
234.553491 91.977 154.6490
236.253163 91.964 154.9359
237.965150 91.953 155.2292
239.689544 91.944 155.5283
241.426433 91.937 155.8325
243.175909 91.932 156.1408
244.938062 91.928 156.4527
246.712984 91.924 156.7675
248.500768 91.922 157.0845
250.301507 91.920 157.4036
252.115295 91.918 157.7241
253.942226 91.917 158.0457
255.782396 91.916 158.3676
257.635901 91.916 158.6890
259.502837 91.917 159.0087
261.383301 91.918 159.3256
263.277392 91.919 159.6389
265.185209 91.921 159.9481
267.106850 91.922 160.2531
269.042417 91.924 160.5541
270.992009 91.924 160.8516
272.955729 91.924 161.1459
274.933678 91.921 161.4368
276.925961 91.917 161.7242
278.932681 91.910 162.0078
280.953942 91.900 162.2870
282.989850 91.887 162.5617
285.040511 91.870 162.8318
287.106032 91.850 163.0975
289.186521 91.826 163.3596
291.282086 91.799 163.6188
293.392836 91.768 163.8759
295.518881 91.734 164.1314
297.660333 91.698 164.3859
299.817302 91.660 164.6393
301.989902 91.621 164.8916
304.178245 91.581 165.1428
306.382446 91.541 165.3926
308.602620 91.502 165.6408
310.838882 91.465 165.8872
313.091348 91.430 166.1315
315.360137 91.398 166.3736
317.645367 91.369 166.6129
319.947156 91.345 166.8492
322.265625 91.326 167.0821
324.600895 91.311 167.3111
326.953086 91.302 167.5358
329.322323 91.300 167.7557
331.708729 91.303 167.9705
334.112427 91.312 168.1797
336.533543 91.328 168.3830
338.972204 91.350 168.5802
341.428536 91.378 168.7711
343.902668 91.412 168.9556
346.394729 91.452 169.1337
348.904848 91.495 169.3050
351.433156 91.543 169.4696
353.979786 91.594 169.6271
356.544869 91.646 169.7773
359.128540 91.699 169.9199
361.730934 91.753 170.0546
364.352185 91.805 170.1811
366.992431 91.855 170.2990
369.651810 91.902 170.4081
372.330459 91.945 170.5081
375.028519 91.984 170.5988
377.746130 92.018 170.6804
380.483434 92.047 170.7527
383.240574 92.070 170.8160
386.017693 92.088 170.8708
388.814937 92.102 170.9175
391.632450 92.110 170.9573
394.470380 92.116 170.9909
397.328875 92.118 171.0196
400.208084 92.119 171.0443
403.108157 92.120 171.0659
406.029245 92.121 171.0850
408.971500 92.125 171.1021
411.935076 92.130 171.1174
414.920127 92.140 171.1311
417.926810 92.153 171.1432
420.955280 92.170 171.1537
424.005695 92.192 171.1626
427.078215 92.217 171.1699
430.173000 92.245 171.1754
433.290211 92.275 171.1791
436.430010 92.307 171.1807
439.592562 92.339 171.1802
442.778031 92.370 171.1776
445.986583 92.400 171.1726
449.218386 92.428 171.1656
452.473607 92.454 171.1567
455.752418 92.477 171.1460
459.054987 92.497 171.1339
462.381489 92.514 171.1204
465.732096 92.528 171.1057
469.106983 92.541 171.0898
472.506325 92.552 171.0726
475.930301 92.561 171.0539
479.379088 92.569 171.0334
482.852867 92.576 171.0109
486.351817 92.584 170.9860
489.876123 92.591 170.9584
493.425968 92.599 170.9278
497.001536 92.608 170.8939
500.603014 92.619 170.8565
504.230589 92.633 170.8152
507.884452 92.651 170.7698
511.564792 92.672 170.7201
515.271802 92.699 170.6658
519.005673 92.731 170.6069
522.766602 92.769 170.5432
526.554785 92.813 170.4749
530.370418 92.863 170.4019
534.213700 92.917 170.3245
538.084833 92.976 170.2427
541.984018 93.037 170.1569
545.911457 93.100 170.0674
549.867357 93.163 169.9745
553.851922 93.224 169.8785
557.865362 93.283 169.7798
561.907884 93.337 169.6786
565.979700 93.385 169.5754
570.081022 93.427 169.4704
574.212064 93.461 169.3639
578.373042 93.486 169.2560
582.564171 93.502 169.1470
586.785671 93.507 169.0369
591.037762 93.503 168.9254
595.320665 93.487 168.8126
599.634604 93.461 168.6985
603.979804 93.425 168.5833
608.356491 93.379 168.4673
612.764893 93.325 168.3508
617.205240 93.263 168.2344
621.677763 93.196 168.1188
626.182696 93.124 168.0045
630.720274 93.051 167.8920
635.290733 92.977 167.7819
639.894312 92.905 167.6745
644.531250 92.836 167.5701
649.201789 92.773 167.4686
653.906173 92.715 167.3699
658.644647 92.665 167.2737
663.417457 92.623 167.1797
668.224854 92.590 167.0869
673.067086 92.566 166.9944
677.944408 92.551 166.9011
682.857073 92.546 166.8057
687.805336 92.549 166.7070
692.789457 92.561 166.6040
697.809695 92.581 166.4956
702.866312 92.606 166.3813
707.959571 92.637 166.2610
713.089738 92.672 166.1347
718.257080 92.708 166.0031
723.461867 92.745 165.8671
728.704370 92.780 165.7278
733.984862 92.812 165.5865
739.303619 92.841 165.4445
744.660918 92.864 165.3030
750.057038 92.883 165.1634
755.492260 92.896 165.0270
760.966869 92.904 164.8952
766.481148 92.907 164.7690
772.035387 92.906 164.6498
777.629873 92.902 164.5384
783.264900 92.894 164.4358
788.940760 92.882 164.3426
794.657750 92.867 164.2595
800.416168 92.848 164.1866
806.216313 92.824 164.1239
812.058489 92.794 164.0712
817.943000 92.759 164.0277
823.870152 92.717 163.9924
829.840255 92.670 163.9638
835.853619 92.617 163.9400
841.910559 92.561 163.9185
848.011390 92.502 163.8959
854.156430 92.443 163.8683
860.346000 92.387 163.8304
866.580422 92.336 163.7758
872.860020 92.292 163.6976
879.185124 92.258 163.5882
885.556062 92.234 163.4407
891.973166 92.220 163.2496
898.436771 92.216 163.0120
904.947215 92.220 162.7285
911.504835 92.230 162.4034
918.109975 92.243 162.0451
924.762978 92.256 161.6645
931.464192 92.269 161.2739
938.213966 92.278 160.8859
945.012651 92.284 160.5116
951.860602 92.284 160.1600
958.758176 92.279 159.8376
965.705733 92.269 159.5487
972.703635 92.253 159.2954
979.752246 92.232 159.0783
986.851935 92.206 158.8968
994.003071 92.176 158.7496
1001.206027 92.143 158.6353
1008.461179 92.107 158.5524
1015.768904 92.070 158.4997
1023.129584 92.033 158.4765
1030.543603 91.998 158.4827
1038.011347 91.964 158.5189
1045.533205 91.935 158.5863
1053.109569 91.909 158.6871
1060.740836 91.890 158.8242
1068.427401 91.876 159.0013
1076.169666 91.869 159.2227
1083.968035 91.868 159.4934
1091.822915 91.874 159.8182
1099.734713 91.886 160.2013
1107.703844 91.907 160.6450
1115.730723 91.935 161.1487
1123.815768 91.973 161.7070
1131.959400 92.022 162.3088
1140.162045 92.082 162.9356
1148.424129 92.156 163.5615
1156.746083 92.244 164.1542
1165.128342 92.346 164.6781
1173.571343 92.459 165.0979
1182.075524 92.581 165.3845
1190.641331 92.708 165.5187
1199.269209 92.835 165.4951
1207.959608 92.957 165.3214
1216.712981 93.072 165.0167
1225.529785 93.176 164.6076
1234.410479 93.269 164.1240
1243.355526 93.350 163.5950
1252.365393 93.420 163.0467
1261.440549 93.481 162.5007
1270.581467 93.535 161.9736
1279.788624 93.582 161.4769
1289.062500 93.624 161.0181
1298.403578 93.662 160.6010
1307.812346 93.698 160.2264
1317.289293 93.732 159.8933
1326.834914 93.763 159.5992
1336.449707 93.793 159.3407
1346.134173 93.821 159.1141
1355.888816 93.847 158.9156
1365.714145 93.870 158.7416
1375.610673 93.890 158.5888
1385.578915 93.908 158.4542
1395.619391 93.923 158.3353
1405.732624 93.935 158.2299
1415.919142 93.944 158.1360
1426.179476 93.951 158.0521
1436.514160 93.955 157.9763
1446.923734 93.958 157.9075
1457.408740 93.959 157.8443
1467.969724 93.958 157.7856
1478.607238 93.956 157.7302
1489.321836 93.952 157.6772
1500.114076 93.947 157.6254
1510.984521 93.940 157.5741
1521.933737 93.931 157.5223
1532.962297 93.919 157.4692
1544.070773 93.904 157.4142
1555.259747 93.887 157.3567
1566.529800 93.867 157.2961
1577.881521 93.844 157.2324
1589.315501 93.818 157.1651
1600.832336 93.791 157.0941
1612.432627 93.761 157.0195
1624.116978 93.731 156.9413
1635.886000 93.700 156.8595
1647.740304 93.669 156.7743
1659.680509 93.637 156.6859
1671.707238 93.604 156.5945
1683.821118 93.571 156.5004
1696.022780 93.537 156.4038
1708.312860 93.503 156.3049
1720.692000 93.468 156.2040
1733.160843 93.432 156.1012
1745.720041 93.395 155.9968
1758.370248 93.359 155.8911
1771.112124 93.323 155.7844
1783.946332 93.288 155.6770
1796.873543 93.254 155.5693
1809.894429 93.221 155.4619
1823.009670 93.189 155.3552
1836.219950 93.157 155.2501
1849.525956 93.126 155.1473
1862.928384 93.093 155.0476
1876.427931 93.059 154.9520
1890.025301 93.023 154.8616
1903.721204 92.984 154.7772
1917.516352 92.942 154.7001
1931.411466 92.895 154.6313
1945.407270 92.844 154.5715
1959.504493 92.789 154.5216
1973.703870 92.730 154.4821
1988.006142 92.667 154.4532
2002.412054 92.602 154.4348
2016.922357 92.535 154.4265
2031.537808 92.467 154.4274
2046.259169 92.400 154.4366
2061.087206 92.333 154.4530
2076.022694 92.267 154.4755
2091.066410 92.204 154.5034
2106.219139 92.144 154.5366
2121.481671 92.087 154.5756
2136.854802 92.033 154.6215
2152.339333 91.982 154.6761
2167.936071 91.936 154.7411
2183.645829 91.895 154.8183
2199.469427 91.859 154.9092
2215.407689 91.829 155.0145
2231.461446 91.805 155.1344
2247.631536 91.788 155.2686
2263.918800 91.778 155.4166
2280.324089 91.776 155.5778
2296.848258 91.780 155.7517
2313.492167 91.792 155.9381
2330.256685 91.810 156.1370
2347.142685 91.834 156.3486
2364.151049 91.863 156.5732
2381.282662 91.897 156.8115
2398.538418 91.935 157.0639
2415.919216 91.976 157.3312
2433.425962 92.020 157.6141
2451.059570 92.065 157.9129
2468.820958 92.111 158.2279
2486.711052 92.157 158.5590
2504.730786 92.203 158.9055
2522.881098 92.248 159.2659
2541.162934 92.291 159.6387
2559.577248 92.331 160.0218
2578.125000 92.369 160.4128
2596.807157 92.403 160.8096
2615.624692 92.433 161.2100
2634.578586 92.458 161.6124
2653.669829 92.479 162.0155
2672.899414 92.495 162.4182
2692.268345 92.506 162.8200
2711.777632 92.511 163.2205
2731.428290 92.511 163.6192
2751.221345 92.507 164.0160
2771.157829 92.497 164.4105
2791.238781 92.483 164.8021
2811.465248 92.465 165.1902
2831.838284 92.443 165.5741
2852.358952 92.417 165.9531
2873.028321 92.387 166.3266
2893.847468 92.353 166.6945
2914.817480 92.316 167.0568
2935.939449 92.275 167.4143
2957.214476 92.231 167.7683
2978.643672 92.184 168.1205
3000.228152 92.133 168.4732
3021.969041 92.080 168.8284
3043.867475 92.025 169.1886
3065.924593 91.969 169.5556
3088.141547 91.911 169.9315
3110.519493 91.852 170.3177
3133.059600 91.794 170.7159
3155.763041 91.735 171.1271
3178.631001 91.678 171.5527
3201.664672 91.623 171.9932
3224.865254 91.569 172.4491
3248.233957 91.519 172.9201
3271.771999 91.472 173.4055
3295.480608 91.430 173.9041
3319.361019 91.393 174.4140
3343.414477 91.362 174.9337
3367.642236 91.338 175.4611
3392.045560 91.322 175.9948
3416.625721 91.313 176.5333
3441.383999 91.313 177.0752
3466.321686 91.321 177.6194
3491.440082 91.338 178.1646
3516.740496 91.364 178.7091
