* Measurement data measured by REW V5.31.3
* Source: EXCL: Headset (USB-C to 3.5mm Headphone Jack Adapter), MICROPHONE (Master Volume), 0, volume: 0.260
* Format: 256k Log Swept Sine, 1 sweep at -12.0 dBFS with no timing reference
* Dated: Feb 21, 2025 5:23:01 PM
* REW Settings:
*  C-weighting compensation: Off
*  Target level: 75.0 dB
* Note: ; 
* Measurement: Ouroboros (Golem Mod) L5
* Smoothing: 1/6 octave
* Frequency Step: 96 ppo
* Start Frequency: 20.0 Hz
*
* Freq(Hz) SPL(dB) Phase(degrees)
20.141602 106.506 -114.6283
20.287556 106.488 -114.8440
20.434568 106.464 -115.1336
20.582645 106.435 -115.4886
20.731796 106.402 -115.9004
20.882027 106.365 -116.3602
21.033346 106.326 -116.8599
21.185763 106.285 -117.3921
21.339284 106.243 -117.9506
21.493917 106.201 -118.5299
21.649671 106.159 -119.1251
21.806553 106.118 -119.7324
21.964572 106.078 -120.3479
22.123737 106.039 -120.9689
22.284054 106.001 -121.5928
22.445534 105.965 -122.2175
22.608183 105.930 -122.8417
22.772012 105.896 -123.4644
22.937027 105.864 -124.0852
23.103238 105.833 -124.7043
23.270654 105.803 -125.3220
23.439282 105.773 -125.9391
23.609133 105.744 -126.5562
23.780215 105.715 -127.1738
23.952536 105.686 -127.7921
24.126106 105.655 -128.4109
24.300934 105.624 -129.0296
24.477028 105.591 -129.6469
24.654399 105.557 -130.2616
24.833055 105.522 -130.8718
25.013005 105.487 -131.4764
25.194260 105.451 -132.0740
25.376828 105.415 -132.6642
25.560719 105.380 -133.2468
25.745942 105.347 -133.8225
25.932508 105.316 -134.3924
26.120426 105.287 -134.9578
26.309705 105.260 -135.5199
26.500356 105.236 -136.0797
26.692388 105.215 -136.6373
26.885812 105.195 -137.1920
27.080638 105.178 -137.7425
27.276876 105.162 -138.2865
27.474535 105.148 -138.8212
27.673627 105.135 -139.3438
27.874161 105.123 -139.8519
28.076149 105.112 -140.3437
28.279600 105.101 -140.8185
28.484526 105.091 -141.2769
28.690937 105.080 -141.7204
28.898843 105.069 -142.1514
29.108256 105.056 -142.5728
29.319186 105.041 -142.9874
29.531645 105.022 -143.3975
29.745644 105.000 -143.8047
29.961193 104.973 -144.2095
30.178304 104.941 -144.6113
30.396989 104.905 -145.0092
30.617258 104.865 -145.4015
30.839123 104.820 -145.7866
31.062596 104.774 -146.1633
31.287688 104.727 -146.5310
31.514412 104.681 -146.8898
31.742778 104.636 -147.2404
31.972800 104.596 -147.5839
32.204488 104.561 -147.9217
32.437855 104.532 -148.2548
32.672913 104.511 -148.5840
32.909674 104.496 -148.9098
33.148151 104.489 -149.2321
33.388356 104.488 -149.5506
33.630302 104.494 -149.8653
33.874001 104.505 -150.1761
34.119466 104.519 -150.4834
34.366710 104.534 -150.7876
34.615745 104.550 -151.0896
34.866585 104.565 -151.3899
35.119243 104.575 -151.6885
35.373731 104.581 -151.9849
35.630064 104.580 -152.2776
35.888254 104.573 -152.5644
36.148315 104.557 -152.8426
36.410261 104.533 -153.1091
36.674104 104.503 -153.3611
36.939860 104.465 -153.5963
37.207542 104.422 -153.8133
37.477163 104.375 -154.0118
37.748738 104.325 -154.1928
38.022281 104.272 -154.3582
38.297806 104.219 -154.5108
38.575327 104.166 -154.6539
38.854860 104.114 -154.7908
39.136419 104.062 -154.9245
39.420017 104.012 -155.0574
39.705671 103.964 -155.1912
39.993395 103.917 -155.3268
40.283203 103.871 -155.4648
40.575112 103.828 -155.6052
40.869136 103.787 -155.7479
41.165290 103.748 -155.8927
41.463591 103.711 -156.0396
41.764053 103.676 -156.1883
42.066693 103.644 -156.3386
42.371525 103.615 -156.4903
42.678567 103.589 -156.6434
42.987834 103.566 -156.7981
43.299341 103.546 -156.9548
43.613106 103.529 -157.1139
43.929145 103.516 -157.2759
44.247473 103.505 -157.4410
44.568109 103.498 -157.6089
44.891068 103.493 -157.7791
45.216367 103.491 -157.9507
45.544023 103.490 -158.1232
45.874054 103.492 -158.2958
46.206476 103.494 -158.4685
46.541307 103.498 -158.6413
46.878565 103.503 -158.8146
47.218266 103.509 -158.9886
47.560429 103.515 -159.1635
47.905072 103.522 -159.3395
48.252212 103.530 -159.5161
48.601867 103.538 -159.6929
48.954056 103.547 -159.8688
49.308798 103.557 -160.0426
49.666109 103.567 -160.2125
50.026010 103.578 -160.3766
50.388520 103.590 -160.5333
50.753656 103.602 -160.6812
51.121437 103.614 -160.8198
51.491884 103.626 -160.9491
51.865016 103.638 -161.0696
52.240851 103.650 -161.1822
52.619410 103.662 -161.2879
53.000712 103.673 -161.3874
53.384777 103.685 -161.4809
53.771625 103.696 -161.5686
54.161276 103.707 -161.6501
54.553751 103.718 -161.7252
54.949070 103.729 -161.7937
55.347254 103.740 -161.8557
55.748323 103.752 -161.9122
56.152298 103.763 -161.9650
56.559201 103.776 -162.0163
56.969052 103.790 -162.0687
57.381873 103.806 -162.1248
57.797686 103.825 -162.1864
58.216512 103.847 -162.2548
58.638373 103.873 -162.3308
59.063291 103.903 -162.4146
59.491288 103.937 -162.5067
59.922386 103.975 -162.6073
60.356608 104.017 -162.7169
60.793977 104.063 -162.8365
61.234515 104.111 -162.9675
61.678246 104.162 -163.1115
62.125192 104.215 -163.2704
62.575377 104.270 -163.4459
63.028824 104.325 -163.6391
63.485557 104.380 -163.8508
63.945599 104.435 -164.0814
64.408975 104.490 -164.3313
64.875709 104.543 -164.6007
65.345825 104.595 -164.8901
65.819348 104.646 -165.1996
66.296302 104.696 -165.5297
66.776713 104.746 -165.8802
67.260604 104.794 -166.2513
67.748002 104.841 -166.6429
68.238932 104.887 -167.0547
68.733420 104.932 -167.4867
69.231490 104.977 -167.9382
69.733170 105.021 -168.4088
70.238485 105.064 -168.8976
70.747463 105.105 -169.4037
71.260128 105.146 -169.9263
71.776508 105.185 -170.4646
72.296630 105.223 -171.0177
72.820521 105.258 -171.5850
73.348209 105.292 -172.1656
73.879720 105.324 -172.7584
74.415083 105.353 -173.3622
74.954326 105.380 -173.9757
75.497475 105.405 -174.5975
76.044561 105.427 -175.2263
76.595612 105.446 -175.8611
77.150655 105.462 -176.5011
77.709720 105.476 -177.1456
78.272837 105.487 -177.7938
78.840034 105.494 -178.4452
79.411342 105.499 -179.0995
79.986789 105.501 -179.7563
80.566406 105.501 179.5847
81.150224 105.497 178.9236
81.738272 105.492 178.2607
82.330581 105.484 177.5963
82.927182 105.474 176.9309
83.528107 105.461 176.2649
84.133386 105.447 175.5989
84.743051 105.431 174.9334
85.357134 105.413 174.2690
85.975667 105.393 173.6063
86.598682 105.371 172.9457
87.226212 105.348 172.2876
87.858289 105.324 171.6326
88.494946 105.298 170.9811
89.136217 105.271 170.3331
89.782135 105.243 169.6890
90.432733 105.215 169.0487
91.088046 105.185 168.4123
91.748108 105.154 167.7800
92.412952 105.121 167.1518
93.082615 105.086 166.5279
93.757130 105.050 165.9084
94.436533 105.011 165.2935
95.120859 104.969 164.6833
95.810144 104.924 164.0780
96.504423 104.876 163.4778
97.203734 104.823 162.8832
97.908112 104.767 162.2944
98.617595 104.706 161.7125
99.332219 104.642 161.1379
100.052021 104.573 160.5717
100.777039 104.501 160.0145
101.507311 104.426 159.4666
102.242875 104.348 158.9286
102.983769 104.267 158.4005
103.730032 104.185 157.8827
104.481702 104.101 157.3752
105.238820 104.015 156.8783
106.001424 103.929 156.3921
106.769554 103.842 155.9169
107.543250 103.755 155.4532
108.322553 103.667 155.0019
109.107503 103.579 154.5636
109.898141 103.491 154.1392
110.694508 103.402 153.7294
111.496646 103.312 153.3348
112.304596 103.222 152.9559
113.118402 103.130 152.5931
113.938104 103.036 152.2465
114.763747 102.941 151.9165
115.595372 102.843 151.6032
116.433024 102.744 151.3069
117.276746 102.642 151.0278
118.126581 102.539 150.7660
118.982575 102.433 150.5219
119.844772 102.326 150.2954
120.713217 102.218 150.0869
121.587954 102.109 149.8963
122.469031 102.000 149.7239
123.356492 101.890 149.5697
124.250384 101.780 149.4337
125.150753 101.670 149.3161
126.057647 101.561 149.2170
126.971113 101.452 149.1366
127.891198 101.345 149.0751
128.817950 101.238 149.0330
129.751418 101.133 149.0106
130.691651 101.029 149.0086
131.638696 100.926 149.0273
132.592604 100.824 149.0671
133.553425 100.723 149.1284
134.521208 100.622 149.2113
135.496004 100.522 149.3161
136.477864 100.421 149.4432
137.466839 100.320 149.5928
138.462981 100.218 149.7656
139.466340 100.116 149.9620
140.476971 100.012 150.1824
141.494925 99.906 150.4273
142.520256 99.800 150.6971
143.553016 99.693 150.9921
144.593260 99.585 151.3129
145.641043 99.477 151.6599
146.696418 99.369 152.0333
147.759441 99.263 152.4332
148.830166 99.158 152.8597
149.908651 99.057 153.3124
150.994951 98.958 153.7907
152.089123 98.864 154.2937
153.191223 98.775 154.8202
154.301310 98.691 155.3689
155.419441 98.612 155.9384
156.545674 98.539 156.5272
157.680069 98.471 157.1335
158.822683 98.409 157.7557
159.973578 98.352 158.3917
161.132813 98.300 159.0396
162.300447 98.253 159.6971
163.476543 98.211 160.3620
164.661162 98.174 161.0322
165.854364 98.141 161.7055
167.056213 98.113 162.3801
168.266772 98.090 163.0543
169.486102 98.071 163.7263
170.714268 98.057 164.3943
171.951334 98.047 165.0567
173.197364 98.041 165.7115
174.452424 98.039 166.3571
175.716578 98.040 166.9916
176.989893 98.045 167.6137
178.272434 98.052 168.2222
179.564270 98.062 168.8161
180.865467 98.075 169.3948
182.176092 98.089 169.9581
183.496216 98.104 170.5060
184.825905 98.120 171.0388
186.165229 98.137 171.5573
187.514259 98.155 172.0625
188.873065 98.173 172.5557
190.241717 98.191 173.0381
191.620287 98.210 173.5109
193.008847 98.229 173.9745
194.407468 98.249 174.4291
195.816225 98.271 174.8734
197.235190 98.294 175.3054
198.664438 98.320 175.7219
200.104042 98.347 176.1188
201.554078 98.378 176.4916
203.014622 98.411 176.8359
204.485750 98.446 177.1475
205.967538 98.485 177.4232
207.460064 98.526 177.6614
208.963405 98.571 177.8615
210.477640 98.617 178.0242
212.002848 98.667 178.1514
213.539108 98.719 178.2457
215.086500 98.774 178.3101
216.645105 98.832 178.3476
218.215005 98.892 178.3615
219.796281 98.955 178.3548
221.389015 99.020 178.3303
222.993292 99.086 178.2906
224.609193 99.154 178.2377
226.236804 99.223 178.1737
227.876209 99.293 178.1000
229.527494 99.364 178.0181
231.190745 99.434 177.9290
232.866048 99.504 177.8337
234.553491 99.574 177.7328
236.253163 99.643 177.6270
237.965150 99.711 177.5164
239.689544 99.777 177.4016
241.426433 99.843 177.2825
243.175909 99.906 177.1597
244.938062 99.967 177.0334
246.712984 100.026 176.9039
248.500768 100.083 176.7717
250.301507 100.137 176.6372
252.115295 100.189 176.5010
253.942226 100.239 176.3635
255.782396 100.286 176.2251
257.635901 100.332 176.0860
259.502837 100.375 175.9464
261.383301 100.417 175.8062
263.277392 100.457 175.6652
265.185209 100.496 175.5233
267.106850 100.532 175.3800
269.042417 100.567 175.2350
270.992009 100.599 175.0880
272.955729 100.627 174.9388
274.933678 100.653 174.7872
276.925961 100.674 174.6331
278.932681 100.691 174.4766
280.953942 100.703 174.3174
282.989850 100.711 174.1556
285.040511 100.713 173.9915
287.106032 100.711 173.8248
289.186521 100.703 173.6559
291.282086 100.690 173.4849
293.392836 100.672 173.3118
295.518881 100.650 173.1368
297.660333 100.624 172.9602
299.817302 100.595 172.7820
301.989902 100.563 172.6024
304.178245 100.529 172.4217
306.382446 100.493 172.2402
308.602620 100.457 172.0581
310.838882 100.421 171.8756
313.091348 100.385 171.6929
315.360137 100.350 171.5102
317.645367 100.317 171.3277
319.947156 100.286 171.1456
322.265625 100.259 170.9641
324.600895 100.234 170.7834
326.953086 100.213 170.6038
329.322323 100.196 170.4255
331.708729 100.184 170.2489
334.112427 100.176 170.0742
336.533543 100.173 169.9019
338.972204 100.174 169.7320
341.428536 100.180 169.5649
343.902668 100.190 169.4010
346.394729 100.204 169.2402
348.904848 100.221 169.0828
351.433156 100.241 168.9288
353.979786 100.263 168.7783
356.544869 100.286 168.6312
359.128540 100.309 168.4877
361.730934 100.330 168.3477
364.352185 100.350 168.2113
366.992431 100.368 168.0786
369.651810 100.382 167.9496
372.330459 100.392 167.8241
375.028519 100.398 167.7021
377.746130 100.399 167.5833
380.483434 100.395 167.4674
383.240574 100.387 167.3542
386.017693 100.373 167.2432
388.814937 100.356 167.1340
391.632450 100.334 167.0262
394.470380 100.310 166.9193
397.328875 100.284 166.8129
400.208084 100.258 166.7064
403.108157 100.232 166.5991
406.029245 100.207 166.4905
408.971500 100.185 166.3801
411.935076 100.166 166.2675
414.920127 100.151 166.1524
417.926810 100.140 166.0347
420.955280 100.134 165.9139
424.005695 100.133 165.7901
427.078215 100.135 165.6630
430.173000 100.141 165.5323
433.290211 100.150 165.3977
436.430010 100.160 165.2592
439.592562 100.171 165.1165
442.778031 100.181 164.9695
445.986583 100.190 164.8183
449.218386 100.197 164.6627
452.473607 100.201 164.5029
455.752418 100.201 164.3386
459.054987 100.199 164.1699
462.381489 100.192 163.9967
465.732096 100.182 163.8190
469.106983 100.169 163.6370
472.506325 100.153 163.4507
475.930301 100.133 163.2606
479.379088 100.111 163.0670
482.852867 100.087 162.8705
486.351817 100.060 162.6719
489.876123 100.032 162.4719
493.425968 100.002 162.2715
497.001536 99.970 162.0716
500.603014 99.938 161.8736
504.230589 99.906 161.6790
507.884452 99.875 161.4895
511.564792 99.845 161.3073
515.271802 99.818 161.1346
519.005673 99.795 160.9739
522.766602 99.776 160.8279
526.554785 99.761 160.6989
530.370418 99.752 160.5884
534.213700 99.749 160.4976
538.084833 99.750 160.4259
541.984018 99.757 160.3722
545.911457 99.767 160.3343
549.867357 99.779 160.3094
553.851922 99.793 160.2949
557.865362 99.805 160.2885
561.907884 99.816 160.2886
565.979700 99.823 160.2939
570.081022 99.824 160.3040
574.212064 99.819 160.3186
578.373042 99.807 160.3378
582.564171 99.787 160.3615
586.785671 99.757 160.3898
591.037762 99.719 160.4224
595.320665 99.671 160.4588
599.634604 99.614 160.4987
603.979804 99.548 160.5415
608.356491 99.474 160.5865
612.764893 99.392 160.6331
617.205240 99.304 160.6807
621.677763 99.211 160.7286
626.182696 99.115 160.7761
630.720274 99.019 160.8224
635.290733 98.923 160.8668
639.894312 98.829 160.9085
644.531250 98.740 160.9471
649.201789 98.655 160.9818
653.906173 98.578 161.0124
658.644647 98.507 161.0386
663.417457 98.445 161.0605
668.224854 98.391 161.0784
673.067086 98.345 161.0925
677.944408 98.308 161.1035
682.857073 98.279 161.1119
687.805336 98.258 161.1185
692.789457 98.245 161.1243
697.809695 98.239 161.1299
702.866312 98.239 161.1365
707.959571 98.245 161.1448
713.089738 98.254 161.1556
718.257080 98.266 161.1698
723.461867 98.279 161.1877
728.704370 98.292 161.2101
733.984862 98.303 161.2370
739.303619 98.311 161.2689
744.660918 98.316 161.3057
750.057038 98.317 161.3476
755.492260 98.314 161.3945
760.966869 98.307 161.4464
766.481148 98.297 161.5035
772.035387 98.282 161.5657
777.629873 98.265 161.6333
783.264900 98.245 161.7065
788.940760 98.222 161.7855
794.657750 98.196 161.8707
800.416168 98.165 161.9622
806.216313 98.130 162.0601
812.058489 98.089 162.1646
817.943000 98.042 162.2756
823.870152 97.988 162.3929
829.840255 97.927 162.5164
835.853619 97.860 162.6457
841.910559 97.788 162.7805
848.011390 97.712 162.9202
854.156430 97.634 163.0640
860.346000 97.556 163.2106
866.580422 97.482 163.3588
872.860020 97.414 163.5068
879.185124 97.354 163.6522
885.556062 97.305 163.7925
891.973166 97.268 163.9245
898.436771 97.244 164.0444
904.947215 97.234 164.1480
911.504835 97.237 164.2311
918.109975 97.251 164.2895
924.762978 97.274 164.3193
931.464192 97.304 164.3184
938.213966 97.337 164.2860
945.012651 97.371 164.2241
951.860602 97.402 164.1373
958.758176 97.427 164.0332
965.705733 97.445 163.9220
972.703635 97.454 163.8157
979.752246 97.454 163.7271
986.851935 97.445 163.6691
994.003071 97.427 163.6534
1001.206027 97.402 163.6900
1008.461179 97.374 163.7873
1015.768904 97.343 163.9520
1023.129584 97.314 164.1890
1030.543603 97.289 164.5012
1038.011347 97.273 164.8896
1045.533205 97.270 165.3519
1053.109569 97.282 165.8818
1060.740836 97.314 166.4679
1068.427401 97.367 167.0922
1076.169666 97.444 167.7303
1083.968035 97.542 168.3516
1091.822915 97.661 168.9219
1099.734713 97.796 169.4067
1107.703844 97.942 169.7756
1115.730723 98.091 170.0071
1123.815768 98.237 170.0910
1131.959400 98.373 170.0304
1140.162045 98.494 169.8403
1148.424129 98.596 169.5448
1156.746083 98.677 169.1734
1165.128342 98.736 168.7567
1173.571343 98.776 168.3231
1182.075524 98.798 167.8972
1190.641331 98.806 167.4983
1199.269209 98.804 167.1400
1207.959608 98.795 166.8310
1216.712981 98.784 166.5756
1225.529785 98.773 166.3745
1234.410479 98.765 166.2257
1243.355526 98.762 166.1252
1252.365393 98.766 166.0677
1261.440549 98.777 166.0473
1270.581467 98.796 166.0574
1279.788624 98.822 166.0920
1289.062500 98.855 166.1450
1298.403578 98.894 166.2111
1307.812346 98.937 166.2859
1317.289293 98.983 166.3662
1326.834914 99.031 166.4494
1336.449707 99.079 166.5342
1346.134173 99.127 166.6199
1355.888816 99.173 166.7061
1365.714145 99.217 166.7928
1375.610673 99.258 166.8801
1385.578915 99.297 166.9678
1395.619391 99.332 167.0556
1405.732624 99.363 167.1432
1415.919142 99.392 167.2305
1426.179476 99.418 167.3168
1436.514160 99.440 167.4021
1446.923734 99.460 167.4860
1457.408740 99.478 167.5682
1467.969724 99.494 167.6485
1478.607238 99.508 167.7268
1489.321836 99.520 167.8027
1500.114076 99.529 167.8763
1510.984521 99.536 167.9471
1521.933737 99.540 168.0153
1532.962297 99.542 168.0807
1544.070773 99.540 168.1433
1555.259747 99.534 168.2032
1566.529800 99.526 168.2602
1577.881521 99.514 168.3145
1589.315501 99.500 168.3660
1600.832336 99.483 168.4149
1612.432627 99.466 168.4612
1624.116978 99.447 168.5049
1635.886000 99.427 168.5463
1647.740304 99.407 168.5853
1659.680509 99.387 168.6221
1671.707238 99.367 168.6569
1683.821118 99.346 168.6895
1696.022780 99.324 168.7203
1708.312860 99.302 168.7494
1720.692000 99.280 168.7769
1733.160843 99.256 168.8032
1745.720041 99.233 168.8285
1758.370248 99.209 168.8533
1771.112124 99.186 168.8779
1783.946332 99.164 168.9028
1796.873543 99.143 168.9285
1809.894429 99.123 168.9553
1823.009670 99.104 168.9838
1836.219950 99.085 169.0147
1849.525956 99.067 169.0486
1862.928384 99.048 169.0864
1876.427931 99.028 169.1290
1890.025301 99.006 169.1774
1903.721204 98.981 169.2326
1917.516352 98.953 169.2956
1931.411466 98.921 169.3675
1945.407270 98.885 169.4490
1959.504493 98.845 169.5411
1973.703870 98.801 169.6443
1988.006142 98.754 169.7592
2002.412054 98.705 169.8864
2016.922357 98.653 170.0261
2031.537808 98.601 170.1788
2046.259169 98.549 170.3448
2061.087206 98.498 170.5243
2076.022694 98.449 170.7178
2091.066410 98.403 170.9259
2106.219139 98.361 171.1489
2121.481671 98.323 171.3875
2136.854802 98.290 171.6421
2152.339333 98.262 171.9131
2167.936071 98.242 172.2007
2183.645829 98.228 172.5048
2199.469427 98.223 172.8250
2215.407689 98.226 173.1605
2231.461446 98.237 173.5101
2247.631536 98.259 173.8722
2263.918800 98.290 174.2449
2280.324089 98.331 174.6260
2296.848258 98.382 175.0129
2313.492167 98.442 175.4032
2330.256685 98.512 175.7945
2347.142685 98.590 176.1845
2364.151049 98.675 176.5712
2381.282662 98.767 176.9531
2398.538418 98.863 177.3289
2415.919216 98.964 177.6978
2433.425962 99.067 178.0596
2451.059570 99.171 178.4139
2468.820958 99.275 178.7610
2486.711052 99.378 179.1014
2504.730786 99.479 179.4355
2522.881098 99.577 179.7642
2541.162934 99.671 -179.9119
2559.577248 99.761 -179.5918
2578.125000 99.845 -179.2745
2596.807157 99.924 -178.9590
2615.624692 99.997 -178.6443
2634.578586 100.063 -178.3293
2653.669829 100.124 -178.0134
2672.899414 100.178 -177.6960
2692.268345 100.226 -177.3770
2711.777632 100.270 -177.0569
2731.428290 100.307 -176.7372
2751.221345 100.341 -176.4198
2771.157829 100.370 -176.1074
2791.238781 100.395 -175.8031
2811.465248 100.416 -175.5098
2831.838284 100.433 -175.2298
2852.358952 100.446 -174.9650
2873.028321 100.455 -174.7158
2893.847468 100.459 -174.4821
2914.817480 100.460 -174.2624
2935.939449 100.455 -174.0548
2957.214476 100.446 -173.8568
2978.643672 100.432 -173.6652
3000.228152 100.414 -173.4768
3021.969041 100.392 -173.2886
3043.867475 100.367 -173.0974
3065.924593 100.339 -172.9006
3088.141547 100.309 -172.6960
3110.519493 100.277 -172.4820
3133.059600 100.244 -172.2574
3155.763041 100.211 -172.0213
