* Measurement data measured by REW V5.31.3
* Source: EXCL: Headset (USB-C to 3.5mm Headphone Jack Adapter), MICROPHONE (Master Volume), 0, volume: 0.260
* Format: 256k Log Swept Sine, 1 sweep at -12.0 dBFS with no timing reference
* Dated: Feb 21, 2025 5:24:24 PM
* REW Settings:
*  C-weighting compensation: Off
*  Target level: 75.0 dB
* Note: ; 
* Measurement: Ouroboros (Golem Mod) L
* Smoothing: 1/6 octave
* Frequency Step: 96 ppo
* Start Frequency: 20.0 Hz
*
* Freq(Hz) SPL(dB) Phase(degrees)
20.141602 106.529 -115.3918
20.287556 106.510 -115.6210
20.434568 106.486 -115.9274
20.582645 106.456 -116.3008
20.731796 106.422 -116.7301
20.882027 106.385 -117.2046
21.033346 106.346 -117.7147
21.185763 106.305 -118.2519
21.339284 106.265 -118.8094
21.493917 106.224 -119.3817
21.649671 106.184 -119.9646
21.806553 106.145 -120.5552
21.964572 106.107 -121.1513
22.123737 106.070 -121.7516
22.284054 106.034 -122.3553
22.445534 105.998 -122.9622
22.608183 105.963 -123.5722
22.772012 105.928 -124.1856
22.937027 105.894 -124.8030
23.103238 105.859 -125.4249
23.270654 105.825 -126.0517
23.439282 105.791 -126.6839
23.609133 105.757 -127.3215
23.780215 105.723 -127.9643
23.952536 105.689 -128.6117
24.126106 105.655 -129.2624
24.300934 105.622 -129.9147
24.477028 105.590 -130.5666
24.654399 105.557 -131.2157
24.833055 105.526 -131.8592
25.013005 105.495 -132.4946
25.194260 105.465 -133.1193
25.376828 105.436 -133.7313
25.560719 105.407 -134.3293
25.745942 105.380 -134.9123
25.932508 105.355 -135.4805
26.120426 105.330 -136.0345
26.309705 105.307 -136.5759
26.500356 105.285 -137.1065
26.692388 105.264 -137.6288
26.885812 105.245 -138.1449
27.080638 105.227 -138.6574
27.276876 105.209 -139.1679
27.474535 105.193 -139.6781
27.673627 105.177 -140.1887
27.874161 105.162 -140.6999
28.076149 105.146 -141.2112
28.279600 105.130 -141.7216
28.484526 105.113 -142.2295
28.690937 105.095 -142.7328
28.898843 105.075 -143.2293
29.108256 105.053 -143.7162
29.319186 105.029 -144.1910
29.531645 105.001 -144.6512
29.745644 104.970 -145.0945
29.961193 104.936 -145.5193
30.178304 104.900 -145.9245
30.396989 104.861 -146.3101
30.617258 104.820 -146.6766
30.839123 104.779 -147.0254
31.062596 104.736 -147.3587
31.287688 104.694 -147.6786
31.514412 104.653 -147.9874
31.742778 104.613 -148.2871
31.972800 104.576 -148.5792
32.204488 104.542 -148.8647
32.437855 104.511 -149.1441
32.672913 104.485 -149.4180
32.909674 104.464 -149.6871
33.148151 104.448 -149.9524
33.388356 104.438 -150.2156
33.630302 104.434 -150.4787
33.874001 104.434 -150.7442
34.119466 104.439 -151.0139
34.366710 104.446 -151.2896
34.615745 104.455 -151.5718
34.866585 104.465 -151.8600
35.119243 104.473 -152.1524
35.373731 104.478 -152.4464
35.630064 104.479 -152.7385
35.888254 104.475 -153.0251
36.148315 104.465 -153.3026
36.410261 104.450 -153.5675
36.674104 104.429 -153.8174
36.939860 104.402 -154.0502
37.207542 104.370 -154.2650
37.477163 104.333 -154.4613
37.748738 104.293 -154.6396
38.022281 104.249 -154.8006
38.297806 104.203 -154.9454
38.575327 104.155 -155.0756
38.854860 104.107 -155.1927
39.136419 104.059 -155.2987
39.420017 104.011 -155.3959
39.705671 103.966 -155.4870
39.993395 103.923 -155.5748
40.283203 103.882 -155.6626
40.575112 103.845 -155.7534
40.869136 103.811 -155.8501
41.165290 103.779 -155.9547
41.463591 103.751 -156.0685
41.764053 103.726 -156.1921
42.066693 103.704 -156.3255
42.371525 103.684 -156.4684
42.678567 103.667 -156.6203
42.987834 103.653 -156.7810
43.299341 103.642 -156.9502
43.613106 103.633 -157.1280
43.929145 103.628 -157.3142
44.247473 103.624 -157.5088
44.568109 103.623 -157.7111
44.891068 103.623 -157.9205
45.216367 103.625 -158.1359
45.544023 103.627 -158.3560
45.874054 103.629 -158.5794
46.206476 103.632 -158.8048
46.541307 103.636 -159.0312
46.878565 103.639 -159.2579
47.218266 103.643 -159.4843
47.560429 103.649 -159.7099
47.905072 103.654 -159.9342
48.252212 103.661 -160.1564
48.601867 103.669 -160.3760
48.954056 103.678 -160.5923
49.308798 103.687 -160.8047
49.666109 103.697 -161.0130
50.026010 103.707 -161.2163
50.388520 103.717 -161.4138
50.753656 103.726 -161.6045
51.121437 103.735 -161.7871
51.491884 103.743 -161.9606
51.865016 103.751 -162.1239
52.240851 103.759 -162.2763
52.619410 103.766 -162.4171
53.000712 103.772 -162.5458
53.384777 103.779 -162.6620
53.771625 103.785 -162.7657
54.161276 103.790 -162.8569
54.553751 103.794 -162.9365
54.949070 103.798 -163.0056
55.347254 103.802 -163.0656
55.748323 103.805 -163.1178
56.152298 103.809 -163.1635
56.559201 103.813 -163.2040
56.969052 103.819 -163.2403
57.381873 103.827 -163.2735
57.797686 103.838 -163.3047
58.216512 103.854 -163.3354
58.638373 103.874 -163.3674
59.063291 103.898 -163.4025
59.491288 103.928 -163.4429
59.922386 103.963 -163.4906
60.356608 104.003 -163.5477
60.793977 104.047 -163.6166
61.234515 104.096 -163.6998
61.678246 104.149 -163.7999
62.125192 104.205 -163.9195
62.575377 104.263 -164.0611
63.028824 104.324 -164.2269
63.485557 104.385 -164.4186
63.945599 104.447 -164.6375
64.408975 104.509 -164.8840
64.875709 104.570 -165.1580
65.345825 104.630 -165.4587
65.819348 104.689 -165.7848
66.296302 104.746 -166.1351
66.776713 104.802 -166.5082
67.260604 104.857 -166.9029
67.748002 104.910 -167.3185
68.238932 104.962 -167.7543
68.733420 105.012 -168.2098
69.231490 105.061 -168.6848
69.733170 105.108 -169.1790
70.238485 105.153 -169.6917
70.747463 105.197 -170.2225
71.260128 105.240 -170.7706
71.776508 105.280 -171.3352
72.296630 105.318 -171.9154
72.820521 105.355 -172.5105
73.348209 105.389 -173.1195
73.879720 105.421 -173.7414
74.415083 105.451 -174.3755
74.954326 105.478 -175.0206
75.497475 105.503 -175.6756
76.044561 105.524 -176.3392
76.595612 105.543 -177.0099
77.150655 105.559 -177.6862
77.709720 105.572 -178.3666
78.272837 105.582 -179.0497
78.840034 105.588 -179.7342
79.411342 105.592 179.5808
79.986789 105.592 178.8958
80.566406 105.589 178.2110
81.150224 105.584 177.5264
81.738272 105.575 176.8418
82.330581 105.564 176.1570
82.927182 105.550 175.4722
83.528107 105.533 174.7874
84.133386 105.514 174.1028
84.743051 105.493 173.4187
85.357134 105.470 172.7353
85.975667 105.445 172.0531
86.598682 105.419 171.3726
87.226212 105.390 170.6945
87.858289 105.360 170.0199
88.494946 105.329 169.3495
89.136217 105.296 168.6838
89.782135 105.262 168.0236
90.432733 105.227 167.3688
91.088046 105.191 166.7200
91.748108 105.154 166.0773
92.412952 105.115 165.4412
93.082615 105.075 164.8119
93.757130 105.032 164.1896
94.436533 104.987 163.5745
95.120859 104.939 162.9664
95.810144 104.888 162.3651
96.504423 104.834 161.7706
97.203734 104.775 161.1830
97.908112 104.713 160.6026
98.617595 104.646 160.0298
99.332219 104.576 159.4655
100.052021 104.501 158.9100
100.777039 104.423 158.3644
101.507311 104.342 157.8293
102.242875 104.259 157.3054
102.983769 104.172 156.7932
103.730032 104.084 156.2935
104.481702 103.995 155.8065
105.238820 103.904 155.3328
106.001424 103.812 154.8726
106.769554 103.720 154.4258
107.543250 103.628 153.9925
108.322553 103.536 153.5727
109.107503 103.443 153.1664
109.898141 103.352 152.7736
110.694508 103.260 152.3945
111.496646 103.168 152.0294
112.304596 103.076 151.6788
113.118402 102.983 151.3432
113.938104 102.889 151.0229
114.763747 102.794 150.7184
115.595372 102.697 150.4299
116.433024 102.598 150.1574
117.276746 102.497 149.9010
118.126581 102.394 149.6608
118.982575 102.289 149.4364
119.844772 102.183 149.2278
120.713217 102.075 149.0349
121.587954 101.967 148.8572
122.469031 101.857 148.6953
123.356492 101.747 148.5493
124.250384 101.637 148.4202
125.150753 101.527 148.3087
126.057647 101.417 148.2159
126.971113 101.307 148.1429
127.891198 101.199 148.0906
128.817950 101.091 148.0593
129.751418 100.985 148.0493
130.691651 100.879 148.0607
131.638696 100.775 148.0934
132.592604 100.672 148.1476
133.553425 100.570 148.2235
134.521208 100.468 148.3216
135.496004 100.367 148.4423
136.477864 100.265 148.5863
137.466839 100.163 148.7542
138.462981 100.061 148.9464
139.466340 99.957 149.1632
140.476971 99.852 149.4049
141.494925 99.746 149.6715
142.520256 99.639 149.9632
143.553016 99.531 150.2800
144.593260 99.422 150.6223
145.641043 99.314 150.9902
146.696418 99.205 151.3837
147.759441 99.099 151.8027
148.830166 98.994 152.2467
149.908651 98.892 152.7150
150.994951 98.794 153.2068
152.089123 98.700 153.7210
153.191223 98.611 154.2568
154.301310 98.527 154.8129
155.419441 98.448 155.3882
156.545674 98.375 155.9817
157.680069 98.307 156.5920
158.822683 98.245 157.2181
159.973578 98.188 157.8584
161.132813 98.136 158.5114
162.300447 98.090 159.1754
163.476543 98.048 159.8486
164.661162 98.012 160.5286
165.854364 97.980 161.2133
167.056213 97.953 161.9005
168.266772 97.931 162.5877
169.486102 97.914 163.2729
170.714268 97.900 163.9538
171.951334 97.892 164.6284
173.197364 97.887 165.2946
174.452424 97.886 165.9506
175.716578 97.889 166.5946
176.989893 97.895 167.2254
178.272434 97.904 167.8418
179.564270 97.915 168.4433
180.865467 97.929 169.0294
182.176092 97.944 169.5998
183.496216 97.960 170.1548
184.825905 97.978 170.6947
186.165229 97.996 171.2203
187.514259 98.015 171.7328
188.873065 98.034 172.2333
190.241717 98.054 172.7232
191.620287 98.074 173.2037
193.008847 98.094 173.6753
194.407468 98.116 174.1379
195.816225 98.139 174.5902
197.235190 98.164 175.0297
198.664438 98.191 175.4528
200.104042 98.220 175.8549
201.554078 98.252 176.2311
203.014622 98.287 176.5767
204.485750 98.324 176.8874
205.967538 98.364 177.1602
207.460064 98.407 177.3933
208.963405 98.453 177.5865
210.477640 98.501 177.7409
212.002848 98.551 177.8584
213.539108 98.605 177.9418
215.086500 98.660 177.9943
216.645105 98.718 178.0194
218.215005 98.779 178.0204
219.796281 98.841 178.0004
221.389015 98.905 177.9625
222.993292 98.972 177.9090
224.609193 99.039 177.8423
226.236804 99.107 177.7641
227.876209 99.176 177.6760
229.527494 99.246 177.5794
231.190745 99.315 177.4755
232.866048 99.384 177.3654
234.553491 99.452 177.2502
236.253163 99.519 177.1308
237.965150 99.586 177.0081
239.689544 99.650 176.8828
241.426433 99.713 176.7555
243.175909 99.775 176.6266
244.938062 99.834 176.4965
246.712984 99.891 176.3652
248.500768 99.945 176.2330
250.301507 99.997 176.0999
252.115295 100.047 175.9661
253.942226 100.094 175.8315
255.782396 100.139 175.6965
257.635901 100.182 175.5608
259.502837 100.224 175.4247
261.383301 100.263 175.2879
263.277392 100.302 175.1503
265.185209 100.338 175.0117
267.106850 100.372 174.8718
269.042417 100.405 174.7302
270.992009 100.434 174.5866
272.955729 100.461 174.4407
274.933678 100.485 174.2924
276.925961 100.504 174.1413
278.932681 100.519 173.9874
280.953942 100.530 173.8306
282.989850 100.536 173.6707
285.040511 100.537 173.5076
287.106032 100.532 173.3414
289.186521 100.523 173.1721
291.282086 100.508 172.9999
293.392836 100.489 172.8249
295.518881 100.465 172.6473
297.660333 100.437 172.4677
299.817302 100.406 172.2863
301.989902 100.372 172.1036
304.178245 100.335 171.9200
306.382446 100.297 171.7360
308.602620 100.258 171.5520
310.838882 100.219 171.3685
313.091348 100.179 171.1862
315.360137 100.141 171.0053
317.645367 100.104 170.8267
319.947156 100.069 170.6507
322.265625 100.038 170.4778
324.600895 100.009 170.3085
326.953086 99.984 170.1428
329.322323 99.963 169.9809
331.708729 99.946 169.8228
334.112427 99.934 169.6685
336.533543 99.926 169.5180
338.972204 99.923 169.3712
341.428536 99.925 169.2281
343.902668 99.932 169.0887
346.394729 99.942 168.9529
348.904848 99.956 168.8208
351.433156 99.972 168.6924
353.979786 99.991 168.5677
356.544869 100.010 168.4469
359.128540 100.030 168.3298
361.730934 100.049 168.2164
364.352185 100.066 168.1068
366.992431 100.081 168.0007
369.651810 100.092 167.8982
372.330459 100.100 167.7991
375.028519 100.103 167.7032
377.746130 100.102 167.6104
380.483434 100.095 167.5202
383.240574 100.084 167.4326
386.017693 100.068 167.3472
388.814937 100.047 167.2641
391.632450 100.023 167.1830
394.470380 99.996 167.1041
397.328875 99.966 167.0273
400.208084 99.936 166.9526
403.108157 99.906 166.8800
406.029245 99.878 166.8093
408.971500 99.851 166.7405
411.935076 99.828 166.6733
414.920127 99.809 166.6073
417.926810 99.795 166.5421
420.955280 99.785 166.4772
424.005695 99.780 166.4120
427.078215 99.779 166.3459
430.173000 99.782 166.2784
433.290211 99.788 166.2089
436.430010 99.795 166.1368
439.592562 99.804 166.0616
442.778031 99.813 165.9828
445.986583 99.822 165.8999
449.218386 99.828 165.8125
452.473607 99.832 165.7203
455.752418 99.833 165.6231
459.054987 99.832 165.5209
462.381489 99.827 165.4139
465.732096 99.819 165.3023
469.106983 99.808 165.1865
472.506325 99.795 165.0670
475.930301 99.779 164.9441
479.379088 99.761 164.8184
482.852867 99.741 164.6906
486.351817 99.719 164.5614
489.876123 99.695 164.4316
493.425968 99.670 164.3024
497.001536 99.645 164.1750
500.603014 99.619 164.0509
504.230589 99.594 163.9317
507.884452 99.571 163.8194
511.564792 99.549 163.7161
515.271802 99.531 163.6240
519.005673 99.518 163.5456
522.766602 99.509 163.4830
526.554785 99.507 163.4382
530.370418 99.510 163.4123
534.213700 99.520 163.4053
538.084833 99.537 163.4161
541.984018 99.559 163.4424
545.911457 99.586 163.4807
549.867357 99.616 163.5271
553.851922 99.649 163.5778
557.865362 99.682 163.6292
561.907884 99.714 163.6781
565.979700 99.742 163.7222
570.081022 99.767 163.7597
574.212064 99.785 163.7893
578.373042 99.797 163.8103
582.564171 99.801 163.8221
586.785671 99.796 163.8244
591.037762 99.782 163.8170
595.320665 99.758 163.7997
599.634604 99.725 163.7724
603.979804 99.682 163.7351
608.356491 99.629 163.6878
612.764893 99.569 163.6305
617.205240 99.501 163.5635
621.677763 99.427 163.4872
626.182696 99.349 163.4021
630.720274 99.268 163.3089
635.290733 99.187 163.2082
639.894312 99.106 163.1007
644.531250 99.028 162.9873
649.201789 98.953 162.8686
653.906173 98.882 162.7455
658.644647 98.817 162.6188
663.417457 98.759 162.4893
668.224854 98.706 162.3579
673.067086 98.661 162.2255
677.944408 98.623 162.0931
682.857073 98.591 161.9617
687.805336 98.566 161.8326
692.789457 98.548 161.7067
697.809695 98.536 161.5854
702.866312 98.529 161.4698
707.959571 98.526 161.3613
713.089738 98.526 161.2610
718.257080 98.528 161.1700
723.461867 98.530 161.0895
728.704370 98.532 161.0204
733.984862 98.531 160.9635
739.303619 98.527 160.9193
744.660918 98.519 160.8883
750.057038 98.507 160.8708
755.492260 98.491 160.8670
760.966869 98.471 160.8767
766.481148 98.447 160.8997
772.035387 98.421 160.9355
777.629873 98.391 160.9835
783.264900 98.360 161.0427
788.940760 98.326 161.1124
794.657750 98.290 161.1915
800.416168 98.250 161.2789
806.216313 98.207 161.3735
812.058489 98.158 161.4744
817.943000 98.104 161.5807
823.870152 98.043 161.6916
829.840255 97.976 161.8066
835.853619 97.903 161.9254
841.910559 97.824 162.0479
848.011390 97.741 162.1737
854.156430 97.656 162.3029
860.346000 97.571 162.4351
866.580422 97.489 162.5696
872.860020 97.412 162.7057
879.185124 97.343 162.8420
885.556062 97.284 162.9769
891.973166 97.236 163.1078
898.436771 97.202 163.2316
904.947215 97.181 163.3449
911.504835 97.172 163.4439
918.109975 97.175 163.5247
924.762978 97.187 163.5840
931.464192 97.207 163.6193
938.213966 97.230 163.6300
945.012651 97.255 163.6174
951.860602 97.277 163.5855
958.758176 97.296 163.5409
965.705733 97.308 163.4925
972.703635 97.312 163.4511
979.752246 97.307 163.4286
986.851935 97.295 163.4366
994.003071 97.275 163.4861
1001.206027 97.250 163.5869
1008.461179 97.221 163.7468
1015.768904 97.191 163.9722
1023.129584 97.163 164.2676
1030.543603 97.141 164.6357
1038.011347 97.129 165.0770
1045.533205 97.130 165.5887
1053.109569 97.147 166.1642
1060.740836 97.185 166.7913
1068.427401 97.245 167.4515
1076.169666 97.328 168.1200
1083.968035 97.433 168.7657
1091.822915 97.559 169.3544
1099.734713 97.700 169.8515
1107.703844 97.852 170.2274
1115.730723 98.006 170.4612
1123.815768 98.157 170.5438
1131.959400 98.297 170.4794
1140.162045 98.421 170.2836
1148.424129 98.526 169.9814
1156.746083 98.610 169.6022
1165.128342 98.672 169.1767
1173.571343 98.713 168.7334
1182.075524 98.738 168.2963
1190.641331 98.748 167.8843
1199.269209 98.748 167.5108
1207.959608 98.741 167.1843
1216.712981 98.731 166.9089
1225.529785 98.721 166.6855
1234.410479 98.713 166.5123
1243.355526 98.710 166.3859
1252.365393 98.713 166.3017
1261.440549 98.723 166.2543
1270.581467 98.739 166.2383
1279.788624 98.763 166.2483
1289.062500 98.792 166.2790
1298.403578 98.827 166.3260
1307.812346 98.866 166.3857
1317.289293 98.908 166.4549
1326.834914 98.952 166.5316
1336.449707 98.996 166.6143
1346.134173 99.040 166.7021
1355.888816 99.083 166.7942
1365.714145 99.123 166.8899
1375.610673 99.162 166.9885
1385.578915 99.198 167.0894
1395.619391 99.231 167.1915
1405.732624 99.261 167.2942
1415.919142 99.289 167.3968
1426.179476 99.313 167.4987
1436.514160 99.335 167.5993
1446.923734 99.355 167.6982
1457.408740 99.372 167.7952
1467.969724 99.388 167.8898
1478.607238 99.401 167.9818
1489.321836 99.412 168.0708
1500.114076 99.421 168.1567
1510.984521 99.428 168.2394
1521.933737 99.432 168.3188
1532.962297 99.432 168.3948
1544.070773 99.429 168.4675
1555.259747 99.423 168.5369
1566.529800 99.414 168.6028
1577.881521 99.401 168.6654
1589.315501 99.386 168.7245
1600.832336 99.369 168.7801
1612.432627 99.350 168.8322
1624.116978 99.330 168.8808
1635.886000 99.309 168.9259
1647.740304 99.288 168.9675
1659.680509 99.267 169.0057
1671.707238 99.245 169.0405
1683.821118 99.223 169.0719
1696.022780 99.201 169.1002
1708.312860 99.178 169.1256
1720.692000 99.154 169.1487
1733.160843 99.131 169.1699
1745.720041 99.107 169.1901
1758.370248 99.083 169.2099
1771.112124 99.060 169.2302
1783.946332 99.038 169.2518
1796.873543 99.017 169.2756
1809.894429 98.997 169.3022
1823.009670 98.978 169.3326
1836.219950 98.960 169.3672
1849.525956 98.942 169.4072
1862.928384 98.924 169.4532
1876.427931 98.905 169.5064
1890.025301 98.883 169.5679
1903.721204 98.859 169.6388
1917.516352 98.832 169.7200
1931.411466 98.801 169.8126
1945.407270 98.766 169.9171
1959.504493 98.728 170.0341
1973.703870 98.686 170.1638
1988.006142 98.641 170.3062
2002.412054 98.594 170.4613
2016.922357 98.545 170.6288
2031.537808 98.496 170.8082
2046.259169 98.447 170.9994
2061.087206 98.401 171.2020
2076.022694 98.356 171.4160
2091.066410 98.315 171.6416
2106.219139 98.278 171.8791
2121.481671 98.246 172.1290
2136.854802 98.219 172.3919
2152.339333 98.199 172.6682
2167.936071 98.186 172.9580
2183.645829 98.181 173.2613
2199.469427 98.184 173.5775
2215.407689 98.195 173.9057
2231.461446 98.216 174.2444
2247.631536 98.247 174.5920
2263.918800 98.288 174.9462
2280.324089 98.338 175.3046
2296.848258 98.399 175.6645
2313.492167 98.468 176.0233
2330.256685 98.546 176.3786
2347.142685 98.632 176.7280
2364.151049 98.725 177.0696
2381.282662 98.822 177.4019
2398.538418 98.924 177.7238
2415.919216 99.029 178.0350
2433.425962 99.136 178.3354
2451.059570 99.242 178.6255
2468.820958 99.348 178.9064
2486.711052 99.451 179.1790
2504.730786 99.552 179.4451
2522.881098 99.648 179.7061
2541.162934 99.740 179.9639
2559.577248 99.826 -179.7798
2578.125000 99.907 -179.5230
2596.807157 99.981 -179.2640
2615.624692 100.049 -179.0010
2634.578586 100.110 -178.7327
2653.669829 100.165 -178.4579
2672.899414 100.214 -178.1762
2692.268345 100.258 -177.8876
2711.777632 100.296 -177.5934
2731.428290 100.329 -177.2955
2751.221345 100.359 -176.9969
2771.157829 100.384 -176.7012
2791.238781 100.406 -176.4122
2811.465248 100.425 -176.1335
2831.838284 100.440 -175.8684
2852.358952 100.451 -175.6191
2873.028321 100.459 -175.3867
2893.847468 100.462 -175.1712
2914.817480 100.461 -174.9718
2935.939449 100.456 -174.7866
2957.214476 100.446 -174.6132
2978.643672 100.431 -174.4487
3000.228152 100.413 -174.2900
3021.969041 100.390 -174.1338
3043.867475 100.363 -173.9771
3065.924593 100.334 -173.8171
3088.141547 100.302 -173.6516
3110.519493 100.268 -173.4785
3133.059600 100.233 -173.2963
3155.763041 100.197 -173.1039
3178.631001 100.160 -172.9003
3201.664672 100.124 -172.6849
