* Measurement data measured by REW V5.31.3
* Source: EXCL: Headset (USB-C to 3.5mm Headphone Jack Adapter), MICROPHONE (Master Volume), 0, volume: 0.260
* Format: 256k Log Swept Sine, 1 sweep at -12.0 dBFS with no timing reference
* Dated: Mar 5, 2025 10:56:12 AM
* REW Settings:
*  C-weighting compensation: Off
*  Target level: 75.0 dB
* Note: ; 
* Measurement: Ouroboros Reprint R3
* Smoothing: 1/6 octave
* Frequency Step: 96 ppo
* Start Frequency: 20.0 Hz
*
* Freq(Hz) SPL(dB) Phase(degrees)
20.141602 98.198 -119.3944
20.287556 98.173 -119.5534
20.434568 98.140 -119.7699
20.582645 98.101 -120.0420
20.731796 98.058 -120.3674
20.882027 98.013 -120.7442
21.033346 97.967 -121.1702
21.185763 97.921 -121.6424
21.339284 97.876 -122.1568
21.493917 97.832 -122.7081
21.649671 97.791 -123.2891
21.806553 97.750 -123.8918
21.964572 97.712 -124.5070
22.123737 97.674 -125.1254
22.284054 97.638 -125.7385
22.445534 97.603 -126.3394
22.608183 97.570 -126.9232
22.772012 97.538 -127.4878
22.937027 97.509 -128.0335
23.103238 97.481 -128.5633
23.270654 97.454 -129.0814
23.439282 97.429 -129.5928
23.609133 97.403 -130.1022
23.780215 97.376 -130.6129
23.952536 97.347 -131.1259
24.126106 97.315 -131.6402
24.300934 97.279 -132.1523
24.477028 97.241 -132.6573
24.654399 97.200 -133.1496
24.833055 97.158 -133.6240
25.013005 97.115 -134.0767
25.194260 97.075 -134.5063
25.376828 97.039 -134.9140
25.560719 97.007 -135.3031
25.745942 96.982 -135.6789
25.932508 96.963 -136.0467
26.120426 96.949 -136.4114
26.309705 96.940 -136.7758
26.500356 96.934 -137.1402
26.692388 96.931 -137.5026
26.885812 96.928 -137.8589
27.080638 96.926 -138.2047
27.276876 96.924 -138.5363
27.474535 96.923 -138.8524
27.673627 96.922 -139.1552
27.874161 96.924 -139.4504
28.076149 96.927 -139.7469
28.279600 96.930 -140.0555
28.484526 96.934 -140.3867
28.690937 96.935 -140.7486
28.898843 96.931 -141.1454
29.108256 96.921 -141.5763
29.319186 96.901 -142.0354
29.531645 96.872 -142.5129
29.745644 96.832 -142.9969
29.961193 96.782 -143.4755
30.178304 96.724 -143.9392
30.396989 96.660 -144.3826
30.617258 96.593 -144.8050
30.839123 96.525 -145.2104
31.062596 96.459 -145.6058
31.287688 96.395 -145.9994
31.514412 96.334 -146.3980
31.742778 96.276 -146.8046
31.972800 96.221 -147.2176
32.204488 96.166 -147.6301
32.437855 96.113 -148.0306
32.672913 96.060 -148.4050
32.909674 96.008 -148.7386
33.148151 95.959 -149.0183
33.388356 95.912 -149.2346
33.630302 95.871 -149.3836
33.874001 95.836 -149.4672
34.119466 95.808 -149.4935
34.366710 95.787 -149.4753
34.615745 95.773 -149.4288
34.866585 95.764 -149.3715
35.119243 95.760 -149.3199
35.373731 95.757 -149.2880
35.630064 95.752 -149.2854
35.888254 95.745 -149.3172
36.148315 95.732 -149.3839
36.410261 95.713 -149.4815
36.674104 95.687 -149.6025
36.939860 95.653 -149.7367
37.207542 95.611 -149.8723
37.477163 95.564 -149.9964
37.748738 95.511 -150.0961
38.022281 95.454 -150.1591
38.297806 95.396 -150.1747
38.575327 95.337 -150.1345
38.854860 95.280 -150.0335
39.136419 95.226 -149.8706
39.420017 95.177 -149.6494
39.705671 95.134 -149.3778
39.993395 95.099 -149.0677
40.283203 95.071 -148.7341
40.575112 95.050 -148.3935
40.869136 95.036 -148.0629
41.165290 95.029 -147.7580
41.463591 95.028 -147.4921
41.764053 95.032 -147.2753
42.066693 95.041 -147.1136
42.371525 95.054 -147.0089
42.678567 95.071 -146.9592
42.987834 95.092 -146.9586
43.299341 95.117 -146.9983
43.613106 95.145 -147.0676
43.929145 95.177 -147.1545
44.247473 95.212 -147.2474
44.568109 95.251 -147.3356
44.891068 95.292 -147.4106
45.216367 95.335 -147.4666
45.544023 95.380 -147.5012
45.874054 95.427 -147.5149
46.206476 95.475 -147.5114
46.541307 95.525 -147.4964
46.878565 95.577 -147.4773
47.218266 95.631 -147.4617
47.560429 95.689 -147.4570
47.905072 95.750 -147.4693
48.252212 95.815 -147.5034
48.601867 95.884 -147.5625
48.954056 95.957 -147.6481
49.308798 96.034 -147.7606
49.666109 96.114 -147.8997
50.026010 96.197 -148.0642
50.388520 96.281 -148.2529
50.753656 96.365 -148.4647
51.121437 96.450 -148.6984
51.491884 96.533 -148.9536
51.865016 96.615 -149.2299
52.240851 96.696 -149.5273
52.619410 96.775 -149.8457
53.000712 96.852 -150.1855
53.384777 96.927 -150.5465
53.771625 97.002 -150.9286
54.161276 97.075 -151.3315
54.553751 97.146 -151.7545
54.949070 97.215 -152.1967
55.347254 97.282 -152.6570
55.748323 97.345 -153.1341
56.152298 97.406 -153.6269
56.559201 97.464 -154.1346
56.969052 97.519 -154.6566
57.381873 97.572 -155.1919
57.797686 97.623 -155.7390
58.216512 97.673 -156.2951
58.638373 97.721 -156.8560
59.063291 97.769 -157.4164
59.491288 97.815 -157.9707
59.922386 97.858 -158.5145
60.356608 97.899 -159.0456
60.793977 97.937 -159.5647
61.234515 97.972 -160.0752
61.678246 98.003 -160.5825
62.125192 98.031 -161.0922
62.575377 98.055 -161.6091
63.028824 98.077 -162.1364
63.485557 98.095 -162.6753
63.945599 98.110 -163.2254
64.408975 98.121 -163.7851
64.875709 98.130 -164.3523
65.345825 98.135 -164.9243
65.819348 98.138 -165.4989
66.296302 98.138 -166.0735
66.776713 98.136 -166.6460
67.260604 98.133 -167.2147
67.748002 98.128 -167.7783
68.238932 98.121 -168.3361
68.733420 98.114 -168.8880
69.231490 98.105 -169.4343
69.733170 98.095 -169.9756
70.238485 98.084 -170.5127
70.747463 98.072 -171.0463
71.260128 98.058 -171.5769
71.776508 98.044 -172.1048
72.296630 98.029 -172.6296
72.820521 98.014 -173.1510
73.348209 97.997 -173.6680
73.879720 97.980 -174.1796
74.415083 97.961 -174.6848
74.954326 97.942 -175.1824
75.497475 97.922 -175.6716
76.044561 97.901 -176.1514
76.595612 97.878 -176.6212
77.150655 97.854 -177.0806
77.709720 97.829 -177.5291
78.272837 97.803 -177.9666
78.840034 97.776 -178.3932
79.411342 97.748 -178.8091
79.986789 97.721 -179.2146
80.566406 97.692 -179.6101
81.150224 97.664 -179.9962
81.738272 97.636 179.6267
82.330581 97.608 179.2583
82.927182 97.581 178.8983
83.528107 97.554 178.5468
84.133386 97.527 178.2035
84.743051 97.501 177.8685
85.357134 97.476 177.5415
85.975667 97.451 177.2217
86.598682 97.428 176.9081
87.226212 97.406 176.5994
87.858289 97.386 176.2941
88.494946 97.368 175.9906
89.136217 97.351 175.6874
89.782135 97.336 175.3831
90.432733 97.324 175.0763
91.088046 97.313 174.7660
91.748108 97.303 174.4515
92.412952 97.295 174.1323
93.082615 97.287 173.8082
93.757130 97.280 173.4788
94.436533 97.272 173.1435
95.120859 97.263 172.8019
95.810144 97.252 172.4534
96.504423 97.239 172.0979
97.203734 97.224 171.7357
97.908112 97.206 171.3676
98.617595 97.186 170.9942
99.332219 97.163 170.6164
100.052021 97.137 170.2350
100.777039 97.110 169.8503
101.507311 97.080 169.4629
102.242875 97.048 169.0733
102.983769 97.015 168.6823
103.730032 96.981 168.2906
104.481702 96.947 167.8991
105.238820 96.912 167.5084
106.001424 96.877 167.1191
106.769554 96.842 166.7314
107.543250 96.807 166.3451
108.322553 96.773 165.9601
109.107503 96.740 165.5765
109.898141 96.706 165.1943
110.694508 96.673 164.8136
111.496646 96.639 164.4344
112.304596 96.605 164.0565
113.118402 96.570 163.6800
113.938104 96.534 163.3052
114.763747 96.496 162.9326
115.595372 96.457 162.5629
116.433024 96.415 162.1969
117.276746 96.371 161.8355
118.126581 96.325 161.4796
118.982575 96.276 161.1299
119.844772 96.225 160.7874
120.713217 96.172 160.4526
121.587954 96.117 160.1257
122.469031 96.061 159.8066
123.356492 96.003 159.4950
124.250384 95.945 159.1901
125.150753 95.887 158.8915
126.057647 95.829 158.5984
126.971113 95.771 158.3106
127.891198 95.713 158.0277
128.817950 95.656 157.7499
129.751418 95.599 157.4774
130.691651 95.543 157.2109
131.638696 95.487 156.9512
132.592604 95.431 156.6990
133.553425 95.375 156.4552
134.521208 95.318 156.2205
135.496004 95.262 155.9952
136.477864 95.204 155.7799
137.466839 95.145 155.5748
138.462981 95.084 155.3799
139.466340 95.022 155.1953
140.476971 94.956 155.0210
141.494925 94.888 154.8572
142.520256 94.818 154.7037
143.553016 94.745 154.5608
144.593260 94.669 154.4284
145.641043 94.591 154.3072
146.696418 94.512 154.1976
147.759441 94.432 154.1005
148.830166 94.352 154.0163
149.908651 94.271 153.9457
150.994951 94.191 153.8888
152.089123 94.112 153.8454
153.191223 94.034 153.8148
154.301310 93.957 153.7965
155.419441 93.882 153.7896
156.545674 93.809 153.7935
157.680069 93.737 153.8075
158.822683 93.667 153.8312
159.973578 93.599 153.8643
161.132813 93.531 153.9070
162.300447 93.465 153.9595
163.476543 93.400 154.0222
164.661162 93.335 154.0953
165.854364 93.271 154.1791
167.056213 93.208 154.2733
168.266772 93.144 154.3775
169.486102 93.081 154.4915
170.714268 93.017 154.6148
171.951334 92.955 154.7474
173.197364 92.892 154.8894
174.452424 92.830 155.0407
175.716578 92.769 155.2013
176.989893 92.708 155.3709
178.272434 92.647 155.5491
179.564270 92.587 155.7353
180.865467 92.527 155.9289
182.176092 92.468 156.1295
183.496216 92.409 156.3371
184.825905 92.350 156.5513
186.165229 92.292 156.7723
187.514259 92.233 156.9999
188.873065 92.173 157.2339
190.241717 92.114 157.4740
191.620287 92.054 157.7195
193.008847 91.993 157.9701
194.407468 91.931 158.2252
195.816225 91.869 158.4844
197.235190 91.806 158.7474
198.664438 91.744 159.0139
200.104042 91.681 159.2838
201.554078 91.618 159.5568
203.014622 91.557 159.8326
204.485750 91.497 160.1107
205.967538 91.440 160.3900
207.460064 91.386 160.6695
208.963405 91.336 160.9482
210.477640 91.290 161.2252
212.002848 91.250 161.4998
213.539108 91.215 161.7717
215.086500 91.187 162.0404
216.645105 91.165 162.3057
218.215005 91.149 162.5673
219.796281 91.140 162.8248
221.389015 91.136 163.0781
222.993292 91.138 163.3267
224.609193 91.145 163.5704
226.236804 91.156 163.8088
227.876209 91.171 164.0417
229.527494 91.190 164.2687
231.190745 91.211 164.4898
232.866048 91.235 164.7050
234.553491 91.261 164.9145
236.253163 91.288 165.1187
237.965150 91.317 165.3183
239.689544 91.346 165.5139
241.426433 91.376 165.7062
243.175909 91.406 165.8958
244.938062 91.435 166.0829
246.712984 91.465 166.2678
248.500768 91.493 166.4503
250.301507 91.521 166.6305
252.115295 91.547 166.8087
253.942226 91.573 166.9849
255.782396 91.598 167.1593
257.635901 91.621 167.3319
259.502837 91.645 167.5029
261.383301 91.667 167.6723
263.277392 91.688 167.8406
265.185209 91.709 168.0083
267.106850 91.729 168.1757
269.042417 91.749 168.3428
270.992009 91.766 168.5095
272.955729 91.782 168.6753
274.933678 91.797 168.8402
276.925961 91.808 169.0039
278.932681 91.817 169.1664
280.953942 91.823 169.3276
282.989850 91.826 169.4870
285.040511 91.826 169.6442
287.106032 91.822 169.7984
289.186521 91.816 169.9487
291.282086 91.806 170.0941
293.392836 91.794 170.2335
295.518881 91.779 170.3657
297.660333 91.762 170.4896
299.817302 91.743 170.6040
301.989902 91.724 170.7079
304.178245 91.704 170.8003
306.382446 91.685 170.8807
308.602620 91.665 170.9488
310.838882 91.647 171.0043
313.091348 91.631 171.0475
315.360137 91.617 171.0788
317.645367 91.605 171.0988
319.947156 91.596 171.1082
322.265625 91.590 171.1079
324.600895 91.587 171.0986
326.953086 91.588 171.0810
329.322323 91.594 171.0556
331.708729 91.603 171.0231
334.112427 91.617 170.9843
336.533543 91.635 170.9399
338.972204 91.658 170.8906
341.428536 91.684 170.8370
343.902668 91.715 170.7798
346.394729 91.749 170.7196
348.904848 91.785 170.6569
351.433156 91.824 170.5921
353.979786 91.863 170.5256
356.544869 91.903 170.4576
359.128540 91.943 170.3882
361.730934 91.981 170.3177
364.352185 92.016 170.2461
366.992431 92.048 170.1735
369.651810 92.076 170.1002
372.330459 92.100 170.0264
375.028519 92.118 169.9522
377.746130 92.131 169.8778
380.483434 92.137 169.8032
383.240574 92.139 169.7288
386.017693 92.134 169.6545
388.814937 92.125 169.5810
391.632450 92.112 169.5084
394.470380 92.095 169.4373
397.328875 92.076 169.3679
400.208084 92.056 169.3005
403.108157 92.035 169.2350
406.029245 92.016 169.1710
408.971500 91.999 169.1079
411.935076 91.985 169.0448
414.920127 91.975 168.9808
417.926810 91.969 168.9152
420.955280 91.967 168.8474
424.005695 91.968 168.7775
427.078215 91.974 168.7054
430.173000 91.982 168.6318
433.290211 91.992 168.5573
436.430010 92.003 168.4824
439.592562 92.014 168.4082
442.778031 92.024 168.3352
445.986583 92.032 168.2643
449.218386 92.038 168.1961
452.473607 92.040 168.1313
455.752418 92.040 168.0705
459.054987 92.036 168.0141
462.381489 92.028 167.9625
465.732096 92.018 167.9158
469.106983 92.005 167.8742
472.506325 91.990 167.8376
475.930301 91.973 167.8058
479.379088 91.955 167.7784
482.852867 91.936 167.7551
486.351817 91.917 167.7353
489.876123 91.898 167.7182
493.425968 91.879 167.7035
497.001536 91.862 167.6907
500.603014 91.846 167.6796
504.230589 91.833 167.6704
507.884452 91.823 167.6631
511.564792 91.818 167.6580
515.271802 91.817 167.6555
519.005673 91.822 167.6558
522.766602 91.833 167.6592
526.554785 91.851 167.6660
530.370418 91.874 167.6759
534.213700 91.904 167.6891
538.084833 91.938 167.7052
541.984018 91.977 167.7241
545.911457 92.018 167.7454
549.867357 92.060 167.7687
553.851922 92.102 167.7938
557.865362 92.143 167.8201
561.907884 92.181 167.8474
565.979700 92.214 167.8749
570.081022 92.241 167.9022
574.212064 92.262 167.9286
578.373042 92.275 167.9538
582.564171 92.280 167.9769
586.785671 92.275 167.9977
591.037762 92.262 168.0156
595.320665 92.238 168.0304
599.634604 92.205 168.0420
603.979804 92.162 168.0503
608.356491 92.110 168.0556
612.764893 92.051 168.0579
617.205240 91.984 168.0575
621.677763 91.912 168.0545
626.182696 91.836 168.0491
630.720274 91.758 168.0414
635.290733 91.680 168.0312
639.894312 91.603 168.0187
644.531250 91.530 168.0038
649.201789 91.461 167.9865
653.906173 91.398 167.9672
658.644647 91.341 167.9463
663.417457 91.292 167.9244
668.224854 91.250 167.9023
673.067086 91.216 167.8810
677.944408 91.190 167.8615
682.857073 91.172 167.8448
687.805336 91.162 167.8320
692.789457 91.159 167.8237
697.809695 91.164 167.8206
702.866312 91.175 167.8228
707.959571 91.191 167.8306
713.089738 91.211 167.8441
718.257080 91.235 167.8633
723.461867 91.259 167.8884
728.704370 91.284 167.9196
733.984862 91.307 167.9572
739.303619 91.328 168.0013
744.660918 91.345 168.0523
750.057038 91.360 168.1102
755.492260 91.370 168.1752
760.966869 91.377 168.2473
766.481148 91.382 168.3265
772.035387 91.383 168.4124
777.629873 91.383 168.5046
783.264900 91.380 168.6024
788.940760 91.376 168.7049
794.657750 91.370 168.8110
800.416168 91.361 168.9193
806.216313 91.349 169.0276
812.058489 91.333 169.1335
817.943000 91.312 169.2339
823.870152 91.286 169.3247
829.840255 91.256 169.4017
835.853619 91.220 169.4600
841.910559 91.180 169.4953
848.011390 91.136 169.5036
854.156430 91.090 169.4825
860.346000 91.042 169.4313
866.580422 90.993 169.3520
872.860020 90.944 169.2492
879.185124 90.897 169.1301
885.556062 90.853 169.0037
891.973166 90.814 168.8797
898.436771 90.779 168.7681
904.947215 90.750 168.6770
911.504835 90.729 168.6130
918.109975 90.714 168.5798
924.762978 90.707 168.5789
931.464192 90.708 168.6098
938.213966 90.714 168.6700
945.012651 90.727 168.7562
951.860602 90.744 168.8640
958.758176 90.764 168.9890
965.705733 90.786 169.1270
972.703635 90.810 169.2738
979.752246 90.834 169.4260
986.851935 90.858 169.5805
994.003071 90.882 169.7350
1001.206027 90.905 169.8877
1008.461179 90.929 170.0374
1015.768904 90.954 170.1833
1023.129584 90.980 170.3254
1030.543603 91.008 170.4637
1038.011347 91.040 170.5986
1045.533205 91.076 170.7312
1053.109569 91.116 170.8624
1060.740836 91.162 170.9938
1068.427401 91.211 171.1273
1076.169666 91.266 171.2648
1083.968035 91.323 171.4086
1091.822915 91.383 171.5615
1099.734713 91.445 171.7259
1107.703844 91.507 171.9050
1115.730723 91.568 172.1017
1123.815768 91.628 172.3188
1131.959400 91.686 172.5589
1140.162045 91.743 172.8237
1148.424129 91.800 173.1135
1156.746083 91.857 173.4266
1165.128342 91.919 173.7587
1173.571343 91.986 174.1016
1182.075524 92.062 174.4433
1190.641331 92.148 174.7679
1199.269209 92.247 175.0553
1207.959608 92.358 175.2837
1216.712981 92.481 175.4310
1225.529785 92.613 175.4784
1234.410479 92.751 175.4136
1243.355526 92.890 175.2333
1252.365393 93.027 174.9441
1261.440549 93.157 174.5621
1270.581467 93.277 174.1098
1279.788624 93.387 173.6130
1289.062500 93.485 173.0968
1298.403578 93.572 172.5835
1307.812346 93.650 172.0908
1317.289293 93.718 171.6315
1326.834914 93.780 171.2134
1336.449707 93.835 170.8403
1346.134173 93.886 170.5127
1355.888816 93.933 170.2285
1365.714145 93.976 169.9840
1375.610673 94.016 169.7749
1385.578915 94.054 169.5959
1395.619391 94.089 169.4421
1405.732624 94.123 169.3085
1415.919142 94.155 169.1908
1426.179476 94.185 169.0848
1436.514160 94.214 168.9870
1446.923734 94.242 168.8942
1457.408740 94.269 168.8037
1467.969724 94.295 168.7133
1478.607238 94.320 168.6212
1489.321836 94.344 168.5259
1500.114076 94.366 168.4263
1510.984521 94.387 168.3216
1521.933737 94.405 168.2111
1532.962297 94.421 168.0943
1544.070773 94.434 167.9708
1555.259747 94.444 167.8404
1566.529800 94.451 167.7029
1577.881521 94.456 167.5582
1589.315501 94.458 167.4061
1600.832336 94.457 167.2465
1612.432627 94.456 167.0795
1624.116978 94.453 166.9049
1635.886000 94.449 166.7228
1647.740304 94.445 166.5331
1659.680509 94.440 166.3359
1671.707238 94.435 166.1313
1683.821118 94.429 165.9193
1696.022780 94.422 165.7005
1708.312860 94.413 165.4750
1720.692000 94.404 165.2435
1733.160843 94.394 165.0062
1745.720041 94.384 164.7638
1758.370248 94.373 164.5167
1771.112124 94.362 164.2655
1783.946332 94.351 164.0106
1796.873543 94.342 163.7526
1809.894429 94.333 163.4918
1823.009670 94.325 163.2289
1836.219950 94.317 162.9642
1849.525956 94.309 162.6982
1862.928384 94.301 162.4312
1876.427931 94.290 162.1636
1890.025301 94.278 161.8958
1903.721204 94.262 161.6282
1917.516352 94.242 161.3613
1931.411466 94.218 161.0955
1945.407270 94.189 160.8315
1959.504493 94.155 160.5699
1973.703870 94.117 160.3112
1988.006142 94.074 160.0562
2002.412054 94.027 159.8055
2016.922357 93.978 159.5600
2031.537808 93.926 159.3205
2046.259169 93.872 159.0879
2061.087206 93.818 158.8629
2076.022694 93.764 158.6464
2091.066410 93.712 158.4391
2106.219139 93.661 158.2418
2121.481671 93.614 158.0549
2136.854802 93.569 157.8787
2152.339333 93.529 157.7133
2167.936071 93.493 157.5583
2183.645829 93.463 157.4134
2199.469427 93.439 157.2774
2215.407689 93.421 157.1494
2231.461446 93.410 157.0276
2247.631536 93.405 156.9106
2263.918800 93.408 156.7966
2280.324089 93.418 156.6840
2296.848258 93.435 156.5716
2313.492167 93.457 156.4585
2330.256685 93.485 156.3446
2347.142685 93.518 156.2300
2364.151049 93.555 156.1155
2381.282662 93.594 156.0025
2398.538418 93.635 155.8925
2415.919216 93.677 155.7873
2433.425962 93.719 155.6887
2451.059570 93.759 155.5984
2468.820958 93.797 155.5181
2486.711052 93.833 155.4489
2504.730786 93.864 155.3918
2522.881098 93.892 155.3475
2541.162934 93.914 155.3163
2559.577248 93.931 155.2982
2578.125000 93.942 155.2931
2596.807157 93.946 155.3007
2615.624692 93.944 155.3206
2634.578586 93.935 155.3528
2653.669829 93.918 155.3970
2672.899414 93.895 155.4534
2692.268345 93.864 155.5224
2711.777632 93.826 155.6041
2731.428290 93.781 155.6990
2751.221345 93.730 155.8073
2771.157829 93.672 155.9288
2791.238781 93.608 156.0636
2811.465248 93.538 156.2116
2831.838284 93.463 156.3729
2852.358952 93.382 156.5472
2873.028321 93.297 156.7348
2893.847468 93.207 156.9357
2914.817480 93.112 157.1502
2935.939449 93.014 157.3785
2957.214476 92.912 157.6208
2978.643672 92.807 157.8775
3000.228152 92.699 158.1487
3021.969041 92.589 158.4347
3043.867475 92.477 158.7357
3065.924593 92.363 159.0523
3088.141547 92.247 159.3849
3110.519493 92.131 159.7347
3133.059600 92.014 160.1030
3155.763041 91.896 160.4916
3178.631001 91.779 160.9025
3201.664672 91.661 161.3384
3224.865254 91.544 161.8022
3248.233957 91.428 162.2971
3271.771999 91.313 162.8262
3295.480608 91.201 163.3929
3319.361019 91.093 164.0002
3343.414477 90.989 164.6510
3367.642236 90.890 165.3476
3392.045560 90.799 166.0919
3416.625721 90.716 166.8857
3441.383999 90.642 167.7300
3466.321686 90.579 168.6258
3491.440082 90.528 169.5729
3516.740496 90.490 170.5707
