* Measurement data measured by REW V5.31.3
* Source: EXCL: Headset (USB-C to 3.5mm Headphone Jack Adapter), MICROPHONE (Master Volume), 0, volume: 0.260
* Format: 256k Log Swept Sine, 1 sweep at -12.0 dBFS with no timing reference
* Dated: Feb 21, 2025 5:24:56 PM
* REW Settings:
*  C-weighting compensation: Off
*  Target level: 75.0 dB
* Note: ; 
* Measurement: Ouroboros (Golem Mod) R1
* Smoothing: 1/6 octave
* Frequency Step: 96 ppo
* Start Frequency: 20.0 Hz
*
* Freq(Hz) SPL(dB) Phase(degrees)
20.141602 105.793 -118.1626
20.287556 105.768 -118.3915
20.434568 105.734 -118.7003
20.582645 105.693 -119.0818
20.731796 105.646 -119.5278
20.882027 105.596 -120.0300
21.033346 105.543 -120.5800
21.185763 105.489 -121.1694
21.339284 105.435 -121.7901
21.493917 105.383 -122.4345
21.649671 105.333 -123.0949
21.806553 105.285 -123.7644
21.964572 105.240 -124.4361
22.123737 105.199 -125.1043
22.284054 105.160 -125.7637
22.445534 105.123 -126.4102
22.608183 105.089 -127.0407
22.772012 105.056 -127.6534
22.937027 105.024 -128.2474
23.103238 104.992 -128.8232
23.270654 104.960 -129.3820
23.439282 104.927 -129.9259
23.609133 104.892 -130.4572
23.780215 104.855 -130.9788
23.952536 104.815 -131.4932
24.126106 104.773 -132.0029
24.300934 104.728 -132.5102
24.477028 104.681 -133.0167
24.654399 104.631 -133.5239
24.833055 104.579 -134.0327
25.013005 104.526 -134.5437
25.194260 104.473 -135.0572
25.376828 104.421 -135.5731
25.560719 104.369 -136.0910
25.745942 104.321 -136.6105
25.932508 104.275 -137.1307
26.120426 104.232 -137.6503
26.309705 104.194 -138.1679
26.500356 104.160 -138.6818
26.692388 104.131 -139.1900
26.885812 104.107 -139.6903
27.080638 104.086 -140.1805
27.276876 104.070 -140.6583
27.474535 104.058 -141.1215
27.673627 104.049 -141.5684
27.874161 104.042 -141.9974
28.076149 104.036 -142.4073
28.279600 104.031 -142.7978
28.484526 104.025 -143.1687
28.690937 104.017 -143.5206
28.898843 104.006 -143.8548
29.108256 103.991 -144.1729
29.319186 103.972 -144.4770
29.531645 103.948 -144.7694
29.745644 103.919 -145.0526
29.961193 103.884 -145.3288
30.178304 103.844 -145.6001
30.396989 103.801 -145.8680
30.617258 103.754 -146.1335
30.839123 103.704 -146.3970
31.062596 103.654 -146.6581
31.287688 103.604 -146.9160
31.514412 103.556 -147.1692
31.742778 103.510 -147.4158
31.972800 103.469 -147.6538
32.204488 103.433 -147.8810
32.437855 103.403 -148.0956
32.672913 103.378 -148.2960
32.909674 103.361 -148.4814
33.148151 103.349 -148.6516
33.388356 103.344 -148.8072
33.630302 103.344 -148.9493
33.874001 103.348 -149.0796
34.119466 103.355 -149.1996
34.366710 103.365 -149.3111
34.615745 103.377 -149.4150
34.866585 103.388 -149.5123
35.119243 103.400 -149.6031
35.373731 103.410 -149.6879
35.630064 103.419 -149.7665
35.888254 103.425 -149.8396
36.148315 103.429 -149.9076
36.410261 103.430 -149.9716
36.674104 103.428 -150.0328
36.939860 103.422 -150.0923
37.207542 103.414 -150.1515
37.477163 103.402 -150.2116
37.748738 103.388 -150.2737
38.022281 103.371 -150.3392
38.297806 103.353 -150.4093
38.575327 103.333 -150.4854
38.854860 103.312 -150.5684
39.136419 103.291 -150.6594
39.420017 103.269 -150.7588
39.705671 103.248 -150.8668
39.993395 103.228 -150.9831
40.283203 103.208 -151.1075
40.575112 103.189 -151.2398
40.869136 103.171 -151.3796
41.165290 103.154 -151.5268
41.463591 103.139 -151.6812
41.764053 103.125 -151.8425
42.066693 103.113 -152.0101
42.371525 103.102 -152.1834
42.678567 103.093 -152.3616
42.987834 103.087 -152.5440
43.299341 103.083 -152.7298
43.613106 103.081 -152.9183
43.929145 103.081 -153.1091
44.247473 103.083 -153.3017
44.568109 103.087 -153.4955
44.891068 103.093 -153.6901
45.216367 103.101 -153.8851
45.544023 103.110 -154.0798
45.874054 103.122 -154.2735
46.206476 103.134 -154.4653
46.541307 103.149 -154.6543
46.878565 103.164 -154.8396
47.218266 103.182 -155.0208
47.560429 103.200 -155.1978
47.905072 103.220 -155.3712
48.252212 103.240 -155.5419
48.601867 103.262 -155.7114
48.954056 103.285 -155.8808
49.308798 103.309 -156.0511
49.666109 103.333 -156.2230
50.026010 103.359 -156.3964
50.388520 103.385 -156.5709
50.753656 103.412 -156.7455
51.121437 103.440 -156.9190
51.491884 103.468 -157.0900
51.865016 103.497 -157.2569
52.240851 103.526 -157.4183
52.619410 103.554 -157.5732
53.000712 103.582 -157.7209
53.384777 103.609 -157.8615
53.771625 103.636 -157.9955
54.161276 103.662 -158.1243
54.553751 103.687 -158.2496
54.949070 103.712 -158.3731
55.347254 103.737 -158.4962
55.748323 103.761 -158.6204
56.152298 103.784 -158.7464
56.559201 103.808 -158.8753
56.969052 103.833 -159.0080
57.381873 103.858 -159.1457
57.797686 103.885 -159.2903
58.216512 103.914 -159.4439
58.638373 103.945 -159.6097
59.063291 103.980 -159.7910
59.491288 104.019 -159.9915
59.922386 104.061 -160.2141
60.356608 104.108 -160.4604
60.793977 104.157 -160.7302
61.234515 104.209 -161.0223
61.678246 104.263 -161.3342
62.125192 104.318 -161.6635
62.575377 104.372 -162.0080
63.028824 104.426 -162.3663
63.485557 104.478 -162.7374
63.945599 104.528 -163.1208
64.408975 104.575 -163.5166
64.875709 104.620 -163.9248
65.345825 104.663 -164.3459
65.819348 104.704 -164.7799
66.296302 104.742 -165.2269
66.776713 104.778 -165.6866
67.260604 104.813 -166.1587
67.748002 104.846 -166.6426
68.238932 104.877 -167.1377
68.733420 104.907 -167.6436
69.231490 104.936 -168.1597
69.733170 104.964 -168.6857
70.238485 104.990 -169.2216
70.747463 105.015 -169.7672
71.260128 105.038 -170.3222
71.776508 105.060 -170.8863
72.296630 105.079 -171.4587
72.820521 105.097 -172.0388
73.348209 105.114 -172.6254
73.879720 105.128 -173.2176
74.415083 105.140 -173.8143
74.954326 105.151 -174.4147
75.497475 105.160 -175.0178
76.044561 105.166 -175.6228
76.595612 105.171 -176.2291
77.150655 105.174 -176.8362
77.709720 105.174 -177.4436
78.272837 105.173 -178.0510
78.840034 105.169 -178.6581
79.411342 105.164 -179.2649
79.986789 105.156 -179.8711
80.566406 105.146 179.5233
81.150224 105.134 178.9184
81.738272 105.120 178.3144
82.330581 105.104 177.7117
82.927182 105.085 177.1106
83.528107 105.065 176.5118
84.133386 105.043 175.9158
84.743051 105.019 175.3231
85.357134 104.994 174.7340
85.975667 104.967 174.1488
86.598682 104.939 173.5677
87.226212 104.910 172.9911
87.858289 104.880 172.4195
88.494946 104.850 171.8533
89.136217 104.819 171.2930
89.782135 104.787 170.7388
90.432733 104.755 170.1906
91.088046 104.722 169.6485
91.748108 104.689 169.1121
92.412952 104.656 168.5814
93.082615 104.621 168.0566
93.757130 104.585 167.5377
94.436533 104.547 167.0250
95.120859 104.508 166.5187
95.810144 104.465 166.0190
96.504423 104.420 165.5259
97.203734 104.372 165.0397
97.908112 104.321 164.5602
98.617595 104.266 164.0877
99.332219 104.208 163.6221
100.052021 104.148 163.1633
100.777039 104.084 162.7113
101.507311 104.018 162.2661
102.242875 103.951 161.8280
102.983769 103.882 161.3969
103.730032 103.813 160.9730
104.481702 103.742 160.5563
105.238820 103.672 160.1467
106.001424 103.602 159.7441
106.769554 103.532 159.3480
107.543250 103.462 158.9580
108.322553 103.393 158.5735
109.107503 103.324 158.1940
109.898141 103.255 157.8188
110.694508 103.186 157.4480
111.496646 103.118 157.0816
112.304596 103.049 156.7200
113.118402 102.979 156.3641
113.938104 102.909 156.0146
114.763747 102.836 155.6725
115.595372 102.762 155.3385
116.433024 102.686 155.0135
117.276746 102.608 154.6979
118.126581 102.526 154.3925
118.982575 102.442 154.0977
119.844772 102.354 153.8141
120.713217 102.264 153.5424
121.587954 102.171 153.2833
122.469031 102.076 153.0375
123.356492 101.980 152.8061
124.250384 101.881 152.5898
125.150753 101.782 152.3896
126.057647 101.682 152.2064
126.971113 101.581 152.0409
127.891198 101.481 151.8939
128.817950 101.381 151.7661
129.751418 101.281 151.6586
130.691651 101.182 151.5721
131.638696 101.084 151.5078
132.592604 100.985 151.4666
133.553425 100.887 151.4499
134.521208 100.788 151.4589
135.496004 100.690 151.4946
136.477864 100.590 151.5582
137.466839 100.490 151.6504
138.462981 100.388 151.7719
139.466340 100.285 151.9233
140.476971 100.180 152.1051
141.494925 100.074 152.3176
142.520256 99.967 152.5610
143.553016 99.859 152.8352
144.593260 99.750 153.1400
145.641043 99.642 153.4750
146.696418 99.534 153.8394
147.759441 99.428 154.2327
148.830166 99.324 154.6538
149.908651 99.224 155.1018
150.994951 99.128 155.5755
152.089123 99.036 156.0735
153.191223 98.950 156.5943
154.301310 98.869 157.1362
155.419441 98.795 157.6975
156.545674 98.727 158.2763
157.680069 98.665 158.8708
158.822683 98.609 159.4788
159.973578 98.558 160.0984
161.132813 98.514 160.7274
162.300447 98.475 161.3636
163.476543 98.441 162.0049
164.661162 98.412 162.6489
165.854364 98.389 163.2935
167.056213 98.370 163.9364
168.266772 98.357 164.5756
169.486102 98.348 165.2092
170.714268 98.344 165.8351
171.951334 98.345 166.4518
173.197364 98.350 167.0573
174.452424 98.359 167.6500
175.716578 98.372 168.2284
176.989893 98.388 168.7906
178.272434 98.408 169.3350
179.564270 98.430 169.8600
180.865467 98.455 170.3641
182.176092 98.482 170.8460
183.496216 98.510 171.3046
184.825905 98.540 171.7391
186.165229 98.571 172.1489
187.514259 98.602 172.5338
188.873065 98.633 172.8936
190.241717 98.664 173.2284
191.620287 98.694 173.5381
193.008847 98.724 173.8229
194.407468 98.752 174.0832
195.816225 98.779 174.3194
197.235190 98.805 174.5323
198.664438 98.829 174.7227
200.104042 98.852 174.8915
201.554078 98.873 175.0399
203.014622 98.894 175.1690
204.485750 98.914 175.2796
205.967538 98.934 175.3724
207.460064 98.955 175.4482
208.963405 98.978 175.5071
210.477640 99.002 175.5497
212.002848 99.029 175.5762
213.539108 99.059 175.5870
215.086500 99.093 175.5824
216.645105 99.130 175.5630
218.215005 99.171 175.5296
219.796281 99.216 175.4828
221.389015 99.264 175.4233
222.993292 99.315 175.3520
224.609193 99.368 175.2697
226.236804 99.424 175.1773
227.876209 99.481 175.0758
229.527494 99.539 174.9659
231.190745 99.598 174.8485
232.866048 99.657 174.7242
234.553491 99.716 174.5936
236.253163 99.775 174.4572
237.965150 99.833 174.3152
239.689544 99.890 174.1682
241.426433 99.945 174.0164
243.175909 99.999 173.8604
244.938062 100.050 173.7004
246.712984 100.100 173.5369
248.500768 100.147 173.3704
250.301507 100.191 173.2013
252.115295 100.232 173.0299
253.942226 100.271 172.8568
255.782396 100.307 172.6824
257.635901 100.341 172.5071
259.502837 100.372 172.3314
261.383301 100.401 172.1557
263.277392 100.428 171.9806
265.185209 100.452 171.8065
267.106850 100.474 171.6338
269.042417 100.493 171.4632
270.992009 100.509 171.2952
272.955729 100.521 171.1302
274.933678 100.530 170.9690
276.925961 100.535 170.8118
278.932681 100.535 170.6591
280.953942 100.531 170.5113
282.989850 100.523 170.3683
285.040511 100.509 170.2303
287.106032 100.491 170.0970
289.186521 100.468 169.9681
291.282086 100.441 169.8433
293.392836 100.410 169.7220
295.518881 100.376 169.6037
297.660333 100.339 169.4879
299.817302 100.299 169.3739
301.989902 100.258 169.2613
304.178245 100.216 169.1494
306.382446 100.173 169.0376
308.602620 100.131 168.9252
310.838882 100.090 168.8115
313.091348 100.050 168.6959
315.360137 100.013 168.5779
317.645367 99.978 168.4569
319.947156 99.947 168.3326
322.265625 99.918 168.2047
324.600895 99.894 168.0730
326.953086 99.874 167.9375
329.322323 99.859 167.7983
331.708729 99.848 167.6555
334.112427 99.842 167.5093
336.533543 99.841 167.3599
338.972204 99.844 167.2077
341.428536 99.852 167.0530
343.902668 99.864 166.8961
346.394729 99.879 166.7377
348.904848 99.897 166.5779
351.433156 99.918 166.4175
353.979786 99.940 166.2567
356.544869 99.963 166.0961
359.128540 99.985 165.9362
361.730934 100.006 165.7773
364.352185 100.024 165.6198
366.992431 100.040 165.4642
369.651810 100.052 165.3106
372.330459 100.059 165.1595
375.028519 100.061 165.0111
377.746130 100.058 164.8658
380.483434 100.049 164.7236
383.240574 100.035 164.5847
386.017693 100.016 164.4492
388.814937 99.991 164.3169
391.632450 99.963 164.1878
394.470380 99.931 164.0616
397.328875 99.897 163.9379
400.208084 99.862 163.8161
403.108157 99.827 163.6956
406.029245 99.794 163.5756
408.971500 99.762 163.4555
411.935076 99.734 163.3347
414.920127 99.709 163.2126
417.926810 99.689 163.0886
420.955280 99.673 162.9623
424.005695 99.661 162.8332
427.078215 99.654 162.7011
430.173000 99.649 162.5657
433.290211 99.647 162.4269
436.430010 99.646 162.2849
439.592562 99.645 162.1394
442.778031 99.643 161.9908
445.986583 99.639 161.8394
449.218386 99.633 161.6853
452.473607 99.623 161.5292
455.752418 99.610 161.3715
459.054987 99.592 161.2128
462.381489 99.571 161.0534
465.732096 99.546 160.8940
469.106983 99.517 160.7349
472.506325 99.485 160.5766
475.930301 99.450 160.4195
479.379088 99.412 160.2640
482.852867 99.372 160.1108
486.351817 99.330 159.9606
489.876123 99.287 159.8141
493.425968 99.241 159.6723
497.001536 99.196 159.5361
500.603014 99.150 159.4066
504.230589 99.104 159.2850
507.884452 99.060 159.1722
511.564792 99.019 159.0696
515.271802 98.980 158.9783
519.005673 98.945 158.8997
522.766602 98.915 158.8352
526.554785 98.889 158.7862
530.370418 98.868 158.7543
534.213700 98.851 158.7413
538.084833 98.839 158.7487
541.984018 98.831 158.7780
545.911457 98.825 158.8301
549.867357 98.821 158.9052
553.851922 98.818 159.0029
557.865362 98.815 159.1215
561.907884 98.810 159.2586
565.979700 98.804 159.4113
570.081022 98.794 159.5764
574.212064 98.779 159.7510
578.373042 98.759 159.9324
582.564171 98.732 160.1187
586.785671 98.697 160.3090
591.037762 98.654 160.5025
595.320665 98.603 160.6992
599.634604 98.543 160.8994
603.979804 98.474 161.1034
608.356491 98.396 161.3118
612.764893 98.312 161.5249
617.205240 98.222 161.7430
621.677763 98.127 161.9662
626.182696 98.031 162.1944
630.720274 97.934 162.4271
635.290733 97.838 162.6639
639.894312 97.746 162.9039
644.531250 97.660 163.1462
649.201789 97.581 163.3897
653.906173 97.510 163.6333
658.644647 97.449 163.8755
663.417457 97.398 164.1147
668.224854 97.358 164.3496
673.067086 97.329 164.5784
677.944408 97.310 164.7997
682.857073 97.303 165.0121
687.805336 97.307 165.2144
692.789457 97.320 165.4052
697.809695 97.343 165.5839
702.866312 97.373 165.7494
707.959571 97.410 165.9012
713.089738 97.452 166.0389
718.257080 97.497 166.1620
723.461867 97.543 166.2707
728.704370 97.589 166.3649
733.984862 97.633 166.4451
739.303619 97.674 166.5117
744.660918 97.710 166.5657
750.057038 97.741 166.6079
755.492260 97.767 166.6395
760.966869 97.787 166.6619
766.481148 97.802 166.6766
772.035387 97.812 166.6854
777.629873 97.817 166.6901
783.264900 97.817 166.6926
788.940760 97.813 166.6951
794.657750 97.803 166.6994
800.416168 97.787 166.7075
806.216313 97.765 166.7212
812.058489 97.735 166.7421
817.943000 97.697 166.7717
823.870152 97.650 166.8109
829.840255 97.596 166.8607
835.853619 97.533 166.9218
841.910559 97.464 166.9943
848.011390 97.390 167.0783
854.156430 97.314 167.1733
860.346000 97.237 167.2785
866.580422 97.163 167.3925
872.860020 97.094 167.5136
879.185124 97.033 167.6396
885.556062 96.982 167.7678
891.973166 96.943 167.8951
898.436771 96.917 168.0183
904.947215 96.904 168.1337
911.504835 96.904 168.2375
918.109975 96.915 168.3264
924.762978 96.935 168.3974
931.464192 96.962 168.4487
938.213966 96.994 168.4802
945.012651 97.026 168.4935
951.860602 97.057 168.4928
958.758176 97.085 168.4843
965.705733 97.107 168.4760
972.703635 97.124 168.4768
979.752246 97.133 168.4958
986.851935 97.136 168.5410
994.003071 97.133 168.6192
1001.206027 97.127 168.7356
1008.461179 97.117 168.8943
1015.768904 97.108 169.0983
1023.129584 97.100 169.3502
1030.543603 97.097 169.6520
1038.011347 97.100 170.0056
1045.533205 97.114 170.4121
1053.109569 97.140 170.8710
1060.740836 97.181 171.3795
1068.427401 97.240 171.9310
1076.169666 97.319 172.5135
1083.968035 97.417 173.1087
1091.822915 97.536 173.6917
1099.734713 97.673 174.2313
1107.703844 97.824 174.6932
1115.730723 97.986 175.0439
1123.815768 98.150 175.2556
1131.959400 98.312 175.3119
1140.162045 98.463 175.2102
1148.424129 98.598 174.9631
1156.746083 98.712 174.5950
1165.128342 98.804 174.1378
1173.571343 98.874 173.6261
1182.075524 98.922 173.0924
1190.641331 98.952 172.5645
1199.269209 98.967 172.0643
1207.959608 98.972 171.6071
1216.712981 98.969 171.2027
1225.529785 98.964 170.8558
1234.410479 98.958 170.5674
1243.355526 98.954 170.3357
1252.365393 98.955 170.1569
1261.440549 98.961 170.0261
1270.581467 98.974 169.9378
1279.788624 98.992 169.8864
1289.062500 99.016 169.8664
1298.403578 99.046 169.8727
1307.812346 99.080 169.9007
1317.289293 99.117 169.9467
1326.834914 99.156 170.0074
1336.449707 99.197 170.0803
1346.134173 99.237 170.1636
1355.888816 99.277 170.2556
1365.714145 99.316 170.3552
1375.610673 99.353 170.4615
1385.578915 99.388 170.5737
1395.619391 99.420 170.6909
1405.732624 99.450 170.8123
1415.919142 99.478 170.9369
1426.179476 99.504 171.0638
1436.514160 99.528 171.1922
1446.923734 99.550 171.3209
1457.408740 99.571 171.4490
1467.969724 99.591 171.5756
1478.607238 99.610 171.6996
1489.321836 99.628 171.8202
1500.114076 99.644 171.9365
1510.984521 99.658 172.0480
1521.933737 99.670 172.1542
1532.962297 99.679 172.2546
1544.070773 99.685 172.3492
1555.259747 99.689 172.4380
1566.529800 99.689 172.5212
1577.881521 99.686 172.5992
1589.315501 99.681 172.6725
1600.832336 99.673 172.7418
1612.432627 99.664 172.8077
1624.116978 99.654 172.8707
1635.886000 99.643 172.9313
1647.740304 99.632 172.9901
1659.680509 99.621 173.0474
1671.707238 99.609 173.1035
1683.821118 99.597 173.1586
1696.022780 99.584 173.2130
1708.312860 99.571 173.2670
1720.692000 99.558 173.3210
1733.160843 99.544 173.3752
1745.720041 99.531 173.4302
1758.370248 99.518 173.4863
1771.112124 99.507 173.5439
1783.946332 99.497 173.6033
1796.873543 99.489 173.6647
1809.894429 99.482 173.7285
1823.009670 99.478 173.7945
1836.219950 99.476 173.8627
1849.525956 99.475 173.9330
1862.928384 99.474 174.0052
1876.427931 99.473 174.0789
1890.025301 99.472 174.1541
1903.721204 99.469 174.2302
1917.516352 99.463 174.3071
1931.411466 99.455 174.3844
1945.407270 99.444 174.4619
1959.504493 99.430 174.5392
1973.703870 99.412 174.6162
1988.006142 99.392 174.6928
2002.412054 99.370 174.7691
2016.922357 99.345 174.8455
2031.537808 99.320 174.9226
2046.259169 99.294 175.0011
2061.087206 99.269 175.0822
2076.022694 99.245 175.1671
2091.066410 99.222 175.2573
2106.219139 99.202 175.3543
2121.481671 99.186 175.4595
2136.854802 99.173 175.5744
2152.339333 99.165 175.7000
2167.936071 99.162 175.8372
2183.645829 99.165 175.9865
2199.469427 99.175 176.1478
2215.407689 99.192 176.3207
2231.461446 99.216 176.5045
2247.631536 99.249 176.6980
2263.918800 99.290 176.8999
2280.324089 99.339 177.1086
2296.848258 99.397 177.3226
2313.492167 99.463 177.5404
2330.256685 99.536 177.7607
2347.142685 99.616 177.9825
2364.151049 99.703 178.2052
2381.282662 99.794 178.4285
2398.538418 99.890 178.6524
2415.919216 99.989 178.8771
2433.425962 100.089 179.1029
2451.059570 100.191 179.3300
2468.820958 100.293 179.5585
2486.711052 100.394 179.7881
2504.730786 100.494 -179.9819
2522.881098 100.591 -179.7522
2541.162934 100.685 -179.5242
2559.577248 100.776 -179.2994
2578.125000 100.862 -179.0795
2596.807157 100.943 -178.8661
2615.624692 101.019 -178.6607
2634.578586 101.088 -178.4641
2653.669829 101.150 -178.2767
2672.899414 101.205 -178.0979
2692.268345 101.253 -177.9264
2711.777632 101.293 -177.7601
2731.428290 101.326 -177.5965
2751.221345 101.352 -177.4331
2771.157829 101.371 -177.2674
2791.238781 101.383 -177.0976
2811.465248 101.390 -176.9223
2831.838284 101.393 -176.7412
2852.358952 101.390 -176.5547
2873.028321 101.384 -176.3638
2893.847468 101.375 -176.1702
2914.817480 101.364 -175.9760
2935.939449 101.349 -175.7830
2957.214476 101.333 -175.5931
2978.643672 101.315 -175.4077
3000.228152 101.294 -175.2278
3021.969041 101.272 -175.0537
3043.867475 101.249 -174.8853
3065.924593 101.224 -174.7221
3088.141547 101.198 -174.5632
3110.519493 101.171 -174.4073
3133.059600 101.143 -174.2530
3155.763041 101.114 -174.0986
3178.631001 101.086 -173.9424
