* Measurement data measured by REW V5.31.3
* Source: EXCL: Headset (USB-C to 3.5mm Headphone Jack Adapter), MICROPHONE (Master Volume), 0, volume: 0.260
* Format: 256k Log Swept Sine, 1 sweep at -12.0 dBFS with no timing reference
* Dated: Mar 5, 2025 10:59:32 AM
* REW Settings:
*  C-weighting compensation: Off
*  Target level: 75.0 dB
* Note: ; 
* Measurement: Ouroboros (glasses) L1
* Smoothing: 1/6 octave
* Frequency Step: 96 ppo
* Start Frequency: 20.0 Hz
*
* Freq(Hz) SPL(dB) Phase(degrees)
20.141602 91.166 -66.5368
20.287556 91.162 -66.7244
20.434568 91.157 -66.9735
20.582645 91.150 -67.2746
20.731796 91.143 -67.6187
20.882027 91.135 -67.9981
21.033346 91.126 -68.4072
21.185763 91.117 -68.8435
21.339284 91.109 -69.3063
21.493917 91.101 -69.7972
21.649671 91.094 -70.3191
21.806553 91.087 -70.8752
21.964572 91.081 -71.4684
22.123737 91.076 -72.1008
22.284054 91.070 -72.7729
22.445534 91.064 -73.4835
22.608183 91.058 -74.2291
22.772012 91.052 -75.0046
22.937027 91.045 -75.8031
23.103238 91.038 -76.6166
23.270654 91.032 -77.4365
23.439282 91.028 -78.2542
23.609133 91.026 -79.0620
23.780215 91.027 -79.8538
23.952536 91.033 -80.6254
24.126106 91.044 -81.3752
24.300934 91.061 -82.1036
24.477028 91.084 -82.8135
24.654399 91.113 -83.5094
24.833055 91.147 -84.1964
25.013005 91.186 -84.8799
25.194260 91.229 -85.5645
25.376828 91.273 -86.2533
25.560719 91.318 -86.9479
25.745942 91.363 -87.6478
25.932508 91.407 -88.3512
26.120426 91.451 -89.0553
26.309705 91.494 -89.7566
26.500356 91.538 -90.4523
26.692388 91.583 -91.1404
26.885812 91.632 -91.8202
27.080638 91.685 -92.4921
27.276876 91.744 -93.1577
27.474535 91.809 -93.8187
27.673627 91.879 -94.4764
27.874161 91.955 -95.1306
28.076149 92.034 -95.7793
28.279600 92.115 -96.4177
28.484526 92.196 -97.0393
28.690937 92.274 -97.6356
28.898843 92.349 -98.1979
29.108256 92.417 -98.7176
29.319186 92.478 -99.1882
29.531645 92.531 -99.6055
29.745644 92.575 -99.9689
29.961193 92.611 -100.2812
30.178304 92.637 -100.5485
30.396989 92.655 -100.7801
30.617258 92.665 -100.9874
30.839123 92.668 -101.1836
31.062596 92.666 -101.3825
31.287688 92.658 -101.5983
31.514412 92.649 -101.8446
31.742778 92.639 -102.1335
31.972800 92.630 -102.4753
32.204488 92.624 -102.8772
32.437855 92.623 -103.3427
32.672913 92.628 -103.8709
32.909674 92.641 -104.4563
33.148151 92.660 -105.0894
33.388356 92.685 -105.7571
33.630302 92.717 -106.4446
33.874001 92.754 -107.1364
34.119466 92.795 -107.8188
34.366710 92.837 -108.4803
34.615745 92.881 -109.1133
34.866585 92.922 -109.7140
35.119243 92.961 -110.2822
35.373731 92.994 -110.8204
35.630064 93.022 -111.3330
35.888254 93.042 -111.8251
36.148315 93.055 -112.3018
36.410261 93.060 -112.7669
36.674104 93.058 -113.2231
36.939860 93.049 -113.6714
37.207542 93.035 -114.1113
37.477163 93.016 -114.5411
37.748738 92.994 -114.9584
38.022281 92.969 -115.3611
38.297806 92.943 -115.7481
38.575327 92.917 -116.1199
38.854860 92.891 -116.4789
39.136419 92.866 -116.8290
39.420017 92.841 -117.1748
39.705671 92.816 -117.5206
39.993395 92.791 -117.8689
40.283203 92.766 -118.2201
40.575112 92.740 -118.5720
40.869136 92.713 -118.9207
41.165290 92.687 -119.2614
41.463591 92.662 -119.5898
41.764053 92.640 -119.9029
42.066693 92.620 -120.1999
42.371525 92.604 -120.4820
42.678567 92.591 -120.7522
42.987834 92.583 -121.0147
43.299341 92.578 -121.2737
43.613106 92.577 -121.5331
43.929145 92.578 -121.7955
44.247473 92.580 -122.0618
44.568109 92.585 -122.3306
44.891068 92.590 -122.5986
45.216367 92.598 -122.8608
45.544023 92.607 -123.1117
45.874054 92.619 -123.3466
46.206476 92.634 -123.5630
46.541307 92.654 -123.7612
46.878565 92.678 -123.9449
47.218266 92.707 -124.1206
47.560429 92.740 -124.2966
47.905072 92.776 -124.4812
48.252212 92.814 -124.6809
48.601867 92.853 -124.8997
48.954056 92.893 -125.1381
49.308798 92.931 -125.3936
49.666109 92.969 -125.6618
50.026010 93.007 -125.9374
50.388520 93.044 -126.2160
50.753656 93.082 -126.4942
51.121437 93.120 -126.7701
51.491884 93.158 -127.0430
51.865016 93.195 -127.3127
52.240851 93.232 -127.5794
52.619410 93.268 -127.8437
53.000712 93.302 -128.1064
53.384777 93.335 -128.3683
53.771625 93.366 -128.6299
54.161276 93.395 -128.8913
54.553751 93.422 -129.1521
54.949070 93.449 -129.4119
55.347254 93.475 -129.6704
55.748323 93.501 -129.9283
56.152298 93.528 -130.1869
56.559201 93.557 -130.4478
56.969052 93.588 -130.7121
57.381873 93.621 -130.9800
57.797686 93.656 -131.2510
58.216512 93.693 -131.5244
58.638373 93.730 -131.7993
59.063291 93.767 -132.0749
59.491288 93.801 -132.3499
59.922386 93.832 -132.6224
60.356608 93.860 -132.8905
60.793977 93.884 -133.1537
61.234515 93.905 -133.4136
61.678246 93.926 -133.6738
62.125192 93.946 -133.9391
62.575377 93.967 -134.2135
63.028824 93.990 -134.4989
63.485557 94.013 -134.7952
63.945599 94.036 -135.1005
64.408975 94.060 -135.4124
64.875709 94.083 -135.7282
65.345825 94.105 -136.0455
65.819348 94.126 -136.3621
66.296302 94.146 -136.6763
66.776713 94.165 -136.9866
67.260604 94.184 -137.2919
67.748002 94.202 -137.5916
68.238932 94.219 -137.8853
68.733420 94.237 -138.1733
69.231490 94.255 -138.4563
69.733170 94.274 -138.7357
70.238485 94.294 -139.0133
70.747463 94.315 -139.2912
71.260128 94.337 -139.5712
71.776508 94.360 -139.8550
72.296630 94.385 -140.1435
72.820521 94.410 -140.4366
73.348209 94.437 -140.7339
73.879720 94.464 -141.0346
74.415083 94.491 -141.3380
74.954326 94.519 -141.6434
75.497475 94.546 -141.9507
76.044561 94.574 -142.2599
76.595612 94.601 -142.5709
77.150655 94.628 -142.8841
77.709720 94.654 -143.1996
78.272837 94.680 -143.5175
78.840034 94.705 -143.8378
79.411342 94.729 -144.1602
79.986789 94.753 -144.4842
80.566406 94.775 -144.8087
81.150224 94.798 -145.1326
81.738272 94.819 -145.4544
82.330581 94.840 -145.7730
82.927182 94.862 -146.0874
83.528107 94.883 -146.3973
84.133386 94.905 -146.7030
84.743051 94.927 -147.0055
85.357134 94.950 -147.3063
85.975667 94.973 -147.6072
86.598682 94.997 -147.9098
87.226212 95.022 -148.2157
87.858289 95.047 -148.5256
88.494946 95.073 -148.8401
89.136217 95.101 -149.1592
89.782135 95.130 -149.4825
90.432733 95.161 -149.8097
91.088046 95.193 -150.1407
91.748108 95.226 -150.4755
92.412952 95.261 -150.8144
93.082615 95.296 -151.1575
93.757130 95.331 -151.5047
94.436533 95.366 -151.8554
95.120859 95.400 -152.2090
95.810144 95.433 -152.5650
96.504423 95.463 -152.9230
97.203734 95.491 -153.2831
97.908112 95.516 -153.6459
98.617595 95.538 -154.0126
99.332219 95.557 -154.3842
100.052021 95.573 -154.7621
100.777039 95.587 -155.1468
101.507311 95.599 -155.5385
102.242875 95.610 -155.9365
102.983769 95.620 -156.3394
103.730032 95.629 -156.7455
104.481702 95.639 -157.1531
105.238820 95.649 -157.5605
106.001424 95.659 -157.9665
106.769554 95.671 -158.3706
107.543250 95.683 -158.7727
108.322553 95.697 -159.1733
109.107503 95.711 -159.5733
109.898141 95.726 -159.9736
110.694508 95.742 -160.3752
111.496646 95.758 -160.7789
112.304596 95.774 -161.1850
113.118402 95.790 -161.5938
113.938104 95.806 -162.0052
114.763747 95.820 -162.4194
115.595372 95.833 -162.8360
116.433024 95.844 -163.2549
117.276746 95.853 -163.6755
118.126581 95.860 -164.0971
118.982575 95.866 -164.5190
119.844772 95.869 -164.9406
120.713217 95.872 -165.3615
121.587954 95.873 -165.7818
122.469031 95.873 -166.2014
123.356492 95.873 -166.6206
124.250384 95.872 -167.0392
125.150753 95.872 -167.4573
126.057647 95.871 -167.8743
126.971113 95.871 -168.2900
127.891198 95.872 -168.7039
128.817950 95.873 -169.1154
129.751418 95.876 -169.5245
130.691651 95.879 -169.9310
131.638696 95.883 -170.3353
132.592604 95.888 -170.7377
133.553425 95.892 -171.1387
134.521208 95.897 -171.5386
135.496004 95.900 -171.9377
136.477864 95.901 -172.3359
137.466839 95.900 -172.7334
138.462981 95.897 -173.1301
139.466340 95.890 -173.5258
140.476971 95.881 -173.9200
141.494925 95.867 -174.3121
142.520256 95.851 -174.7013
143.553016 95.831 -175.0873
144.593260 95.809 -175.4701
145.641043 95.784 -175.8499
146.696418 95.757 -176.2273
147.759441 95.728 -176.6029
148.830166 95.699 -176.9774
149.908651 95.669 -177.3515
150.994951 95.640 -177.7258
152.089123 95.611 -178.1007
153.191223 95.583 -178.4763
154.301310 95.556 -178.8520
155.419441 95.529 -179.2275
156.545674 95.503 -179.6017
157.680069 95.478 -179.9741
158.822683 95.453 179.6563
159.973578 95.428 179.2899
161.132813 95.402 178.9272
162.300447 95.376 178.5686
163.476543 95.348 178.2148
164.661162 95.320 177.8665
165.854364 95.289 177.5243
167.056213 95.258 177.1888
168.266772 95.225 176.8607
169.486102 95.191 176.5401
170.714268 95.155 176.2273
171.951334 95.118 175.9223
173.197364 95.080 175.6252
174.452424 95.040 175.3358
175.716578 94.999 175.0542
176.989893 94.957 174.7801
178.272434 94.913 174.5135
179.564270 94.868 174.2545
180.865467 94.821 174.0032
182.176092 94.773 173.7599
183.496216 94.723 173.5251
184.825905 94.672 173.2992
186.165229 94.618 173.0826
187.514259 94.563 172.8756
188.873065 94.506 172.6784
190.241717 94.447 172.4912
191.620287 94.386 172.3141
193.008847 94.324 172.1472
194.407468 94.259 171.9906
195.816225 94.193 171.8441
197.235190 94.125 171.7073
198.664438 94.055 171.5799
200.104042 93.984 171.4611
201.554078 93.912 171.3501
203.014622 93.840 171.2465
204.485750 93.768 171.1497
205.967538 93.697 171.0592
207.460064 93.627 170.9746
208.963405 93.559 170.8955
210.477640 93.494 170.8215
212.002848 93.433 170.7523
213.539108 93.376 170.6874
215.086500 93.324 170.6268
216.645105 93.277 170.5705
218.215005 93.235 170.5186
219.796281 93.199 170.4718
221.389015 93.168 170.4307
222.993292 93.142 170.3959
224.609193 93.121 170.3682
226.236804 93.105 170.3478
227.876209 93.092 170.3348
229.527494 93.084 170.3291
231.190745 93.079 170.3303
232.866048 93.077 170.3379
234.553491 93.077 170.3512
236.253163 93.079 170.3697
237.965150 93.082 170.3929
239.689544 93.087 170.4205
241.426433 93.092 170.4524
243.175909 93.097 170.4883
244.938062 93.102 170.5274
246.712984 93.107 170.5688
248.500768 93.111 170.6115
250.301507 93.115 170.6544
252.115295 93.117 170.6965
253.942226 93.119 170.7372
255.782396 93.119 170.7764
257.635901 93.119 170.8143
259.502837 93.119 170.8514
261.383301 93.118 170.8885
263.277392 93.118 170.9263
265.185209 93.117 170.9659
267.106850 93.116 171.0079
269.042417 93.114 171.0529
270.992009 93.111 171.1009
272.955729 93.107 171.1512
274.933678 93.101 171.2029
276.925961 93.093 171.2551
278.932681 93.081 171.3067
280.953942 93.065 171.3572
282.989850 93.046 171.4061
285.040511 93.022 171.4532
287.106032 92.995 171.4986
289.186521 92.963 171.5427
291.282086 92.928 171.5861
293.392836 92.889 171.6300
295.518881 92.847 171.6754
297.660333 92.802 171.7234
299.817302 92.756 171.7745
301.989902 92.708 171.8290
304.178245 92.659 171.8869
306.382446 92.610 171.9478
308.602620 92.562 172.0110
310.838882 92.515 172.0760
313.091348 92.470 172.1424
315.360137 92.429 172.2095
317.645367 92.390 172.2771
319.947156 92.356 172.3447
322.265625 92.326 172.4117
324.600895 92.301 172.4778
326.953086 92.282 172.5423
329.322323 92.269 172.6046
331.708729 92.262 172.6643
334.112427 92.262 172.7209
336.533543 92.267 172.7740
338.972204 92.279 172.8232
341.428536 92.296 172.8680
343.902668 92.319 172.9079
346.394729 92.347 172.9427
348.904848 92.379 172.9724
351.433156 92.415 172.9968
353.979786 92.453 173.0161
356.544869 92.494 173.0306
359.128540 92.534 173.0406
361.730934 92.575 173.0463
364.352185 92.614 173.0477
366.992431 92.652 173.0447
369.651810 92.686 173.0371
372.330459 92.717 173.0246
375.028519 92.744 173.0070
377.746130 92.766 172.9842
380.483434 92.783 172.9565
383.240574 92.795 172.9240
386.017693 92.802 172.8869
388.814937 92.804 172.8456
391.632450 92.802 172.8004
394.470380 92.797 172.7514
397.328875 92.790 172.6988
400.208084 92.782 172.6424
403.108157 92.774 172.5822
406.029245 92.768 172.5178
408.971500 92.763 172.4490
411.935076 92.762 172.3755
414.920127 92.765 172.2969
417.926810 92.772 172.2130
420.955280 92.783 172.1234
424.005695 92.799 172.0280
427.078215 92.819 171.9266
430.173000 92.842 171.8192
433.290211 92.867 171.7058
436.430010 92.893 171.5867
439.592562 92.920 171.4620
442.778031 92.946 171.3322
445.986583 92.970 171.1973
449.218386 92.992 171.0577
452.473607 93.011 170.9135
455.752418 93.026 170.7648
459.054987 93.038 170.6116
462.381489 93.047 170.4539
465.732096 93.052 170.2921
469.106983 93.055 170.1260
472.506325 93.054 169.9559
475.930301 93.051 169.7821
479.379088 93.046 169.6052
482.852867 93.038 169.4258
486.351817 93.029 169.2449
489.876123 93.018 169.0633
493.425968 93.007 168.8820
497.001536 92.995 168.7020
500.603014 92.983 168.5239
504.230589 92.973 168.3486
507.884452 92.965 168.1766
511.564792 92.959 168.0085
515.271802 92.957 167.8448
519.005673 92.959 167.6862
522.766602 92.967 167.5332
526.554785 92.979 167.3864
530.370418 92.996 167.2463
534.213700 93.019 167.1135
538.084833 93.045 166.9883
541.984018 93.075 166.8709
545.911457 93.106 166.7615
549.867357 93.139 166.6599
553.851922 93.170 166.5660
557.865362 93.200 166.4793
561.907884 93.225 166.3995
565.979700 93.246 166.3260
570.081022 93.261 166.2587
574.212064 93.269 166.1974
578.373042 93.270 166.1420
582.564171 93.261 166.0925
586.785671 93.244 166.0490
591.037762 93.217 166.0115
595.320665 93.181 165.9799
599.634604 93.135 165.9542
603.979804 93.080 165.9343
608.356491 93.016 165.9200
612.764893 92.945 165.9111
617.205240 92.868 165.9075
621.677763 92.786 165.9087
626.182696 92.702 165.9146
630.720274 92.617 165.9249
635.290733 92.533 165.9391
639.894312 92.452 165.9568
644.531250 92.376 165.9774
649.201789 92.307 165.9997
653.906173 92.245 166.0226
658.644647 92.192 166.0444
663.417457 92.150 166.0631
668.224854 92.117 166.0766
673.067086 92.095 166.0826
677.944408 92.083 166.0790
682.857073 92.082 166.0639
687.805336 92.090 166.0360
692.789457 92.106 165.9945
697.809695 92.131 165.9395
702.866312 92.162 165.8713
707.959571 92.198 165.7910
713.089738 92.237 165.6999
718.257080 92.278 165.5995
723.461867 92.319 165.4915
728.704370 92.359 165.3775
733.984862 92.396 165.2594
739.303619 92.428 165.1386
744.660918 92.456 165.0165
750.057038 92.479 164.8946
755.492260 92.496 164.7739
760.966869 92.508 164.6557
766.481148 92.516 164.5410
772.035387 92.519 164.4311
777.629873 92.518 164.3268
783.264900 92.513 164.2294
788.940760 92.505 164.1399
794.657750 92.493 164.0592
800.416168 92.476 163.9883
806.216313 92.455 163.9276
812.058489 92.428 163.8773
817.943000 92.396 163.8372
823.870152 92.358 163.8060
829.840255 92.315 163.7818
835.853619 92.267 163.7617
841.910559 92.217 163.7415
848.011390 92.165 163.7156
854.156430 92.114 163.6774
860.346000 92.066 163.6188
866.580422 92.024 163.5316
872.860020 91.990 163.4070
879.185124 91.963 163.2377
885.556062 91.946 163.0180
891.973166 91.936 162.7457
898.436771 91.934 162.4223
904.947215 91.936 162.0534
911.504835 91.941 161.6487
918.109975 91.947 161.2204
924.762978 91.952 160.7823
931.464192 91.954 160.3480
938.213966 91.952 159.9297
945.012651 91.947 159.5374
951.860602 91.937 159.1788
958.758176 91.922 158.8589
965.705733 91.902 158.5804
972.703635 91.877 158.3445
979.752246 91.849 158.1508
986.851935 91.816 157.9979
994.003071 91.780 157.8844
1001.206027 91.741 157.8082
1008.461179 91.701 157.7676
1015.768904 91.660 157.7608
1023.129584 91.620 157.7866
1030.543603 91.582 157.8443
1038.011347 91.546 157.9339
1045.533205 91.516 158.0561
1053.109569 91.490 158.2125
1060.740836 91.471 158.4058
1068.427401 91.459 158.6391
1076.169666 91.454 158.9166
1083.968035 91.456 159.2428
1091.822915 91.467 159.6220
1099.734713 91.485 160.0579
1107.703844 91.511 160.5523
1115.730723 91.546 161.1041
1123.815768 91.592 161.7075
1131.959400 91.650 162.3511
1140.162045 91.720 163.0161
1148.424129 91.805 163.6762
1156.746083 91.904 164.2989
1165.128342 92.019 164.8479
1173.571343 92.146 165.2873
1182.075524 92.282 165.5869
1190.641331 92.423 165.7270
1199.269209 92.566 165.7013
1207.959608 92.704 165.5172
1216.712981 92.834 165.1936
1225.529785 92.954 164.7572
1234.410479 93.062 164.2376
1243.355526 93.158 163.6641
1252.365393 93.243 163.0626
1261.440549 93.319 162.4547
1270.581467 93.385 161.8568
1279.788624 93.445 161.2807
1289.062500 93.499 160.7344
1298.403578 93.548 160.2221
1307.812346 93.593 159.7458
1317.289293 93.634 159.3057
1326.834914 93.672 158.9006
1336.449707 93.707 158.5287
1346.134173 93.738 158.1879
1355.888816 93.766 157.8755
1365.714145 93.790 157.5892
1375.610673 93.811 157.3264
1385.578915 93.828 157.0845
1395.619391 93.841 156.8614
1405.732624 93.851 156.6549
1415.919142 93.857 156.4632
1426.179476 93.859 156.2846
1436.514160 93.859 156.1176
1446.923734 93.856 155.9611
1457.408740 93.851 155.8138
1467.969724 93.844 155.6748
1478.607238 93.834 155.5435
1489.321836 93.822 155.4190
1500.114076 93.809 155.3009
1510.984521 93.793 155.1887
1521.933737 93.774 155.0819
1532.962297 93.753 154.9799
1544.070773 93.729 154.8821
1555.259747 93.703 154.7880
1566.529800 93.673 154.6967
1577.881521 93.641 154.6075
1589.315501 93.607 154.5197
1600.832336 93.572 154.4324
1612.432627 93.535 154.3452
1624.116978 93.498 154.2572
1635.886000 93.460 154.1680
1647.740304 93.423 154.0773
1659.680509 93.385 153.9845
1671.707238 93.348 153.8895
1683.821118 93.311 153.7921
1696.022780 93.273 153.6920
1708.312860 93.235 153.5893
1720.692000 93.196 153.4840
1733.160843 93.157 153.3762
1745.720041 93.118 153.2661
1758.370248 93.079 153.1543
1771.112124 93.040 153.0411
1783.946332 93.002 152.9272
1796.873543 92.966 152.8132
1809.894429 92.930 152.6998
1823.009670 92.896 152.5877
1836.219950 92.862 152.4778
1849.525956 92.828 152.3707
1862.928384 92.794 152.2674
1876.427931 92.759 152.1686
1890.025301 92.721 152.0754
1903.721204 92.681 151.9887
1917.516352 92.638 151.9094
1931.411466 92.590 151.8384
1945.407270 92.539 151.7767
1959.504493 92.483 151.7249
1973.703870 92.424 151.6833
1988.006142 92.362 151.6524
2002.412054 92.297 151.6319
2016.922357 92.230 151.6215
2031.537808 92.163 151.6204
2046.259169 92.096 151.6274
2061.087206 92.030 151.6417
2076.022694 91.966 151.6620
2091.066410 91.904 151.6876
2106.219139 91.846 151.7184
2121.481671 91.790 151.7547
2136.854802 91.738 151.7979
2152.339333 91.690 151.8497
2167.936071 91.647 151.9123
2183.645829 91.608 151.9876
2199.469427 91.575 152.0771
2215.407689 91.548 152.1816
2231.461446 91.528 152.3012
2247.631536 91.515 152.4353
2263.918800 91.510 152.5830
2280.324089 91.512 152.7433
2296.848258 91.523 152.9153
2313.492167 91.541 153.0984
2330.256685 91.567 153.2925
2347.142685 91.599 153.4975
2364.151049 91.638 153.7134
2381.282662 91.682 153.9404
2398.538418 91.731 154.1785
2415.919216 91.784 154.4276
2433.425962 91.840 154.6873
2451.059570 91.897 154.9572
2468.820958 91.957 155.2364
2486.711052 92.017 155.5235
2504.730786 92.076 155.8169
2522.881098 92.135 156.1147
2541.162934 92.192 156.4146
2559.577248 92.246 156.7145
2578.125000 92.297 157.0123
2596.807157 92.344 157.3061
2615.624692 92.387 157.5942
2634.578586 92.425 157.8757
2653.669829 92.457 158.1495
2672.899414 92.484 158.4152
2692.268345 92.505 158.6724
2711.777632 92.520 158.9207
2731.428290 92.529 159.1599
2751.221345 92.532 159.3898
2771.157829 92.530 159.6103
2791.238781 92.521 159.8214
2811.465248 92.507 160.0232
2831.838284 92.487 160.2161
2852.358952 92.462 160.4008
2873.028321 92.431 160.5779
2893.847468 92.395 160.7487
2914.817480 92.354 160.9145
2935.939449 92.308 161.0771
2957.214476 92.257 161.2388
2978.643672 92.201 161.4021
3000.228152 92.140 161.5696
3021.969041 92.076 161.7443
3043.867475 92.008 161.9289
3065.924593 91.937 162.1259
3088.141547 91.864 162.3374
3110.519493 91.789 162.5652
3133.059600 91.714 162.8105
3155.763041 91.638 163.0742
3178.631001 91.563 163.3564
3201.664672 91.489 163.6573
3224.865254 91.417 163.9761
3248.233957 91.347 164.3121
3271.771999 91.281 164.6640
3295.480608 91.218 165.0307
3319.361019 91.160 165.4110
3343.414477 91.107 165.8039
3367.642236 91.059 166.2087
3392.045560 91.018 166.6250
3416.625721 90.983 167.0527
3441.383999 90.956 167.4916
3466.321686 90.936 167.9415
3491.440082 90.925 168.4018
