* Measurement data measured by REW V5.31.3
* Source: EXCL: Headset (USB-C to 3.5mm Headphone Jack Adapter), MICROPHONE (Master Volume), 0, volume: 0.260
* Format: 256k Log Swept Sine, 1 sweep at -12.0 dBFS with no timing reference
* Dated: Mar 5, 2025 11:00:12 AM
* REW Settings:
*  C-weighting compensation: Off
*  Target level: 75.0 dB
* Note: ; 
* Measurement: Ouroboros (glasses) L3
* Smoothing: 1/6 octave
* Frequency Step: 96 ppo
* Start Frequency: 20.0 Hz
*
* Freq(Hz) SPL(dB) Phase(degrees)
20.141602 92.665 -74.4245
20.287556 92.640 -74.5841
20.434568 92.605 -74.7972
20.582645 92.563 -75.0565
20.731796 92.516 -75.3554
20.882027 92.464 -75.6886
21.033346 92.411 -76.0528
21.185763 92.360 -76.4476
21.339284 92.311 -76.8745
21.493917 92.268 -77.3370
21.649671 92.232 -77.8394
21.806553 92.205 -78.3863
21.964572 92.187 -78.9811
22.123737 92.179 -79.6257
22.284054 92.180 -80.3196
22.445534 92.190 -81.0595
22.608183 92.207 -81.8392
22.772012 92.230 -82.6501
22.937027 92.256 -83.4814
23.103238 92.285 -84.3210
23.270654 92.314 -85.1563
23.439282 92.342 -85.9749
23.609133 92.369 -86.7658
23.780215 92.393 -87.5200
23.952536 92.415 -88.2314
24.126106 92.435 -88.8971
24.300934 92.453 -89.5179
24.477028 92.471 -90.0980
24.654399 92.488 -90.6453
24.833055 92.505 -91.1700
25.013005 92.524 -91.6841
25.194260 92.544 -92.1999
25.376828 92.566 -92.7289
25.560719 92.589 -93.2802
25.745942 92.612 -93.8595
25.932508 92.636 -94.4682
26.120426 92.658 -95.1033
26.309705 92.678 -95.7578
26.500356 92.697 -96.4212
26.692388 92.714 -97.0812
26.885812 92.731 -97.7250
27.080638 92.748 -98.3411
27.276876 92.768 -98.9214
27.474535 92.790 -99.4616
27.673627 92.818 -99.9628
27.874161 92.850 -100.4304
28.076149 92.888 -100.8739
28.279600 92.931 -101.3049
28.484526 92.976 -101.7354
28.690937 93.022 -102.1761
28.898843 93.066 -102.6347
29.108256 93.106 -103.1154
29.319186 93.140 -103.6193
29.531645 93.167 -104.1447
29.745644 93.187 -104.6887
29.961193 93.200 -105.2479
30.178304 93.207 -105.8195
30.396989 93.209 -106.4017
30.617258 93.207 -106.9931
30.839123 93.202 -107.5925
31.062596 93.195 -108.1975
31.287688 93.187 -108.8042
31.514412 93.180 -109.4066
31.742778 93.174 -109.9976
31.972800 93.170 -110.5697
32.204488 93.170 -111.1167
32.437855 93.176 -111.6353
32.672913 93.189 -112.1261
32.909674 93.210 -112.5937
33.148151 93.238 -113.0455
33.388356 93.272 -113.4907
33.630302 93.311 -113.9370
33.874001 93.352 -114.3895
34.119466 93.392 -114.8493
34.366710 93.428 -115.3133
34.615745 93.459 -115.7757
34.866585 93.483 -116.2293
35.119243 93.502 -116.6684
35.373731 93.515 -117.0900
35.630064 93.523 -117.4945
35.888254 93.528 -117.8858
36.148315 93.530 -118.2694
36.410261 93.528 -118.6508
36.674104 93.523 -119.0331
36.939860 93.514 -119.4163
37.207542 93.500 -119.7965
37.477163 93.481 -120.1670
37.748738 93.456 -120.5200
38.022281 93.427 -120.8483
38.297806 93.395 -121.1470
38.575327 93.362 -121.4149
38.854860 93.328 -121.6541
39.136419 93.294 -121.8700
39.420017 93.263 -122.0700
39.705671 93.234 -122.2620
39.993395 93.208 -122.4529
40.283203 93.183 -122.6479
40.575112 93.160 -122.8494
40.869136 93.137 -123.0573
41.165290 93.116 -123.2694
41.463591 93.095 -123.4825
41.764053 93.075 -123.6931
42.066693 93.059 -123.8988
42.371525 93.045 -124.0991
42.678567 93.037 -124.2952
42.987834 93.035 -124.4904
43.299341 93.039 -124.6893
43.613106 93.051 -124.8967
43.929145 93.069 -125.1169
44.247473 93.093 -125.3527
44.568109 93.120 -125.6046
44.891068 93.150 -125.8712
45.216367 93.181 -126.1487
45.544023 93.210 -126.4317
45.874054 93.238 -126.7142
46.206476 93.264 -126.9900
46.541307 93.287 -127.2543
46.878565 93.310 -127.5038
47.218266 93.332 -127.7376
47.560429 93.355 -127.9567
47.905072 93.379 -128.1640
48.252212 93.406 -128.3632
48.601867 93.437 -128.5587
48.954056 93.471 -128.7549
49.308798 93.508 -128.9561
49.666109 93.549 -129.1666
50.026010 93.592 -129.3904
50.388520 93.638 -129.6308
50.753656 93.686 -129.8898
51.121437 93.734 -130.1682
51.491884 93.782 -130.4647
51.865016 93.828 -130.7768
52.240851 93.873 -131.1004
52.619410 93.915 -131.4311
53.000712 93.954 -131.7635
53.384777 93.991 -132.0928
53.771625 94.025 -132.4141
54.161276 94.055 -132.7236
54.553751 94.084 -133.0184
54.949070 94.109 -133.2971
55.347254 94.133 -133.5595
55.748323 94.156 -133.8058
56.152298 94.178 -134.0370
56.559201 94.199 -134.2537
56.969052 94.221 -134.4566
57.381873 94.244 -134.6468
57.797686 94.268 -134.8270
58.216512 94.293 -135.0021
58.638373 94.319 -135.1800
59.063291 94.347 -135.3707
59.491288 94.374 -135.5846
59.922386 94.401 -135.8299
60.356608 94.427 -136.1107
60.793977 94.452 -136.4257
61.234515 94.476 -136.7697
61.678246 94.499 -137.1348
62.125192 94.522 -137.5134
62.575377 94.545 -137.8984
63.028824 94.570 -138.2850
63.485557 94.595 -138.6694
63.945599 94.620 -139.0490
64.408975 94.645 -139.4223
64.875709 94.669 -139.7881
65.345825 94.693 -140.1459
65.819348 94.715 -140.4957
66.296302 94.738 -140.8377
66.776713 94.759 -141.1726
67.260604 94.781 -141.5016
67.748002 94.803 -141.8264
68.238932 94.824 -142.1485
68.733420 94.847 -142.4698
69.231490 94.870 -142.7914
69.733170 94.893 -143.1143
70.238485 94.917 -143.4391
70.747463 94.941 -143.7663
71.260128 94.966 -144.0959
71.776508 94.991 -144.4282
72.296630 95.016 -144.7630
72.820521 95.041 -145.0997
73.348209 95.065 -145.4375
73.879720 95.089 -145.7754
74.415083 95.113 -146.1125
74.954326 95.135 -146.4482
75.497475 95.157 -146.7821
76.044561 95.178 -147.1142
76.595612 95.199 -147.4448
77.150655 95.219 -147.7743
77.709720 95.239 -148.1031
78.272837 95.258 -148.4318
78.840034 95.277 -148.7608
79.411342 95.296 -149.0902
79.986789 95.313 -149.4204
80.566406 95.331 -149.7513
81.150224 95.347 -150.0827
81.738272 95.364 -150.4142
82.330581 95.379 -150.7455
82.927182 95.395 -151.0762
83.528107 95.411 -151.4059
84.133386 95.428 -151.7345
84.743051 95.445 -152.0620
85.357134 95.463 -152.3888
85.975667 95.482 -152.7153
86.598682 95.503 -153.0419
87.226212 95.525 -153.3692
87.858289 95.548 -153.6974
88.494946 95.574 -154.0270
89.136217 95.600 -154.3582
89.782135 95.628 -154.6916
90.432733 95.657 -155.0277
91.088046 95.687 -155.3675
91.748108 95.718 -155.7121
92.412952 95.750 -156.0622
93.082615 95.782 -156.4184
93.757130 95.813 -156.7809
94.436533 95.844 -157.1495
95.120859 95.873 -157.5240
95.810144 95.900 -157.9039
96.504423 95.926 -158.2888
97.203734 95.948 -158.6779
97.908112 95.968 -159.0706
98.617595 95.985 -159.4663
99.332219 95.998 -159.8645
100.052021 96.010 -160.2650
100.777039 96.018 -160.6678
101.507311 96.025 -161.0730
102.242875 96.031 -161.4810
102.983769 96.035 -161.8922
103.730032 96.039 -162.3069
104.481702 96.042 -162.7259
105.238820 96.046 -163.1497
106.001424 96.051 -163.5787
106.769554 96.056 -164.0130
107.543250 96.063 -164.4525
108.322553 96.071 -164.8966
109.107503 96.080 -165.3449
109.898141 96.090 -165.7964
110.694508 96.100 -166.2506
111.496646 96.110 -166.7069
112.304596 96.120 -167.1652
113.118402 96.128 -167.6253
113.938104 96.134 -168.0871
114.763747 96.138 -168.5501
115.595372 96.140 -169.0138
116.433024 96.140 -169.4770
117.276746 96.138 -169.9386
118.126581 96.134 -170.3967
118.982575 96.129 -170.8496
119.844772 96.122 -171.2958
120.713217 96.113 -171.7341
121.587954 96.104 -172.1644
122.469031 96.095 -172.5874
123.356492 96.084 -173.0042
124.250384 96.074 -173.4159
125.150753 96.063 -173.8235
126.057647 96.052 -174.2280
126.971113 96.042 -174.6300
127.891198 96.032 -175.0303
128.817950 96.022 -175.4296
129.751418 96.013 -175.8282
130.691651 96.004 -176.2265
131.638696 95.996 -176.6248
132.592604 95.988 -177.0235
133.553425 95.980 -177.4225
134.521208 95.972 -177.8222
135.496004 95.963 -178.2225
136.477864 95.952 -178.6232
137.466839 95.940 -179.0239
138.462981 95.925 -179.4242
139.466340 95.908 -179.8233
140.476971 95.888 179.7790
141.494925 95.865 179.3829
142.520256 95.838 178.9884
143.553016 95.809 178.5952
144.593260 95.777 178.2034
145.641043 95.743 177.8133
146.696418 95.706 177.4254
147.759441 95.668 177.0405
148.830166 95.629 176.6594
149.908651 95.588 176.2826
150.994951 95.547 175.9106
152.089123 95.506 175.5439
153.191223 95.464 175.1824
154.301310 95.423 174.8260
155.419441 95.382 174.4744
156.545674 95.342 174.1273
157.680069 95.302 173.7848
158.822683 95.262 173.4473
159.973578 95.222 173.1156
161.132813 95.182 172.7905
162.300447 95.141 172.4731
163.476543 95.099 172.1642
164.661162 95.057 171.8642
165.854364 95.013 171.5733
167.056213 94.968 171.2913
168.266772 94.922 171.0179
169.486102 94.875 170.7525
170.714268 94.827 170.4951
171.951334 94.778 170.2452
173.197364 94.727 170.0032
174.452424 94.676 169.7693
175.716578 94.624 169.5440
176.989893 94.570 169.3280
178.272434 94.516 169.1214
179.564270 94.460 168.9244
180.865467 94.404 168.7366
182.176092 94.346 168.5582
183.496216 94.287 168.3891
184.825905 94.226 168.2296
186.165229 94.164 168.0801
187.514259 94.101 167.9413
188.873065 94.036 167.8134
190.241717 93.969 167.6965
191.620287 93.900 167.5904
193.008847 93.831 167.4948
194.407468 93.759 167.4091
195.816225 93.686 167.3327
197.235190 93.611 167.2649
198.664438 93.536 167.2051
200.104042 93.458 167.1526
201.554078 93.380 167.1067
203.014622 93.301 167.0664
204.485750 93.222 167.0311
205.967538 93.143 167.0005
207.460064 93.066 166.9745
208.963405 92.991 166.9533
210.477640 92.918 166.9370
212.002848 92.850 166.9261
213.539108 92.785 166.9210
215.086500 92.726 166.9221
216.645105 92.672 166.9297
218.215005 92.623 166.9445
219.796281 92.580 166.9664
221.389015 92.542 166.9958
222.993292 92.509 167.0324
224.609193 92.482 167.0759
226.236804 92.459 167.1260
227.876209 92.440 167.1822
229.527494 92.425 167.2444
231.190745 92.413 167.3123
232.866048 92.404 167.3858
234.553491 92.398 167.4648
236.253163 92.394 167.5488
237.965150 92.392 167.6376
239.689544 92.392 167.7308
241.426433 92.392 167.8283
243.175909 92.393 167.9299
244.938062 92.394 168.0357
246.712984 92.395 168.1458
248.500768 92.397 168.2602
250.301507 92.398 168.3788
252.115295 92.399 168.5013
253.942226 92.399 168.6273
255.782396 92.400 168.7566
257.635901 92.400 168.8886
259.502837 92.400 169.0229
261.383301 92.400 169.1589
263.277392 92.400 169.2959
265.185209 92.399 169.4331
267.106850 92.399 169.5700
269.042417 92.397 169.7064
270.992009 92.395 169.8422
272.955729 92.391 169.9774
274.933678 92.385 170.1122
276.925961 92.377 170.2464
278.932681 92.366 170.3800
280.953942 92.352 170.5128
282.989850 92.333 170.6448
285.040511 92.311 170.7760
287.106032 92.285 170.9068
289.186521 92.254 171.0375
291.282086 92.220 171.1685
293.392836 92.183 171.3005
295.518881 92.142 171.4338
297.660333 92.099 171.5689
299.817302 92.054 171.7061
301.989902 92.008 171.8455
304.178245 91.961 171.9872
306.382446 91.915 172.1310
308.602620 91.870 172.2770
310.838882 91.826 172.4249
313.091348 91.786 172.5743
315.360137 91.748 172.7247
317.645367 91.714 172.8755
319.947156 91.686 173.0258
322.265625 91.662 173.1750
324.600895 91.643 173.3228
326.953086 91.631 173.4684
329.322323 91.625 173.6115
331.708729 91.626 173.7514
334.112427 91.634 173.8874
336.533543 91.649 174.0185
338.972204 91.670 174.1437
341.428536 91.698 174.2619
343.902668 91.732 174.3721
346.394729 91.772 174.4734
348.904848 91.816 174.5652
351.433156 91.864 174.6468
353.979786 91.915 174.7176
356.544869 91.967 174.7773
359.128540 92.020 174.8253
361.730934 92.073 174.8615
364.352185 92.123 174.8862
366.992431 92.171 174.8998
369.651810 92.215 174.9033
372.330459 92.255 174.8975
375.028519 92.290 174.8834
377.746130 92.320 174.8618
380.483434 92.343 174.8336
383.240574 92.361 174.7994
386.017693 92.374 174.7598
388.814937 92.381 174.7154
391.632450 92.384 174.6669
394.470380 92.384 174.6149
397.328875 92.381 174.5601
400.208084 92.376 174.5029
403.108157 92.371 174.4440
406.029245 92.368 174.3835
408.971500 92.366 174.3218
411.935076 92.368 174.2589
414.920127 92.373 174.1944
417.926810 92.382 174.1280
420.955280 92.396 174.0592
424.005695 92.415 173.9876
427.078215 92.437 173.9127
430.173000 92.462 173.8338
433.290211 92.490 173.7506
436.430010 92.520 173.6625
439.592562 92.550 173.5692
442.778031 92.579 173.4702
445.986583 92.608 173.3654
449.218386 92.634 173.2547
452.473607 92.657 173.1384
455.752418 92.677 173.0169
459.054987 92.694 172.8906
462.381489 92.707 172.7597
465.732096 92.718 172.6245
469.106983 92.725 172.4854
472.506325 92.730 172.3426
475.930301 92.732 172.1967
479.379088 92.732 172.0484
482.852867 92.730 171.8985
486.351817 92.726 171.7478
489.876123 92.722 171.5972
493.425968 92.716 171.4473
497.001536 92.711 171.2986
500.603014 92.707 171.1513
504.230589 92.704 171.0056
507.884452 92.704 170.8612
511.564792 92.707 170.7181
515.271802 92.715 170.5759
519.005673 92.728 170.4346
522.766602 92.746 170.2940
526.554785 92.770 170.1540
530.370418 92.799 170.0146
534.213700 92.833 169.8757
538.084833 92.871 169.7374
541.984018 92.912 169.5997
545.911457 92.955 169.4631
549.867357 92.997 169.3281
553.851922 93.039 169.1953
557.865362 93.077 169.0655
561.907884 93.112 168.9395
565.979700 93.140 168.8180
570.081022 93.162 168.7016
574.212064 93.176 168.5909
578.373042 93.182 168.4862
582.564171 93.178 168.3878
586.785671 93.164 168.2961
591.037762 93.141 168.2111
595.320665 93.107 168.1329
599.634604 93.063 168.0616
603.979804 93.009 167.9971
608.356491 92.945 167.9395
612.764893 92.874 167.8888
617.205240 92.796 167.8451
621.677763 92.713 167.8088
626.182696 92.626 167.7801
630.720274 92.538 167.7596
635.290733 92.451 167.7474
639.894312 92.367 167.7439
644.531250 92.287 167.7489
649.201789 92.214 167.7617
653.906173 92.148 167.7813
658.644647 92.092 167.8060
663.417457 92.046 167.8333
668.224854 92.011 167.8607
673.067086 91.987 167.8848
677.944408 91.975 167.9025
682.857073 91.973 167.9105
687.805336 91.983 167.9062
692.789457 92.002 167.8874
697.809695 92.030 167.8526
702.866312 92.066 167.8012
707.959571 92.107 167.7332
713.089738 92.153 167.6490
718.257080 92.201 167.5497
723.461867 92.249 167.4363
728.704370 92.296 167.3102
733.984862 92.340 167.1727
739.303619 92.381 167.0251
744.660918 92.416 166.8692
750.057038 92.445 166.7063
755.492260 92.469 166.5382
760.966869 92.486 166.3667
766.481148 92.499 166.1934
772.035387 92.506 166.0202
777.629873 92.508 165.8488
783.264900 92.505 165.6809
788.940760 92.498 165.5183
794.657750 92.485 165.3625
800.416168 92.467 165.2150
806.216313 92.443 165.0768
812.058489 92.413 164.9489
817.943000 92.375 164.8314
823.870152 92.331 164.7239
829.840255 92.280 164.6253
835.853619 92.222 164.5334
841.910559 92.161 164.4453
848.011390 92.096 164.3564
854.156430 92.031 164.2614
860.346000 91.968 164.1537
866.580422 91.909 164.0261
872.860020 91.856 163.8715
879.185124 91.811 163.6830
885.556062 91.773 163.4560
891.973166 91.744 163.1883
898.436771 91.721 162.8814
904.947215 91.704 162.5407
911.504835 91.690 162.1751
918.109975 91.678 161.7962
924.762978 91.665 161.4170
931.464192 91.652 161.0503
938.213966 91.636 160.7076
945.012651 91.616 160.3987
951.860602 91.594 160.1305
958.758176 91.568 159.9074
965.705733 91.538 159.7318
972.703635 91.505 159.6039
979.752246 91.468 159.5229
986.851935 91.430 159.4868
994.003071 91.389 159.4931
1001.206027 91.347 159.5388
1008.461179 91.306 159.6211
1015.768904 91.265 159.7370
1023.129584 91.227 159.8842
1030.543603 91.192 160.0608
1038.011347 91.162 160.2658
1045.533205 91.138 160.4992
1053.109569 91.121 160.7617
1060.740836 91.111 161.0553
1068.427401 91.109 161.3827
1076.169666 91.116 161.7474
1083.968035 91.131 162.1534
1091.822915 91.155 162.6045
1099.734713 91.187 163.1039
1107.703844 91.229 163.6530
1115.730723 91.279 164.2503
1123.815768 91.340 164.8898
1131.959400 91.412 165.5596
1140.162045 91.497 166.2406
1148.424129 91.596 166.9068
1156.746083 91.708 167.5260
1165.128342 91.834 168.0627
1173.571343 91.971 168.4827
1182.075524 92.116 168.7579
1190.641331 92.265 168.8706
1199.269209 92.414 168.8167
1207.959608 92.557 168.6050
1216.712981 92.691 168.2555
1225.529785 92.815 167.7953
1234.410479 92.927 167.2540
1243.355526 93.027 166.6603
1252.365393 93.116 166.0399
1261.440549 93.195 165.4135
1270.581467 93.266 164.7969
1279.788624 93.329 164.2015
1289.062500 93.387 163.6346
1298.403578 93.439 163.1002
1307.812346 93.488 162.6000
1317.289293 93.532 162.1343
1326.834914 93.573 161.7018
1336.449707 93.610 161.3010
1346.134173 93.644 160.9299
1355.888816 93.673 160.5863
1365.714145 93.698 160.2679
1375.610673 93.719 159.9728
1385.578915 93.735 159.6988
1395.619391 93.747 159.4442
1405.732624 93.755 159.2072
1415.919142 93.759 158.9866
1426.179476 93.760 158.7809
1436.514160 93.757 158.5890
1446.923734 93.751 158.4100
1457.408740 93.742 158.2429
1467.969724 93.731 158.0869
1478.607238 93.718 157.9410
1489.321836 93.703 157.8046
1500.114076 93.685 157.6767
1510.984521 93.665 157.5566
1521.933737 93.643 157.4435
1532.962297 93.617 157.3366
1544.070773 93.589 157.2352
1555.259747 93.557 157.1385
1566.529800 93.522 157.0458
1577.881521 93.485 156.9565
1589.315501 93.445 156.8701
1600.832336 93.404 156.7861
1612.432627 93.361 156.7040
1624.116978 93.317 156.6237
1635.886000 93.273 156.5450
1647.740304 93.228 156.4679
1659.680509 93.184 156.3926
1671.707238 93.139 156.3193
1683.821118 93.094 156.2481
1696.022780 93.049 156.1791
1708.312860 93.004 156.1125
1720.692000 92.958 156.0485
1733.160843 92.912 155.9871
1745.720041 92.866 155.9283
1758.370248 92.821 155.8723
1771.112124 92.776 155.8190
1783.946332 92.733 155.7687
1796.873543 92.692 155.7215
1809.894429 92.653 155.6776
1823.009670 92.615 155.6373
1836.219950 92.578 155.6010
1849.525956 92.543 155.5692
1862.928384 92.507 155.5425
1876.427931 92.471 155.5215
1890.025301 92.434 155.5068
1903.721204 92.394 155.4994
1917.516352 92.352 155.4999
1931.411466 92.307 155.5090
1945.407270 92.258 155.5272
1959.504493 92.207 155.5549
1973.703870 92.152 155.5924
1988.006142 92.095 155.6394
2002.412054 92.036 155.6954
2016.922357 91.977 155.7596
2031.537808 91.917 155.8307
2046.259169 91.858 155.9071
2061.087206 91.802 155.9872
2076.022694 91.747 156.0693
2091.066410 91.696 156.1524
2106.219139 91.648 156.2358
2121.481671 91.604 156.3197
2136.854802 91.564 156.4052
2152.339333 91.528 156.4937
2167.936071 91.497 156.5871
2183.645829 91.471 156.6873
2199.469427 91.451 156.7959
2215.407689 91.437 156.9136
2231.461446 91.430 157.0409
2247.631536 91.429 157.1774
2263.918800 91.437 157.3226
2280.324089 91.451 157.4759
2296.848258 91.473 157.6367
2313.492167 91.502 157.8050
2330.256685 91.538 157.9808
2347.142685 91.580 158.1645
2364.151049 91.628 158.3564
2381.282662 91.680 158.5570
2398.538418 91.737 158.7666
2415.919216 91.796 158.9853
2433.425962 91.858 159.2131
2451.059570 91.922 159.4498
2468.820958 91.986 159.6946
2486.711052 92.051 159.9468
2504.730786 92.114 160.2049
2522.881098 92.176 160.4675
2541.162934 92.236 160.7326
2559.577248 92.293 160.9984
2578.125000 92.346 161.2627
2596.807157 92.395 161.5238
2615.624692 92.439 161.7801
2634.578586 92.478 162.0304
2653.669829 92.511 162.2739
2672.899414 92.538 162.5100
2692.268345 92.559 162.7385
2711.777632 92.574 162.9591
2731.428290 92.583 163.1717
2751.221345 92.585 163.3763
2771.157829 92.582 163.5729
2791.238781 92.572 163.7615
2811.465248 92.557 163.9425
2831.838284 92.535 164.1162
2852.358952 92.508 164.2835
2873.028321 92.475 164.4454
2893.847468 92.437 164.6033
2914.817480 92.393 164.7589
2935.939449 92.344 164.9141
2957.214476 92.289 165.0716
2978.643672 92.230 165.2340
3000.228152 92.166 165.4043
3021.969041 92.098 165.5854
3043.867475 92.027 165.7805
3065.924593 91.953 165.9919
3088.141547 91.877 166.2219
3110.519493 91.799 166.4724
3133.059600 91.721 166.7444
3155.763041 91.643 167.0387
3178.631001 91.566 167.3553
3201.664672 91.491 167.6938
3224.865254 91.419 168.0531
3248.233957 91.349 168.4318
3271.771999 91.284 168.8280
3295.480608 91.223 169.2397
3319.361019 91.167 169.6649
3343.414477 91.117 170.1019
3367.642236 91.073 170.5496
3392.045560 91.036 171.0070
3416.625721 91.007 171.4738
3441.383999 90.985 171.9495
3466.321686 90.971 172.4338
3491.440082 90.966 172.9258
