* Measurement data measured by REW V5.31.3
* Source: EXCL: Headset (USB-C to 3.5mm Headphone Jack Adapter), MICROPHONE (Master Volume), 0, volume: 0.750
* Format: 256k Log Swept Sine, 1 sweep at -12.0 dBFS with no timing reference
* Dated: Apr 1, 2025 10:52:42 PM
* REW Settings:
*  C-weighting compensation: Off
*  Target level: 75.0 dB
* Note: ; 
* Measurement: Ouro (golem) L6
* Smoothing: 1/6 octave
* Frequency Step: 96 ppo
* Start Frequency: 20.0 Hz
*
* Freq(Hz) SPL(dB) Phase(degrees)
20.187378 92.826 -162.8465
20.333664 92.855 -162.9066
20.481010 92.894 -162.9913
20.629424 92.940 -163.1029
20.778913 92.992 -163.2442
20.929486 93.047 -163.4173
21.081150 93.104 -163.6239
21.233912 93.161 -163.8643
21.387782 93.216 -164.1379
21.542767 93.268 -164.4427
21.698874 93.317 -164.7760
21.856113 93.362 -165.1342
22.014492 93.403 -165.5138
22.174018 93.441 -165.9115
22.334700 93.476 -166.3247
22.496546 93.509 -166.7523
22.659566 93.541 -167.1945
22.823766 93.572 -167.6529
22.989157 93.601 -168.1299
23.155745 93.630 -168.6283
23.323542 93.655 -169.1504
23.492554 93.677 -169.6970
23.662790 93.693 -170.2666
23.834261 93.701 -170.8549
24.006973 93.699 -171.4548
24.180938 93.686 -172.0563
24.356163 93.660 -172.6473
24.532658 93.622 -173.2148
24.710431 93.572 -173.7461
24.889493 93.511 -174.2302
25.069853 93.441 -174.6595
25.251519 93.366 -175.0307
25.434502 93.289 -175.3459
25.618811 93.212 -175.6124
25.804456 93.140 -175.8420
25.991445 93.074 -176.0498
26.179790 93.016 -176.2517
26.369500 92.966 -176.4625
26.560584 92.923 -176.6934
26.753053 92.886 -176.9509
26.946917 92.853 -177.2356
27.142185 92.822 -177.5433
27.338869 92.791 -177.8651
27.536977 92.757 -178.1898
27.736522 92.721 -178.5056
27.937512 92.680 -178.8017
28.139959 92.636 -179.0698
28.343872 92.588 -179.3053
28.549264 92.537 -179.5072
28.756143 92.484 -179.6777
28.964522 92.428 -179.8219
29.174411 92.371 -179.9458
29.385821 92.312 179.9440
29.598763 92.252 179.8418
29.813248 92.190 179.7430
30.029287 92.129 179.6447
30.246891 92.067 179.5444
30.466073 92.007 179.4406
30.686842 91.950 179.3314
30.909212 91.898 179.2143
31.133193 91.851 179.0861
31.358797 91.811 178.9432
31.586035 91.780 178.7819
31.814921 91.757 178.5994
32.045465 91.744 178.3947
32.277680 91.738 178.1686
32.511577 91.741 177.9243
32.747169 91.750 177.6670
32.984469 91.766 177.4031
33.223488 91.785 177.1395
33.464239 91.809 176.8825
33.706735 91.835 176.6369
33.950987 91.862 176.4053
34.197010 91.889 176.1884
34.444816 91.916 175.9849
34.694417 91.941 175.7919
34.945827 91.963 175.6059
35.199059 91.983 175.4237
35.454126 91.999 175.2430
35.711041 92.013 175.0629
35.969818 92.023 174.8845
36.230470 92.032 174.7104
36.493011 92.039 174.5454
36.757455 92.045 174.3953
37.023814 92.050 174.2674
37.292104 92.054 174.1691
37.562338 92.057 174.1083
37.834530 92.058 174.0921
38.108695 92.056 174.1263
38.384846 92.052 174.2145
38.662999 92.045 174.3570
38.943167 92.035 174.5502
39.225365 92.023 174.7866
39.509608 92.010 175.0549
39.795911 91.996 175.3421
40.084289 91.983 175.6348
40.374756 91.972 175.9216
40.667328 91.962 176.1954
40.962020 91.953 176.4537
41.258848 91.947 176.6985
41.557827 91.942 176.9348
41.858972 91.939 177.1690
42.162299 91.937 177.4066
42.467824 91.938 177.6511
42.775564 91.940 177.9041
43.085533 91.943 178.1649
43.397749 91.949 178.4319
43.712227 91.956 178.7031
44.028983 91.964 178.9766
44.348036 91.975 179.2506
44.669400 91.988 179.5242
44.993093 92.003 179.7968
45.319131 92.020 -179.9317
45.647532 92.039 -179.6610
45.978313 92.058 -179.3911
46.311491 92.077 -179.1230
46.647083 92.096 -178.8598
46.985107 92.114 -178.6064
47.325581 92.131 -178.3689
47.668521 92.148 -178.1534
48.013947 92.165 -177.9642
48.361876 92.182 -177.8024
48.712326 92.199 -177.6656
49.065315 92.217 -177.5488
49.420863 92.238 -177.4453
49.778987 92.261 -177.3488
50.139706 92.287 -177.2541
50.503039 92.315 -177.1584
50.869005 92.346 -177.0613
51.237623 92.379 -176.9647
51.608912 92.412 -176.8728
51.982891 92.447 -176.7915
52.359580 92.482 -176.7275
52.739000 92.517 -176.6867
53.121168 92.551 -176.6730
53.506106 92.585 -176.6873
53.893833 92.618 -176.7277
54.284370 92.650 -176.7905
54.677737 92.682 -176.8716
55.073955 92.714 -176.9678
55.473043 92.747 -177.0775
55.875024 92.781 -177.2008
56.279917 92.818 -177.3385
56.687745 92.855 -177.4913
57.098527 92.895 -177.6599
57.512287 92.937 -177.8437
57.929045 92.980 -178.0412
58.348822 93.025 -178.2495
58.771642 93.071 -178.4644
59.197525 93.118 -178.6806
59.626495 93.167 -178.8932
60.058573 93.217 -179.0982
60.493782 93.268 -179.2939
60.932145 93.321 -179.4812
61.373685 93.376 -179.6635
61.818424 93.431 -179.8452
62.266386 93.487 179.9688
62.717593 93.544 179.7744
63.172071 93.600 179.5692
63.629842 93.657 179.3520
64.090930 93.713 179.1235
64.555359 93.769 178.8852
65.023154 93.825 178.6387
65.494339 93.880 178.3847
65.968938 93.934 178.1230
66.446976 93.987 177.8520
66.928478 94.039 177.5701
67.413469 94.089 177.2760
67.901975 94.138 176.9698
68.394021 94.185 176.6533
68.889632 94.231 176.3289
69.388835 94.274 175.9998
69.891655 94.315 175.6688
70.398118 94.354 175.3386
70.908252 94.389 175.0108
71.422083 94.421 174.6866
71.939636 94.450 174.3663
72.460941 94.475 174.0499
72.986023 94.496 173.7367
73.514909 94.514 173.4260
74.047629 94.529 173.1164
74.584208 94.541 172.8067
75.124676 94.550 172.4955
75.669061 94.558 172.1817
76.217390 94.563 171.8647
76.769692 94.567 171.5444
77.325997 94.569 171.2205
77.886333 94.570 170.8931
78.450730 94.569 170.5620
79.019216 94.566 170.2269
79.591822 94.561 169.8875
80.168577 94.555 169.5440
80.749512 94.547 169.1972
81.334656 94.538 168.8484
81.924040 94.527 168.4995
82.517696 94.515 168.1520
83.115653 94.501 167.8075
83.717943 94.486 167.4665
84.324598 94.470 167.1288
84.935649 94.452 166.7936
85.551128 94.432 166.4593
86.171066 94.412 166.1248
86.795497 94.390 165.7891
87.424453 94.369 165.4524
88.057967 94.346 165.1151
88.696071 94.324 164.7783
89.338800 94.302 164.4435
89.986185 94.281 164.1124
90.638262 94.259 163.7866
91.295065 94.237 163.4673
91.956626 94.215 163.1555
92.622982 94.193 162.8510
93.294166 94.170 162.5526
93.970214 94.146 162.2586
94.651161 94.121 161.9666
95.337042 94.096 161.6740
96.027894 94.069 161.3788
96.723752 94.043 161.0800
97.424652 94.016 160.7768
98.130631 93.988 160.4695
98.841726 93.961 160.1589
99.557974 93.934 159.8458
100.279412 93.907 159.5316
101.006078 93.880 159.2173
101.738010 93.854 158.9041
102.475245 93.828 158.5927
103.217823 93.802 158.2838
103.965782 93.777 157.9779
104.719161 93.752 157.6752
105.477999 93.727 157.3756
106.242336 93.704 157.0791
107.012212 93.681 156.7853
107.787666 93.659 156.4938
108.568740 93.637 156.2043
109.355474 93.616 155.9164
110.147909 93.596 155.6299
110.946086 93.576 155.3447
111.750047 93.557 155.0612
112.559834 93.537 154.7797
113.375489 93.518 154.5008
114.197055 93.498 154.2245
115.024574 93.479 153.9507
115.858089 93.459 153.6785
116.697645 93.439 153.4068
117.543284 93.418 153.1343
118.395051 93.397 152.8601
119.252990 93.375 152.5840
120.117147 93.352 152.3061
120.987565 93.327 152.0269
121.864291 93.301 151.7473
122.747370 93.275 151.4677
123.636848 93.246 151.1892
124.532771 93.217 150.9128
125.435187 93.186 150.6398
126.344142 93.154 150.3713
127.259684 93.121 150.1086
128.181860 93.087 149.8524
129.110718 93.052 149.6034
130.046308 93.015 149.3614
130.988677 92.977 149.1259
131.937875 92.939 148.8963
132.893951 92.898 148.6715
133.856956 92.856 148.4505
134.826938 92.813 148.2321
135.803950 92.767 148.0154
136.788041 92.719 147.8000
137.779264 92.669 147.5859
138.777669 92.617 147.3738
139.783309 92.564 147.1645
140.796237 92.508 146.9593
141.816504 92.451 146.7592
142.844165 92.393 146.5650
143.879273 92.333 146.3771
144.921881 92.272 146.1957
145.972045 92.209 146.0203
147.029819 92.146 145.8507
148.095257 92.081 145.6867
149.168417 92.015 145.5281
150.249353 91.948 145.3749
151.338121 91.881 145.2271
152.434780 91.813 145.0850
153.539385 91.744 144.9485
154.651995 91.676 144.8177
155.772667 91.607 144.6927
156.901460 91.538 144.5734
158.038432 91.469 144.4596
159.183644 91.401 144.3511
160.337154 91.332 144.2477
161.499023 91.264 144.1495
162.669312 91.197 144.0565
163.848081 91.129 143.9690
165.035392 91.062 143.8874
166.231306 90.995 143.8118
167.435887 90.928 143.7425
168.649196 90.862 143.6794
169.871298 90.795 143.6228
171.102255 90.729 143.5728
172.342133 90.662 143.5297
173.590995 90.596 143.4937
174.848907 90.530 143.4652
176.115934 90.463 143.4443
177.392143 90.396 143.4311
178.677599 90.329 143.4259
179.972371 90.261 143.4291
181.276525 90.193 143.4410
182.590129 90.124 143.4616
183.913252 90.054 143.4910
185.245964 89.983 143.5291
186.588332 89.912 143.5757
187.940428 89.841 143.6311
189.302322 89.769 143.6957
190.674085 89.696 143.7701
192.055788 89.623 143.8543
193.447503 89.551 143.9483
194.849303 89.478 144.0518
196.261262 89.406 144.1644
197.683452 89.335 144.2853
199.115948 89.264 144.4137
200.558824 89.194 144.5486
202.012156 89.124 144.6893
203.476019 89.055 144.8351
204.950490 88.988 144.9859
206.435646 88.921 145.1418
207.931564 88.856 145.3028
209.438322 88.792 145.4692
210.955998 88.730 145.6411
212.484672 88.669 145.8187
214.024424 88.610 146.0023
215.575333 88.552 146.1921
217.137481 88.496 146.3883
218.710948 88.442 146.5911
220.295818 88.389 146.8006
221.892172 88.338 147.0166
223.500094 88.289 147.2390
225.119668 88.243 147.4677
226.750978 88.198 147.7024
228.394109 88.155 147.9427
230.049147 88.114 148.1883
231.716178 88.075 148.4387
233.395289 88.039 148.6932
235.086567 88.005 148.9511
236.790102 87.974 149.2115
238.505980 87.945 149.4737
240.234293 87.918 149.7366
241.975130 87.893 149.9996
243.728581 87.870 150.2623
245.494739 87.850 150.5242
247.273695 87.831 150.7852
249.065542 87.814 151.0450
250.870374 87.798 151.3032
252.688284 87.784 151.5601
254.519367 87.771 151.8156
256.363720 87.759 152.0701
258.221437 87.748 152.3238
260.092616 87.737 152.5769
261.977354 87.727 152.8295
263.875750 87.716 153.0816
265.787903 87.707 153.3331
267.713911 87.697 153.5841
269.653877 87.688 153.8346
271.607900 87.678 154.0849
273.576083 87.669 154.3351
275.558528 87.661 154.5854
277.555338 87.653 154.8359
279.566619 87.645 155.0863
281.592474 87.639 155.3364
283.633009 87.633 155.5858
285.688331 87.628 155.8340
287.758546 87.625 156.0810
289.843763 87.622 156.3266
291.944090 87.620 156.5712
294.059638 87.619 156.8151
296.190515 87.619 157.0590
298.336833 87.620 157.3034
300.498705 87.622 157.5488
302.676243 87.625 157.7955
304.869559 87.628 158.0441
307.078770 87.632 158.2948
309.303989 87.637 158.5479
311.545334 87.643 158.8034
313.802919 87.649 159.0612
316.076865 87.657 159.3211
318.367288 87.665 159.5831
320.674309 87.674 159.8470
322.998047 87.684 160.1128
325.338624 87.694 160.3803
327.696162 87.705 160.6496
330.070783 87.717 160.9203
332.462612 87.728 161.1925
334.871773 87.740 161.4660
337.298392 87.752 161.7409
339.742595 87.764 162.0172
342.204510 87.775 162.2948
344.684265 87.787 162.5736
347.181989 87.798 162.8535
349.697813 87.809 163.1340
352.231868 87.819 163.4147
354.784285 87.830 163.6950
357.355198 87.841 163.9745
359.944741 87.852 164.2524
362.553049 87.864 164.5285
365.180258 87.876 164.8021
367.826505 87.889 165.0728
370.491927 87.903 165.3401
373.176665 87.917 165.6038
375.880856 87.933 165.8635
378.604644 87.950 166.1190
381.348169 87.969 166.3698
384.111575 87.988 166.6157
386.895006 88.009 166.8561
389.698607 88.031 167.0905
392.522524 88.054 167.3181
395.366904 88.079 167.5382
398.231895 88.105 167.7500
401.117648 88.131 167.9526
404.024312 88.158 168.1451
406.952038 88.186 168.3270
409.900981 88.214 168.4976
412.871292 88.242 168.6565
415.863128 88.270 168.8035
418.876643 88.297 168.9384
421.911996 88.324 169.0609
424.969344 88.349 169.1708
428.048847 88.374 169.2679
431.150666 88.397 169.3518
434.274961 88.419 169.4223
437.421897 88.439 169.4792
440.591636 88.458 169.5222
443.784345 88.475 169.5514
447.000189 88.491 169.5666
450.239337 88.506 169.5681
453.501956 88.520 169.5560
456.788219 88.532 169.5309
460.098294 88.543 169.4933
463.432356 88.554 169.4439
466.790578 88.563 169.3835
470.173135 88.572 169.3131
473.580203 88.581 169.2333
477.011961 88.590 169.1450
480.468586 88.598 169.0483
483.950259 88.607 168.9437
487.457163 88.615 168.8311
490.989478 88.623 168.7104
494.547390 88.632 168.5818
498.131084 88.640 168.4450
501.740748 88.648 168.3004
505.376568 88.656 168.1479
509.038735 88.663 167.9883
512.727439 88.671 167.8220
516.442874 88.678 167.6497
520.185232 88.684 167.4721
523.954708 88.691 167.2901
527.751500 88.698 167.1046
531.575805 88.704 166.9162
535.427822 88.711 166.7258
539.307753 88.718 166.5343
543.215800 88.725 166.3425
547.152165 88.732 166.1512
551.117055 88.739 165.9612
555.110677 88.747 165.7737
559.133237 88.755 165.5892
563.184947 88.763 165.4088
567.266018 88.771 165.2329
571.376661 88.779 165.0624
575.517092 88.787 164.8979
579.687526 88.794 164.7397
583.888181 88.801 164.5883
588.119275 88.807 164.4438
592.381030 88.813 164.3061
596.673667 88.817 164.1751
600.997410 88.821 164.0507
605.352485 88.822 163.9326
609.739119 88.823 163.8208
614.157540 88.822 163.7156
618.607979 88.819 163.6171
623.090667 88.815 163.5256
627.605839 88.810 163.4415
632.153730 88.803 163.3649
636.734576 88.795 163.2958
641.348617 88.786 163.2340
645.996094 88.776 163.1786
650.677248 88.766 163.1284
655.392323 88.756 163.0816
660.141566 88.745 163.0363
664.925224 88.734 162.9899
669.743546 88.723 162.9403
674.596784 88.711 162.8853
679.485191 88.699 162.8231
684.409020 88.686 162.7529
689.368530 88.672 162.6740
694.363979 88.656 162.5867
699.395626 88.638 162.4918
704.463736 88.617 162.3904
709.568570 88.595 162.2840
714.710396 88.569 162.1743
719.889483 88.541 162.0633
725.106099 88.510 161.9529
730.360516 88.475 161.8452
735.653010 88.438 161.7420
740.983855 88.397 161.6454
746.353329 88.353 161.5572
751.761713 88.307 161.4792
757.209288 88.257 161.4135
762.696339 88.205 161.3617
768.223151 88.150 161.3257
773.790013 88.093 161.3073
779.397214 88.035 161.3076
785.045047 87.976 161.3278
790.733808 87.917 161.3686
796.463791 87.858 161.4304
802.235296 87.801 161.5128
808.048623 87.746 161.6149
813.904077 87.693 161.7351
819.801961 87.645 161.8703
825.742584 87.601 162.0165
831.726255 87.563 162.1680
837.753287 87.530 162.3176
843.823992 87.504 162.4567
849.938689 87.485 162.5756
856.097695 87.471 162.6644
862.301332 87.462 162.7136
868.549922 87.456 162.7156
874.843793 87.452 162.6660
881.183272 87.447 162.5643
887.568689 87.439 162.4144
894.000378 87.426 162.2250
900.478673 87.408 162.0078
907.003913 87.382 161.7762
913.576437 87.349 161.5440
920.196588 87.310 161.3235
926.864712 87.265 161.1248
933.581156 87.216 160.9549
940.346270 87.165 160.8184
947.160407 87.111 160.7173
954.023921 87.058 160.6516
960.937172 87.005 160.6198
967.900519 86.954 160.6194
974.914325 86.905 160.6475
981.978956 86.859 160.7010
989.094780 86.816 160.7773
996.262169 86.777 160.8737
1003.481495 86.741 160.9886
1010.753136 86.707 161.1207
1018.077470 86.677 161.2699
1025.454879 86.649 161.4366
1032.885748 86.624 161.6223
1040.370463 86.601 161.8296
1047.909417 86.580 162.0617
1055.503000 86.561 162.3230
1063.151610 86.545 162.6184
1070.855645 86.531 162.9538
1078.615506 86.520 163.3351
1086.431599 86.514 163.7686
1094.304330 86.514 164.2595
1102.234110 86.522 164.8112
1110.221353 86.541 165.4240
1118.266475 86.572 166.0938
1126.369895 86.619 166.8095
1134.532035 86.684 167.5530
1142.753322 86.769 168.2979
1151.034184 86.874 169.0105
1159.375052 86.997 169.6532
1167.776361 87.137 170.1884
1176.238550 87.288 170.5842
1184.762060 87.445 170.8190
1193.347334 87.600 170.8853
1201.994821 87.750 170.7898
1210.704971 87.888 170.5513
1219.478238 88.012 170.1965
1228.315080 88.119 169.7559
1237.215957 88.209 169.2596
1246.181334 88.282 168.7353
1255.211678 88.341 168.2059
1264.307459 88.386 167.6897
1273.469152 88.420 167.2000
1282.697235 88.445 166.7458
1291.992188 88.463 166.3324
1301.354495 88.475 165.9621
1310.784647 88.483 165.6352
1320.283132 88.489 165.3502
1329.850448 88.493 165.1046
1339.487093 88.496 164.8952
1349.193569 88.499 164.7185
1358.970381 88.503 164.5709
1368.818041 88.508 164.4489
1378.737061 88.514 164.3491
1388.727958 88.522 164.2685
1398.791253 88.532 164.2043
1408.927471 88.545 164.1540
1419.137140 88.559 164.1156
1429.420793 88.576 164.0872
1439.778965 88.595 164.0675
1450.212197 88.617 164.0552
1460.721033 88.641 164.0493
1471.306019 88.668 164.0492
1481.967709 88.696 164.0542
1492.706658 88.726 164.0638
1503.523426 88.758 164.0777
1514.418576 88.790 164.0954
1525.392678 88.823 164.1165
1536.446302 88.857 164.1407
1547.580025 88.890 164.1675
1558.794428 88.922 164.1966
1570.090095 88.953 164.2274
1581.467615 88.982 164.2596
1592.927581 89.009 164.2928
1604.470591 89.034 164.3265
1616.097246 89.056 164.3603
1627.808153 89.074 164.3938
1639.603922 89.090 164.4265
1651.485168 89.102 164.4579
1663.452510 89.112 164.4878
1675.506573 89.118 164.5156
1687.647984 89.121 164.5412
1699.877377 89.121 164.5645
1712.195390 89.118 164.5854
1724.602663 89.112 164.6040
1737.099845 89.104 164.6204
1749.687587 89.093 164.6349
1762.366544 89.079 164.6478
1775.137379 89.063 164.6597
1788.000756 89.044 164.6710
1800.957346 89.023 164.6826
1814.007826 89.000 164.6949
1827.152874 88.973 164.7091
1840.393177 88.944 164.7258
1853.729425 88.912 164.7459
1867.162312 88.876 164.7703
1880.692540 88.838 164.7997
1894.320813 88.796 164.8349
1908.047843 88.750 164.8769
1921.874344 88.701 164.9264
1935.801038 88.649 164.9841
1949.828650 88.593 165.0507
1963.957912 88.534 165.1263
1978.189561 88.472 165.2112
1992.524338 88.407 165.3050
2006.962991 88.340 165.4073
2021.506272 88.269 165.5174
2036.154940 88.196 165.6345
2050.909758 88.121 165.7582
2065.771495 88.043 165.8882
2080.740927 87.964 166.0247
2095.818833 87.882 166.1684
2111.006001 87.798 166.3203
2126.303220 87.713 166.4820
2141.711290 87.626 166.6547
2157.231013 87.539 166.8398
2172.863198 87.452 167.0383
2188.608660 87.365 167.2507
2204.468221 87.278 167.4772
2220.442706 87.193 167.7173
2236.532950 87.110 167.9705
2252.739789 87.028 168.2360
2269.064070 86.948 168.5129
2285.506644 86.871 168.8007
2302.068367 86.796 169.0985
2318.750104 86.724 169.4060
2335.552723 86.655 169.7227
2352.477101 86.588 170.0485
2369.524119 86.525 170.3830
2386.694668 86.465 170.7260
2403.989641 86.408 171.0772
2421.409941 86.356 171.4363
2438.956476 86.307 171.8029
2456.630160 86.263 172.1765
2474.431915 86.223 172.5565
2492.362668 86.189 172.9423
2510.423356 86.160 173.3328
2528.614918 86.136 173.7269
2546.938304 86.118 174.1234
2565.394469 86.106 174.5208
2583.984375 86.100 174.9178
2602.708991 86.099 175.3129
2621.569293 86.105 175.7047
2640.566265 86.116 176.0916
2659.700897 86.132 176.4724
2678.974186 86.154 176.8462
2698.387137 86.180 177.2121
2717.940763 86.210 177.5699
2737.636082 86.243 177.9195
2757.474121 86.280 178.2614
2777.455915 86.320 178.5964
2797.582506 86.362 178.9258
2817.854942 86.405 179.2509
2838.274281 86.449 179.5734
2858.841586 86.495 179.8948
2879.557931 86.540 -179.7827
2900.424394 86.586 -179.4571
2921.442065 86.632 -179.1263
2942.612039 86.677 -178.7878
2963.935418 86.721 -178.4395
2985.413316 86.764 -178.0791
3007.046852 86.806 -177.7050
3028.837153 86.847 -177.3159
3050.785356 86.886 -176.9111
3072.892604 86.924 -176.4906
3095.160050 86.959 -176.0548
3117.588856 86.992 -175.6048
3140.180190 87.024 -175.1420
3162.935230 87.053 -174.6685
3185.855163 87.079 -174.1865
3208.941182 87.103 -173.6985
3232.194493 87.125 -173.2069
3255.616307 87.143 -172.7139
3279.207844 87.158 -172.2209
3302.970336 87.170 -171.7291
3326.905021 87.179 -171.2385
3351.013146 87.185 -170.7491
3375.295969 87.188 -170.2606
3399.754755 87.188 -169.7729
3424.390779 87.187 -169.2864
3449.205326 87.184 -168.8019
3474.199690 87.180 -168.3203
3499.375173 87.176 -167.8430
3524.733088 87.172 -167.3709
3550.274757 87.169 -166.9049
3576.001511 87.168 -166.4449
3601.914692 87.169 -165.9906
