* Measurement data measured by REW V5.31.3
* Source: EXCL: Headset (USB-C to 3.5mm Headphone Jack Adapter), MICROPHONE (Master Volume), 0, volume: 0.260
* Format: 256k Log Swept Sine, 1 sweep at -12.0 dBFS with no timing reference
* Dated: Mar 5, 2025 11:03:58 AM
* REW Settings:
*  C-weighting compensation: Off
*  Target level: 75.0 dB
* Note: ; 
* Measurement: Ouroboros (glasses) L9
* Smoothing: 1/6 octave
* Frequency Step: 96 ppo
* Start Frequency: 20.0 Hz
*
* Freq(Hz) SPL(dB) Phase(degrees)
20.141602 87.751 -70.3896
20.287556 87.779 -70.5736
20.434568 87.816 -70.8341
20.582645 87.860 -71.1804
20.731796 87.910 -71.6192
20.882027 87.964 -72.1519
21.033346 88.017 -72.7731
21.185763 88.067 -73.4699
21.339284 88.110 -74.2221
21.493917 88.145 -75.0043
21.649671 88.169 -75.7869
21.806553 88.181 -76.5393
21.964572 88.183 -77.2318
22.123737 88.175 -77.8392
22.284054 88.160 -78.3430
22.445534 88.142 -78.7340
22.608183 88.124 -79.0141
22.772012 88.111 -79.1971
22.937027 88.104 -79.3077
23.103238 88.107 -79.3795
23.270654 88.119 -79.4504
23.439282 88.139 -79.5585
23.609133 88.165 -79.7365
23.780215 88.193 -80.0084
23.952536 88.219 -80.3866
24.126106 88.239 -80.8715
24.300934 88.251 -81.4527
24.477028 88.253 -82.1110
24.654399 88.246 -82.8223
24.833055 88.232 -83.5604
25.013005 88.213 -84.3014
25.194260 88.194 -85.0266
25.376828 88.180 -85.7242
25.560719 88.174 -86.3907
25.745942 88.180 -87.0301
25.932508 88.199 -87.6514
26.120426 88.230 -88.2657
26.309705 88.272 -88.8827
26.500356 88.319 -89.5074
26.692388 88.369 -90.1391
26.885812 88.417 -90.7700
27.080638 88.460 -91.3872
27.276876 88.497 -91.9749
27.474535 88.527 -92.5172
27.673627 88.552 -93.0011
27.874161 88.574 -93.4202
28.076149 88.596 -93.7758
28.279600 88.620 -94.0782
28.484526 88.649 -94.3450
28.690937 88.683 -94.5995
28.898843 88.721 -94.8667
29.108256 88.761 -95.1695
29.319186 88.800 -95.5261
29.531645 88.834 -95.9476
29.745644 88.860 -96.4381
29.961193 88.875 -96.9950
30.178304 88.879 -97.6113
30.396989 88.871 -98.2775
30.617258 88.852 -98.9832
30.839123 88.825 -99.7187
31.062596 88.794 -100.4753
31.287688 88.762 -101.2455
31.514412 88.735 -102.0214
31.742778 88.715 -102.7946
31.972800 88.707 -103.5543
32.204488 88.713 -104.2876
32.437855 88.734 -104.9790
32.672913 88.771 -105.6123
32.909674 88.824 -106.1717
33.148151 88.892 -106.6444
33.388356 88.972 -107.0227
33.630302 89.062 -107.3052
33.874001 89.160 -107.4979
34.119466 89.262 -107.6134
34.366710 89.366 -107.6695
34.615745 89.467 -107.6871
34.866585 89.563 -107.6876
35.119243 89.649 -107.6905
35.373731 89.723 -107.7118
35.630064 89.783 -107.7629
35.888254 89.827 -107.8509
36.148315 89.853 -107.9793
36.410261 89.862 -108.1496
36.674104 89.854 -108.3628
36.939860 89.830 -108.6208
37.207542 89.791 -108.9265
37.477163 89.740 -109.2837
37.748738 89.679 -109.6956
38.022281 89.609 -110.1628
38.297806 89.534 -110.6808
38.575327 89.454 -111.2381
38.854860 89.374 -111.8152
39.136419 89.295 -112.3857
39.420017 89.221 -112.9184
39.705671 89.154 -113.3820
39.993395 89.098 -113.7494
40.283203 89.055 -114.0026
40.575112 89.025 -114.1359
40.869136 89.009 -114.1563
41.165290 89.004 -114.0821
41.463591 89.007 -113.9390
41.764053 89.015 -113.7561
42.066693 89.025 -113.5618
42.371525 89.035 -113.3809
42.678567 89.044 -113.2334
42.987834 89.052 -113.1341
43.299341 89.060 -113.0923
43.613106 89.070 -113.1118
43.929145 89.083 -113.1913
44.247473 89.101 -113.3243
44.568109 89.123 -113.5001
44.891068 89.149 -113.7055
45.216367 89.178 -113.9265
45.544023 89.209 -114.1511
45.874054 89.241 -114.3709
46.206476 89.274 -114.5824
46.541307 89.307 -114.7875
46.878565 89.341 -114.9922
47.218266 89.376 -115.2053
47.560429 89.414 -115.4365
47.905072 89.454 -115.6939
48.252212 89.498 -115.9824
48.601867 89.544 -116.3031
48.954056 89.594 -116.6532
49.308798 89.645 -117.0267
49.666109 89.698 -117.4164
50.026010 89.753 -117.8151
50.388520 89.808 -118.2165
50.753656 89.864 -118.6161
51.121437 89.921 -119.0101
51.491884 89.978 -119.3953
51.865016 90.036 -119.7685
52.240851 90.093 -120.1268
52.619410 90.151 -120.4679
53.000712 90.208 -120.7905
53.384777 90.264 -121.0949
53.771625 90.318 -121.3828
54.161276 90.368 -121.6571
54.553751 90.414 -121.9211
54.949070 90.455 -122.1782
55.347254 90.491 -122.4312
55.748323 90.521 -122.6821
56.152298 90.545 -122.9325
56.559201 90.564 -123.1838
56.969052 90.579 -123.4375
57.381873 90.591 -123.6957
57.797686 90.600 -123.9600
58.216512 90.610 -124.2303
58.638373 90.621 -124.5050
59.063291 90.637 -124.7808
59.491288 90.659 -125.0544
59.922386 90.690 -125.3244
60.356608 90.729 -125.5912
60.793977 90.778 -125.8568
61.234515 90.834 -126.1237
61.678246 90.895 -126.3942
62.125192 90.957 -126.6704
62.575377 91.017 -126.9548
63.028824 91.075 -127.2498
63.485557 91.129 -127.5573
63.945599 91.179 -127.8776
64.408975 91.225 -128.2087
64.875709 91.267 -128.5466
65.345825 91.306 -128.8860
65.819348 91.343 -129.2216
66.296302 91.377 -129.5494
66.776713 91.411 -129.8676
67.260604 91.443 -130.1769
67.748002 91.474 -130.4808
68.238932 91.504 -130.7842
68.733420 91.535 -131.0924
69.231490 91.566 -131.4098
69.733170 91.597 -131.7389
70.238485 91.628 -132.0800
70.747463 91.660 -132.4311
71.260128 91.692 -132.7891
71.776508 91.725 -133.1498
72.296630 91.757 -133.5093
72.820521 91.789 -133.8639
73.348209 91.820 -134.2109
73.879720 91.849 -134.5485
74.415083 91.878 -134.8761
74.954326 91.905 -135.1942
75.497475 91.930 -135.5041
76.044561 91.953 -135.8082
76.595612 91.975 -136.1089
77.150655 91.995 -136.4084
77.709720 92.013 -136.7084
78.272837 92.031 -137.0093
78.840034 92.048 -137.3103
79.411342 92.065 -137.6098
79.986789 92.081 -137.9062
80.566406 92.097 -138.1979
81.150224 92.113 -138.4845
81.738272 92.129 -138.7661
82.330581 92.145 -139.0431
82.927182 92.161 -139.3160
83.528107 92.177 -139.5851
84.133386 92.192 -139.8504
84.743051 92.208 -140.1118
85.357134 92.222 -140.3693
85.975667 92.237 -140.6230
86.598682 92.252 -140.8737
87.226212 92.269 -141.1223
87.858289 92.286 -141.3700
88.494946 92.305 -141.6185
89.136217 92.327 -141.8692
89.782135 92.351 -142.1236
90.432733 92.376 -142.3826
91.088046 92.403 -142.6466
91.748108 92.432 -142.9150
92.412952 92.462 -143.1868
93.082615 92.492 -143.4605
93.757130 92.523 -143.7347
94.436533 92.553 -144.0083
95.120859 92.582 -144.2806
95.810144 92.610 -144.5510
96.504423 92.637 -144.8192
97.203734 92.661 -145.0854
97.908112 92.684 -145.3501
98.617595 92.705 -145.6140
99.332219 92.723 -145.8781
100.052021 92.740 -146.1430
100.777039 92.755 -146.4088
101.507311 92.769 -146.6750
102.242875 92.781 -146.9409
102.983769 92.792 -147.2058
103.730032 92.802 -147.4693
104.481702 92.811 -147.7312
105.238820 92.821 -147.9918
106.001424 92.831 -148.2511
106.769554 92.843 -148.5091
107.543250 92.855 -148.7656
108.322553 92.870 -149.0204
109.107503 92.887 -149.2736
109.898141 92.905 -149.5254
110.694508 92.926 -149.7764
111.496646 92.948 -150.0276
112.304596 92.971 -150.2800
113.118402 92.995 -150.5348
113.938104 93.019 -150.7931
114.763747 93.044 -151.0556
115.595372 93.068 -151.3225
116.433024 93.090 -151.5936
117.276746 93.112 -151.8685
118.126581 93.131 -152.1465
118.982575 93.149 -152.4265
119.844772 93.166 -152.7077
120.713217 93.181 -152.9893
121.587954 93.196 -153.2707
122.469031 93.210 -153.5523
123.356492 93.224 -153.8347
124.250384 93.239 -154.1191
125.150753 93.254 -154.4064
126.057647 93.270 -154.6974
126.971113 93.286 -154.9920
127.891198 93.304 -155.2899
128.817950 93.322 -155.5899
129.751418 93.342 -155.8912
130.691651 93.362 -156.1928
131.638696 93.383 -156.4944
132.592604 93.404 -156.7960
133.553425 93.425 -157.0980
134.521208 93.445 -157.4010
135.496004 93.465 -157.7055
136.477864 93.484 -158.0119
137.466839 93.502 -158.3201
138.462981 93.518 -158.6299
139.466340 93.531 -158.9406
140.476971 93.542 -159.2513
141.494925 93.550 -159.5612
142.520256 93.555 -159.8693
143.553016 93.558 -160.1754
144.593260 93.557 -160.4792
145.641043 93.554 -160.7807
146.696418 93.550 -161.0798
147.759441 93.544 -161.3760
148.830166 93.537 -161.6687
149.908651 93.531 -161.9574
150.994951 93.525 -162.2417
152.089123 93.520 -162.5215
153.191223 93.516 -162.7976
154.301310 93.513 -163.0711
155.419441 93.510 -163.3440
156.545674 93.508 -163.6181
157.680069 93.505 -163.8946
158.822683 93.503 -164.1741
159.973578 93.500 -164.4565
161.132813 93.496 -164.7411
162.300447 93.492 -165.0271
163.476543 93.488 -165.3136
164.661162 93.483 -165.5997
165.854364 93.477 -165.8847
167.056213 93.470 -166.1683
168.266772 93.463 -166.4501
169.486102 93.456 -166.7298
170.714268 93.447 -167.0071
171.951334 93.438 -167.2817
173.197364 93.428 -167.5530
174.452424 93.418 -167.8206
175.716578 93.407 -168.0839
176.989893 93.395 -168.3421
178.272434 93.382 -168.5950
179.564270 93.367 -168.8420
180.865467 93.352 -169.0832
182.176092 93.334 -169.3185
183.496216 93.316 -169.5482
184.825905 93.295 -169.7729
186.165229 93.273 -169.9929
187.514259 93.248 -170.2087
188.873065 93.222 -170.4207
190.241717 93.193 -170.6291
191.620287 93.162 -170.8335
193.008847 93.129 -171.0338
194.407468 93.093 -171.2293
195.816225 93.055 -171.4197
197.235190 93.015 -171.6050
198.664438 92.973 -171.7855
200.104042 92.929 -171.9621
201.554078 92.884 -172.1358
203.014622 92.839 -172.3075
204.485750 92.792 -172.4779
205.967538 92.747 -172.6471
207.460064 92.702 -172.8146
208.963405 92.659 -172.9796
210.477640 92.618 -173.1410
212.002848 92.580 -173.2978
213.539108 92.546 -173.4491
215.086500 92.516 -173.5939
216.645105 92.490 -173.7316
218.215005 92.469 -173.8613
219.796281 92.453 -173.9827
221.389015 92.441 -174.0952
222.993292 92.434 -174.1992
224.609193 92.432 -174.2952
226.236804 92.433 -174.3840
227.876209 92.439 -174.4668
229.527494 92.447 -174.5444
231.190745 92.458 -174.6176
232.866048 92.472 -174.6866
234.553491 92.487 -174.7515
236.253163 92.503 -174.8125
237.965150 92.520 -174.8699
239.689544 92.538 -174.9242
241.426433 92.555 -174.9761
243.175909 92.573 -175.0257
244.938062 92.591 -175.0730
246.712984 92.608 -175.1174
248.500768 92.624 -175.1583
250.301507 92.640 -175.1948
252.115295 92.655 -175.2264
253.942226 92.670 -175.2525
255.782396 92.684 -175.2732
257.635901 92.697 -175.2885
259.502837 92.710 -175.2987
261.383301 92.722 -175.3044
263.277392 92.733 -175.3063
265.185209 92.744 -175.3054
267.106850 92.754 -175.3027
269.042417 92.763 -175.2990
270.992009 92.769 -175.2945
272.955729 92.773 -175.2888
274.933678 92.775 -175.2817
276.925961 92.774 -175.2728
278.932681 92.771 -175.2618
280.953942 92.764 -175.2485
282.989850 92.754 -175.2327
285.040511 92.740 -175.2145
287.106032 92.724 -175.1940
289.186521 92.704 -175.1715
291.282086 92.681 -175.1474
293.392836 92.656 -175.1223
295.518881 92.628 -175.0967
297.660333 92.597 -175.0713
299.817302 92.565 -175.0466
301.989902 92.533 -175.0231
304.178245 92.500 -175.0011
306.382446 92.467 -174.9811
308.602620 92.435 -174.9633
310.838882 92.405 -174.9483
313.091348 92.377 -174.9364
315.360137 92.353 -174.9282
317.645367 92.331 -174.9241
319.947156 92.314 -174.9243
322.265625 92.301 -174.9290
324.600895 92.293 -174.9383
326.953086 92.291 -174.9522
329.322323 92.294 -174.9707
331.708729 92.302 -174.9941
334.112427 92.316 -175.0226
336.533543 92.336 -175.0566
338.972204 92.362 -175.0964
341.428536 92.393 -175.1426
343.902668 92.430 -175.1954
346.394729 92.471 -175.2552
348.904848 92.515 -175.3223
351.433156 92.563 -175.3966
353.979786 92.613 -175.4784
356.544869 92.665 -175.5676
359.128540 92.716 -175.6641
361.730934 92.767 -175.7678
364.352185 92.815 -175.8783
366.992431 92.861 -175.9955
369.651810 92.903 -176.1187
372.330459 92.940 -176.2476
375.028519 92.973 -176.3818
377.746130 93.000 -176.5208
380.483434 93.021 -176.6640
383.240574 93.036 -176.8109
386.017693 93.046 -176.9604
388.814937 93.050 -177.1116
391.632450 93.049 -177.2633
394.470380 93.045 -177.4147
397.328875 93.038 -177.5651
400.208084 93.029 -177.7139
403.108157 93.019 -177.8612
406.029245 93.011 -178.0070
408.971500 93.003 -178.1517
411.935076 92.999 -178.2956
414.920127 92.998 -178.4392
417.926810 93.001 -178.5826
420.955280 93.008 -178.7257
424.005695 93.019 -178.8686
427.078215 93.034 -179.0109
430.173000 93.053 -179.1525
433.290211 93.073 -179.2931
436.430010 93.096 -179.4322
439.592562 93.119 -179.5696
442.778031 93.141 -179.7051
445.986583 93.162 -179.8384
449.218386 93.182 -179.9695
452.473607 93.198 179.9016
455.752418 93.212 179.7744
459.054987 93.222 179.6484
462.381489 93.229 179.5228
465.732096 93.233 179.3966
469.106983 93.235 179.2684
472.506325 93.234 179.1367
475.930301 93.231 179.0004
479.379088 93.227 178.8594
482.852867 93.221 178.7148
486.351817 93.215 178.5686
489.876123 93.208 178.4236
493.425968 93.202 178.2828
497.001536 93.197 178.1490
500.603014 93.195 178.0247
504.230589 93.196 177.9113
507.884452 93.202 177.8094
511.564792 93.215 177.7182
515.271802 93.234 177.6356
519.005673 93.261 177.5589
522.766602 93.296 177.4847
526.554785 93.338 177.4094
530.370418 93.386 177.3292
534.213700 93.441 177.2404
538.084833 93.500 177.1398
541.984018 93.563 177.0248
545.911457 93.628 176.8942
549.867357 93.693 176.7473
553.851922 93.757 176.5845
557.865362 93.817 176.4070
561.907884 93.874 176.2164
565.979700 93.925 176.0142
570.081022 93.969 175.8022
574.212064 94.004 175.5819
578.373042 94.031 175.3547
582.564171 94.048 175.1216
586.785671 94.055 174.8836
591.037762 94.051 174.6416
595.320665 94.035 174.3968
599.634604 94.008 174.1501
603.979804 93.970 173.9028
608.356491 93.921 173.6562
612.764893 93.863 173.4116
617.205240 93.797 173.1700
621.677763 93.725 172.9328
626.182696 93.648 172.7007
630.720274 93.568 172.4745
635.290733 93.488 172.2548
639.894312 93.410 172.0419
644.531250 93.334 171.8360
649.201789 93.263 171.6369
653.906173 93.199 171.4439
658.644647 93.141 171.2559
663.417457 93.092 171.0713
668.224854 93.051 170.8882
673.067086 93.019 170.7046
677.944408 92.997 170.5182
682.857073 92.984 170.3271
687.805336 92.979 170.1295
692.789457 92.982 169.9241
697.809695 92.992 169.7101
702.866312 93.008 169.4874
707.959571 93.028 169.2564
713.089738 93.051 169.0181
718.257080 93.076 168.7737
723.461867 93.100 168.5248
728.704370 93.122 168.2733
733.984862 93.141 168.0208
739.303619 93.155 167.7693
744.660918 93.164 167.5208
750.057038 93.166 167.2771
755.492260 93.163 167.0402
760.966869 93.154 166.8120
766.481148 93.140 166.5947
772.035387 93.121 166.3903
777.629873 93.098 166.2006
783.264900 93.070 166.0274
788.940760 93.039 165.8726
794.657750 93.003 165.7373
800.416168 92.963 165.6230
806.216313 92.918 165.5305
812.058489 92.868 165.4604
817.943000 92.812 165.4128
823.870152 92.750 165.3873
829.840255 92.683 165.3825
835.853619 92.612 165.3960
841.910559 92.538 165.4238
848.011390 92.464 165.4603
854.156430 92.392 165.4983
860.346000 92.325 165.5288
866.580422 92.265 165.5419
872.860020 92.214 165.5270
879.185124 92.174 165.4743
885.556062 92.146 165.3755
891.973166 92.128 165.2254
898.436771 92.120 165.0229
904.947215 92.120 164.7711
911.504835 92.126 164.4775
918.109975 92.135 164.1525
924.762978 92.145 163.8082
931.464192 92.155 163.4570
938.213966 92.163 163.1101
945.012651 92.169 162.7764
951.860602 92.171 162.4628
958.758176 92.170 162.1736
965.705733 92.164 161.9111
972.703635 92.154 161.6759
979.752246 92.140 161.4677
986.851935 92.122 161.2852
994.003071 92.101 161.1270
1001.206027 92.076 160.9916
1008.461179 92.048 160.8780
1015.768904 92.019 160.7856
1023.129584 91.988 160.7142
1030.543603 91.959 160.6648
1038.011347 91.930 160.6389
1045.533205 91.904 160.6391
1053.109569 91.881 160.6690
1060.740836 91.863 160.7332
1068.427401 91.849 160.8368
1076.169666 91.840 160.9860
1083.968035 91.836 161.1870
1091.822915 91.838 161.4457
1099.734713 91.846 161.7672
1107.703844 91.861 162.1544
1115.730723 91.884 162.6073
1123.815768 91.916 163.1205
1131.959400 91.958 163.6827
1140.162045 92.013 164.2747
1148.424129 92.080 164.8698
1156.746083 92.162 165.4347
1165.128342 92.257 165.9328
1173.571343 92.364 166.3285
1182.075524 92.480 166.5926
1190.641331 92.599 166.7067
1199.269209 92.719 166.6657
1207.959608 92.834 166.4782
1216.712981 92.941 166.1636
1225.529785 93.038 165.7480
1234.410479 93.124 165.2604
1243.355526 93.200 164.7292
1252.365393 93.265 164.1795
1261.440549 93.321 163.6318
1270.581467 93.371 163.1019
1279.788624 93.415 162.6010
1289.062500 93.455 162.1358
1298.403578 93.492 161.7101
1307.812346 93.526 161.3245
1317.289293 93.558 160.9781
1326.834914 93.589 160.6684
1336.449707 93.618 160.3922
1346.134173 93.646 160.1460
1355.888816 93.671 159.9261
1365.714145 93.694 159.7290
1375.610673 93.714 159.5514
1385.578915 93.731 159.3902
1395.619391 93.745 159.2429
1405.732624 93.757 159.1073
1415.919142 93.765 158.9814
1426.179476 93.771 158.8637
1436.514160 93.774 158.7529
1446.923734 93.774 158.6478
1457.408740 93.772 158.5475
1467.969724 93.769 158.4513
1478.607238 93.763 158.3585
1489.321836 93.756 158.2685
1500.114076 93.746 158.1807
1510.984521 93.734 158.0948
1521.933737 93.719 158.0100
1532.962297 93.701 157.9261
1544.070773 93.680 157.8426
1555.259747 93.657 157.7590
1566.529800 93.630 157.6750
1577.881521 93.600 157.5900
1589.315501 93.568 157.5038
1600.832336 93.534 157.4160
1612.432627 93.499 157.3261
1624.116978 93.463 157.2340
1635.886000 93.427 157.1395
1647.740304 93.390 157.0424
1659.680509 93.354 156.9426
1671.707238 93.317 156.8400
1683.821118 93.280 156.7349
1696.022780 93.242 156.6270
1708.312860 93.204 156.5166
1720.692000 93.165 156.4039
1733.160843 93.125 156.2890
1745.720041 93.085 156.1721
1758.370248 93.045 156.0538
1771.112124 93.005 155.9345
1783.946332 92.966 155.8148
1796.873543 92.927 155.6953
1809.894429 92.890 155.5767
1823.009670 92.853 155.4596
1836.219950 92.817 155.3442
1849.525956 92.781 155.2311
1862.928384 92.745 155.1207
1876.427931 92.707 155.0136
1890.025301 92.667 154.9107
1903.721204 92.624 154.8131
1917.516352 92.577 154.7219
1931.411466 92.527 154.6385
1945.407270 92.472 154.5637
1959.504493 92.413 154.4985
1973.703870 92.350 154.4437
1988.006142 92.284 154.3997
2002.412054 92.215 154.3666
2016.922357 92.144 154.3443
2031.537808 92.071 154.3323
2046.259169 91.999 154.3300
2061.087206 91.927 154.3363
2076.022694 91.856 154.3505
2091.066410 91.788 154.3718
2106.219139 91.722 154.4000
2121.481671 91.660 154.4352
2136.854802 91.601 154.4780
2152.339333 91.546 154.5295
2167.936071 91.495 154.5908
2183.645829 91.450 154.6631
2199.469427 91.410 154.7472
2215.407689 91.376 154.8435
2231.461446 91.348 154.9521
2247.631536 91.327 155.0728
2263.918800 91.314 155.2051
2280.324089 91.307 155.3487
2296.848258 91.307 155.5034
2313.492167 91.315 155.6693
2330.256685 91.328 155.8466
2347.142685 91.348 156.0361
2364.151049 91.372 156.2382
2381.282662 91.402 156.4538
2398.538418 91.434 156.6836
2415.919216 91.470 156.9282
2433.425962 91.508 157.1882
2451.059570 91.548 157.4637
2468.820958 91.588 157.7546
2486.711052 91.628 158.0604
2504.730786 91.667 158.3801
2522.881098 91.704 158.7125
2541.162934 91.739 159.0560
2559.577248 91.772 159.4091
2578.125000 91.801 159.7701
2596.807157 91.826 160.1375
2615.624692 91.847 160.5100
2634.578586 91.862 160.8865
2653.669829 91.873 161.2661
2672.899414 91.878 161.6483
2692.268345 91.877 162.0324
2711.777632 91.871 162.4182
2731.428290 91.859 162.8054
2751.221345 91.841 163.1937
2771.157829 91.819 163.5830
2791.238781 91.791 163.9731
2811.465248 91.758 164.3640
2831.838284 91.721 164.7554
2852.358952 91.679 165.1476
2873.028321 91.634 165.5408
2893.847468 91.584 165.9355
2914.817480 91.530 166.3323
2935.939449 91.474 166.7323
2957.214476 91.413 167.1369
2978.643672 91.350 167.5475
3000.228152 91.284 167.9660
3021.969041 91.216 168.3940
3043.867475 91.147 168.8332
3065.924593 91.076 169.2850
3088.141547 91.005 169.7509
3110.519493 90.935 170.2316
3133.059600 90.865 170.7281
3155.763041 90.796 171.2410
3178.631001 90.729 171.7705
3201.664672 90.665 172.3167
3224.865254 90.604 172.8792
3248.233957 90.547 173.4570
3271.771999 90.494 174.0488
3295.480608 90.447 174.6529
3319.361019 90.405 175.2676
3343.414477 90.370 175.8911
3367.642236 90.342 176.5219
