* Measurement data measured by REW V5.31.3
* Source: EXCL: Headset (USB-C to 3.5mm Headphone Jack Adapter), MICROPHONE (Master Volume), 0, volume: 0.260
* Format: 256k Log Swept Sine, 1 sweep at -12.0 dBFS with no timing reference
* Dated: Feb 21, 2025 5:22:15 PM
* REW Settings:
*  C-weighting compensation: Off
*  Target level: 75.0 dB
* Note: ; 
* Measurement: Ouroboros (Golem Mod) L2
* Smoothing: 1/6 octave
* Frequency Step: 96 ppo
* Start Frequency: 20.0 Hz
*
* Freq(Hz) SPL(dB) Phase(degrees)
20.141602 106.432 -113.7110
20.287556 106.415 -113.9372
20.434568 106.392 -114.2396
20.582645 106.364 -114.6084
20.731796 106.332 -115.0329
20.882027 106.296 -115.5023
21.033346 106.258 -116.0069
21.185763 106.219 -116.5379
21.339284 106.178 -117.0880
21.493917 106.137 -117.6512
21.649671 106.097 -118.2229
21.806553 106.058 -118.7998
21.964572 106.020 -119.3795
22.123737 105.983 -119.9611
22.284054 105.948 -120.5441
22.445534 105.914 -121.1291
22.608183 105.881 -121.7169
22.772012 105.849 -122.3091
22.937027 105.817 -122.9072
23.103238 105.786 -123.5126
23.270654 105.754 -124.1267
23.439282 105.722 -124.7501
23.609133 105.689 -125.3832
23.780215 105.654 -126.0253
23.952536 105.619 -126.6752
24.126106 105.583 -127.3310
24.300934 105.546 -127.9904
24.477028 105.509 -128.6507
24.654399 105.472 -129.3090
24.833055 105.436 -129.9628
25.013005 105.402 -130.6098
25.194260 105.369 -131.2481
25.376828 105.339 -131.8763
25.560719 105.312 -132.4937
25.745942 105.287 -133.0996
25.932508 105.265 -133.6940
26.120426 105.246 -134.2770
26.309705 105.229 -134.8487
26.500356 105.214 -135.4095
26.692388 105.202 -135.9599
26.885812 105.191 -136.5006
27.080638 105.182 -137.0326
27.276876 105.174 -137.5574
27.474535 105.168 -138.0765
27.673627 105.163 -138.5919
27.874161 105.159 -139.1055
28.076149 105.155 -139.6188
28.279600 105.150 -140.1331
28.484526 105.144 -140.6484
28.690937 105.136 -141.1643
28.898843 105.124 -141.6790
29.108256 105.108 -142.1904
29.319186 105.087 -142.6955
29.531645 105.061 -143.1917
29.745644 105.031 -143.6766
29.961193 104.996 -144.1487
30.178304 104.957 -144.6073
30.396989 104.914 -145.0530
30.617258 104.869 -145.4869
30.839123 104.823 -145.9107
31.062596 104.775 -146.3263
31.287688 104.729 -146.7350
31.514412 104.683 -147.1376
31.742778 104.639 -147.5345
31.972800 104.598 -147.9251
32.204488 104.560 -148.3084
32.437855 104.528 -148.6834
32.672913 104.500 -149.0491
32.909674 104.477 -149.4050
33.148151 104.460 -149.7506
33.388356 104.449 -150.0860
33.630302 104.443 -150.4113
33.874001 104.440 -150.7268
34.119466 104.441 -151.0324
34.366710 104.444 -151.3281
34.615745 104.448 -151.6136
34.866585 104.451 -151.8890
35.119243 104.453 -152.1545
35.373731 104.453 -152.4109
35.630064 104.450 -152.6595
35.888254 104.442 -152.9020
36.148315 104.431 -153.1402
36.410261 104.414 -153.3757
36.674104 104.392 -153.6102
36.939860 104.366 -153.8446
37.207542 104.334 -154.0795
37.477163 104.298 -154.3152
37.748738 104.258 -154.5516
38.022281 104.215 -154.7886
38.297806 104.170 -155.0261
38.575327 104.122 -155.2639
38.854860 104.073 -155.5017
39.136419 104.022 -155.7388
39.420017 103.970 -155.9745
39.705671 103.916 -156.2077
39.993395 103.863 -156.4371
40.283203 103.808 -156.6613
40.575112 103.753 -156.8789
40.869136 103.697 -157.0886
41.165290 103.642 -157.2889
41.463591 103.587 -157.4788
41.764053 103.533 -157.6573
42.066693 103.480 -157.8239
42.371525 103.429 -157.9789
42.678567 103.381 -158.1228
42.987834 103.336 -158.2568
43.299341 103.295 -158.3823
43.613106 103.257 -158.5008
43.929145 103.224 -158.6134
44.247473 103.195 -158.7208
44.568109 103.170 -158.8233
44.891068 103.148 -158.9209
45.216367 103.130 -159.0134
45.544023 103.115 -159.1005
45.874054 103.103 -159.1821
46.206476 103.094 -159.2578
46.541307 103.087 -159.3278
46.878565 103.083 -159.3924
47.218266 103.082 -159.4523
47.560429 103.085 -159.5089
47.905072 103.091 -159.5643
48.252212 103.100 -159.6205
48.601867 103.112 -159.6794
48.954056 103.127 -159.7419
49.308798 103.145 -159.8084
49.666109 103.164 -159.8782
50.026010 103.184 -159.9499
50.388520 103.204 -160.0225
50.753656 103.225 -160.0947
51.121437 103.246 -160.1660
51.491884 103.267 -160.2361
51.865016 103.287 -160.3047
52.240851 103.307 -160.3716
52.619410 103.327 -160.4363
53.000712 103.347 -160.4984
53.384777 103.366 -160.5572
53.771625 103.386 -160.6125
54.161276 103.405 -160.6641
54.553751 103.425 -160.7121
54.949070 103.444 -160.7572
55.347254 103.463 -160.8004
55.748323 103.482 -160.8428
56.152298 103.501 -160.8860
56.559201 103.521 -160.9317
56.969052 103.541 -160.9816
57.381873 103.564 -161.0375
57.797686 103.589 -161.1009
58.216512 103.617 -161.1728
58.638373 103.648 -161.2537
59.063291 103.683 -161.3431
59.491288 103.723 -161.4402
59.922386 103.766 -161.5440
60.356608 103.814 -161.6542
60.793977 103.865 -161.7717
61.234515 103.921 -161.8990
61.678246 103.979 -162.0393
62.125192 104.040 -162.1962
62.575377 104.102 -162.3731
63.028824 104.165 -162.5723
63.485557 104.229 -162.7952
63.945599 104.292 -163.0424
64.408975 104.354 -163.3136
64.875709 104.415 -163.6086
65.345825 104.474 -163.9268
65.819348 104.532 -164.2681
66.296302 104.588 -164.6324
66.776713 104.642 -165.0196
67.260604 104.695 -165.4295
67.748002 104.746 -165.8616
68.238932 104.795 -166.3150
68.733420 104.842 -166.7886
69.231490 104.888 -167.2809
69.733170 104.931 -167.7906
70.238485 104.973 -168.3163
70.747463 105.013 -168.8569
71.260128 105.051 -169.4115
71.776508 105.086 -169.9793
72.296630 105.119 -170.5597
72.820521 105.150 -171.1518
73.348209 105.178 -171.7547
73.879720 105.205 -172.3671
74.415083 105.229 -172.9877
74.954326 105.250 -173.6155
75.497475 105.270 -174.2492
76.044561 105.287 -174.8881
76.595612 105.302 -175.5315
77.150655 105.315 -176.1790
77.709720 105.325 -176.8303
78.272837 105.333 -177.4849
78.840034 105.338 -178.1423
79.411342 105.340 -178.8018
79.986789 105.340 -179.4628
80.566406 105.338 179.8755
81.150224 105.333 179.2137
81.738272 105.325 178.5521
82.330581 105.315 177.8908
82.927182 105.302 177.2297
83.528107 105.287 176.5686
84.133386 105.270 175.9076
84.743051 105.251 175.2470
85.357134 105.230 174.5873
85.975667 105.207 173.9292
86.598682 105.182 173.2733
87.226212 105.156 172.6200
87.858289 105.129 171.9698
88.494946 105.101 171.3232
89.136217 105.071 170.6805
89.782135 105.040 170.0419
90.432733 105.009 169.4077
91.088046 104.976 168.7785
91.748108 104.942 168.1546
92.412952 104.906 167.5362
93.082615 104.869 166.9236
93.757130 104.830 166.3170
94.436533 104.788 165.7166
95.120859 104.744 165.1226
95.810144 104.697 164.5357
96.504423 104.646 163.9564
97.203734 104.592 163.3853
97.908112 104.534 162.8229
98.617595 104.472 162.2701
99.332219 104.406 161.7269
100.052021 104.337 161.1938
100.777039 104.264 160.6708
101.507311 104.188 160.1578
102.242875 104.109 159.6548
102.983769 104.028 159.1616
103.730032 103.945 158.6782
104.481702 103.860 158.2047
105.238820 103.775 157.7415
106.001424 103.689 157.2889
106.769554 103.602 156.8477
107.543250 103.515 156.4184
108.322553 103.428 156.0016
109.107503 103.341 155.5979
109.898141 103.254 155.2080
110.694508 103.166 154.8324
111.496646 103.079 154.4717
112.304596 102.990 154.1266
113.118402 102.901 153.7972
113.938104 102.811 153.4840
114.763747 102.719 153.1872
115.595372 102.626 152.9069
116.433024 102.531 152.6432
117.276746 102.435 152.3957
118.126581 102.337 152.1640
118.982575 102.237 151.9475
119.844772 102.136 151.7455
120.713217 102.033 151.5577
121.587954 101.928 151.3839
122.469031 101.823 151.2248
123.356492 101.717 151.0808
124.250384 101.610 150.9530
125.150753 101.504 150.8422
126.057647 101.398 150.7489
126.971113 101.292 150.6738
127.891198 101.188 150.6172
128.817950 101.084 150.5792
129.751418 100.981 150.5602
130.691651 100.880 150.5602
131.638696 100.780 150.5798
132.592604 100.680 150.6193
133.553425 100.582 150.6793
134.521208 100.483 150.7603
135.496004 100.385 150.8630
136.477864 100.287 150.9880
137.466839 100.189 151.1364
138.462981 100.089 151.3089
139.466340 99.989 151.5065
140.476971 99.887 151.7300
141.494925 99.783 151.9802
142.520256 99.679 152.2574
143.553016 99.573 152.5622
144.593260 99.467 152.8947
145.641043 99.361 153.2552
146.696418 99.256 153.6436
147.759441 99.151 154.0594
148.830166 99.050 154.5024
149.908651 98.951 154.9715
150.994951 98.856 155.4658
152.089123 98.766 155.9841
153.191223 98.680 156.5247
154.301310 98.600 157.0861
155.419441 98.526 157.6663
156.545674 98.458 158.2632
157.680069 98.395 158.8749
158.822683 98.338 159.4997
159.973578 98.286 160.1360
161.132813 98.240 160.7823
162.300447 98.199 161.4368
163.476543 98.163 162.0978
164.661162 98.131 162.7634
165.854364 98.104 163.4314
167.056213 98.082 164.0999
168.266772 98.065 164.7667
169.486102 98.052 165.4301
170.714268 98.043 166.0880
171.951334 98.039 166.7387
173.197364 98.038 167.3806
174.452424 98.040 168.0118
175.716578 98.046 168.6312
176.989893 98.055 169.2373
178.272434 98.067 169.8293
179.564270 98.080 170.4064
180.865467 98.096 170.9685
182.176092 98.114 171.5154
183.496216 98.132 172.0478
184.825905 98.151 172.5661
186.165229 98.172 173.0714
187.514259 98.192 173.5647
188.873065 98.213 174.0470
190.241717 98.234 174.5192
191.620287 98.256 174.9821
193.008847 98.278 175.4360
194.407468 98.301 175.8807
195.816225 98.325 176.3151
197.235190 98.351 176.7369
198.664438 98.379 177.1431
200.104042 98.409 177.5295
201.554078 98.442 177.8914
203.014622 98.478 178.2242
204.485750 98.516 178.5237
205.967538 98.558 178.7868
207.460064 98.602 179.0115
208.963405 98.649 179.1973
210.477640 98.699 179.3450
212.002848 98.751 179.4564
213.539108 98.807 179.5341
215.086500 98.865 179.5814
216.645105 98.926 179.6015
218.215005 98.989 179.5977
219.796281 99.055 179.5731
221.389015 99.123 179.5303
222.993292 99.192 179.4719
224.609193 99.264 179.3997
226.236804 99.336 179.3154
227.876209 99.408 179.2205
229.527494 99.481 179.1163
231.190745 99.554 179.0040
232.866048 99.627 178.8848
234.553491 99.699 178.7597
236.253163 99.770 178.6297
237.965150 99.841 178.4954
239.689544 99.909 178.3577
241.426433 99.977 178.2169
243.175909 100.042 178.0731
244.938062 100.105 177.9266
246.712984 100.167 177.7772
248.500768 100.225 177.6251
250.301507 100.281 177.4703
252.115295 100.335 177.3130
253.942226 100.387 177.1534
255.782396 100.436 176.9918
257.635901 100.483 176.8281
259.502837 100.528 176.6627
261.383301 100.572 176.4954
263.277392 100.614 176.3263
265.185209 100.654 176.1552
267.106850 100.692 175.9820
269.042417 100.727 175.8064
270.992009 100.761 175.6283
272.955729 100.790 175.4474
274.933678 100.817 175.2638
276.925961 100.839 175.0772
278.932681 100.857 174.8876
280.953942 100.870 174.6950
282.989850 100.879 174.4993
285.040511 100.882 174.3005
287.106032 100.879 174.0988
289.186521 100.872 173.8940
291.282086 100.860 173.6865
293.392836 100.843 173.4762
295.518881 100.821 173.2632
297.660333 100.796 173.0479
299.817302 100.767 172.8303
301.989902 100.736 172.6107
304.178245 100.702 172.3893
306.382446 100.667 172.1667
308.602620 100.630 171.9431
310.838882 100.594 171.7188
313.091348 100.558 171.4943
315.360137 100.522 171.2697
317.645367 100.488 171.0456
319.947156 100.456 170.8223
322.265625 100.427 170.6002
324.600895 100.400 170.3797
326.953086 100.377 170.1611
329.322323 100.358 169.9446
331.708729 100.342 169.7308
334.112427 100.331 169.5196
336.533543 100.324 169.3115
338.972204 100.321 169.1064
341.428536 100.323 168.9047
343.902668 100.329 168.7064
346.394729 100.338 168.5116
348.904848 100.350 168.3203
351.433156 100.365 168.1327
353.979786 100.381 167.9489
356.544869 100.398 167.7689
359.128540 100.415 167.5927
361.730934 100.431 167.4207
364.352185 100.445 167.2528
366.992431 100.456 167.0892
369.651810 100.464 166.9300
372.330459 100.467 166.7753
375.028519 100.466 166.6252
377.746130 100.459 166.4797
380.483434 100.448 166.3389
383.240574 100.431 166.2026
386.017693 100.410 166.0708
388.814937 100.383 165.9433
391.632450 100.353 165.8200
394.470380 100.320 165.7007
397.328875 100.285 165.5853
400.208084 100.249 165.4734
403.108157 100.213 165.3647
406.029245 100.178 165.2590
408.971500 100.146 165.1557
411.935076 100.117 165.0544
414.920127 100.092 164.9545
417.926810 100.072 164.8557
420.955280 100.056 164.7574
424.005695 100.045 164.6591
427.078215 100.039 164.5605
430.173000 100.036 164.4611
433.290211 100.036 164.3603
436.430010 100.039 164.2579
439.592562 100.042 164.1535
442.778031 100.045 164.0465
445.986583 100.047 163.9368
449.218386 100.047 163.8238
452.473607 100.045 163.7073
455.752418 100.040 163.5869
459.054987 100.032 163.4624
462.381489 100.020 163.3337
465.732096 100.005 163.2008
469.106983 99.988 163.0637
472.506325 99.968 162.9226
475.930301 99.945 162.7778
479.379088 99.920 162.6298
482.852867 99.892 162.4789
486.351817 99.863 162.3260
489.876123 99.832 162.1719
493.425968 99.800 162.0176
497.001536 99.767 161.8641
500.603014 99.734 161.7129
504.230589 99.700 161.5652
507.884452 99.668 161.4230
511.564792 99.638 161.2880
515.271802 99.610 161.1625
519.005673 99.586 161.0491
522.766602 99.565 160.9504
526.554785 99.550 160.8690
530.370418 99.540 160.8069
534.213700 99.535 160.7656
538.084833 99.535 160.7454
541.984018 99.540 160.7454
545.911457 99.549 160.7635
549.867357 99.561 160.7970
553.851922 99.574 160.8430
557.865362 99.587 160.8985
561.907884 99.598 160.9613
565.979700 99.605 161.0295
570.081022 99.608 161.1018
574.212064 99.605 161.1775
578.373042 99.596 161.2561
582.564171 99.578 161.3375
586.785671 99.552 161.4214
591.037762 99.517 161.5077
595.320665 99.473 161.5963
599.634604 99.420 161.6867
603.979804 99.359 161.7787
608.356491 99.289 161.8718
612.764893 99.211 161.9655
617.205240 99.128 162.0596
621.677763 99.040 162.1537
626.182696 98.949 162.2478
630.720274 98.858 162.3416
635.290733 98.767 162.4348
639.894312 98.678 162.5274
644.531250 98.595 162.6192
649.201789 98.516 162.7098
653.906173 98.445 162.7988
658.644647 98.382 162.8860
663.417457 98.327 162.9708
668.224854 98.282 163.0527
673.067086 98.246 163.1314
677.944408 98.219 163.2065
682.857073 98.203 163.2775
687.805336 98.195 163.3442
692.789457 98.196 163.4066
697.809695 98.205 163.4648
702.866312 98.221 163.5187
707.959571 98.243 163.5686
713.089738 98.269 163.6147
718.257080 98.299 163.6572
723.461867 98.330 163.6960
728.704370 98.361 163.7313
733.984862 98.391 163.7629
739.303619 98.418 163.7905
744.660918 98.442 163.8140
750.057038 98.462 163.8333
755.492260 98.478 163.8484
760.966869 98.490 163.8594
766.481148 98.497 163.8666
772.035387 98.501 163.8703
777.629873 98.501 163.8710
783.264900 98.498 163.8693
788.940760 98.491 163.8657
794.657750 98.480 163.8611
800.416168 98.464 163.8560
806.216313 98.442 163.8510
812.058489 98.413 163.8468
817.943000 98.377 163.8441
823.870152 98.333 163.8435
829.840255 98.281 163.8457
835.853619 98.221 163.8514
841.910559 98.155 163.8609
848.011390 98.083 163.8746
854.156430 98.008 163.8926
860.346000 97.933 163.9147
866.580422 97.859 163.9402
872.860020 97.790 163.9684
879.185124 97.729 163.9977
885.556062 97.676 164.0262
891.973166 97.635 164.0513
898.436771 97.606 164.0696
904.947215 97.590 164.0776
911.504835 97.585 164.0709
918.109975 97.592 164.0455
924.762978 97.607 163.9978
931.464192 97.628 163.9252
938.213966 97.652 163.8268
945.012651 97.677 163.7041
951.860602 97.698 163.5616
958.758176 97.714 163.4064
965.705733 97.723 163.2485
972.703635 97.722 163.1000
979.752246 97.712 162.9738
986.851935 97.692 162.8828
994.003071 97.664 162.8389
1001.206027 97.630 162.8523
1008.461179 97.591 162.9313
1015.768904 97.550 163.0825
1023.129584 97.511 163.3107
1030.543603 97.476 163.6188
1038.011347 97.451 164.0073
1045.533205 97.438 164.4742
1053.109569 97.442 165.0132
1060.740836 97.466 165.6129
1068.427401 97.512 166.2556
1076.169666 97.581 166.9171
1083.968035 97.674 167.5664
1091.822915 97.789 168.1687
1099.734713 97.920 168.6880
1107.703844 98.064 169.0923
1115.730723 98.213 169.3577
1123.815768 98.360 169.4719
1131.959400 98.497 169.4359
1140.162045 98.621 169.2633
1148.424129 98.725 168.9776
1156.746083 98.808 168.6083
1165.128342 98.870 168.1868
1173.571343 98.911 167.7426
1182.075524 98.935 167.3014
1190.641331 98.944 166.8839
1199.269209 98.942 166.5048
1207.959608 98.933 166.1739
1216.712981 98.920 165.8963
1225.529785 98.907 165.6735
1234.410479 98.897 165.5038
1243.355526 98.892 165.3838
1252.365393 98.893 165.3086
1261.440549 98.900 165.2723
1270.581467 98.916 165.2688
1279.788624 98.938 165.2919
1289.062500 98.967 165.3358
1298.403578 99.002 165.3953
1307.812346 99.041 165.4660
1317.289293 99.084 165.5446
1326.834914 99.128 165.6284
1336.449707 99.173 165.7159
1346.134173 99.218 165.8062
1355.888816 99.262 165.8986
1365.714145 99.304 165.9927
1375.610673 99.343 166.0883
1385.578915 99.380 166.1849
1395.619391 99.413 166.2821
1405.732624 99.444 166.3793
1415.919142 99.471 166.4760
1426.179476 99.496 166.5717
1436.514160 99.518 166.6660
1446.923734 99.538 166.7587
1457.408740 99.555 166.8495
1467.969724 99.571 166.9384
1478.607238 99.584 167.0251
1489.321836 99.595 167.1096
1500.114076 99.604 167.1920
1510.984521 99.611 167.2723
1521.933737 99.614 167.3505
1532.962297 99.615 167.4266
1544.070773 99.613 167.5005
1555.259747 99.607 167.5724
1566.529800 99.598 167.6420
1577.881521 99.586 167.7095
1589.315501 99.572 167.7746
1600.832336 99.556 167.8375
1612.432627 99.539 167.8979
1624.116978 99.521 167.9557
1635.886000 99.502 168.0109
1647.740304 99.483 168.0631
1659.680509 99.464 168.1124
1671.707238 99.445 168.1586
1683.821118 99.426 168.2016
1696.022780 99.407 168.2416
1708.312860 99.387 168.2787
1720.692000 99.366 168.3130
1733.160843 99.345 168.3449
1745.720041 99.325 168.3747
1758.370248 99.304 168.4027
1771.112124 99.284 168.4292
1783.946332 99.265 168.4546
1796.873543 99.248 168.4794
1809.894429 99.231 168.5038
1823.009670 99.216 168.5285
1836.219950 99.202 168.5539
1849.525956 99.187 168.5807
1862.928384 99.173 168.6094
1876.427931 99.157 168.6410
1890.025301 99.138 168.6761
1903.721204 99.118 168.7158
1917.516352 99.093 168.7609
1931.411466 99.065 168.8123
1945.407270 99.033 168.8708
1959.504493 98.997 168.9376
1973.703870 98.957 169.0132
1988.006142 98.913 169.0985
2002.412054 98.867 169.1941
2016.922357 98.818 169.3004
2031.537808 98.769 169.4179
2046.259169 98.720 169.5469
2061.087206 98.671 169.6877
2076.022694 98.624 169.8404
2091.066410 98.579 170.0054
2106.219139 98.537 170.1829
2121.481671 98.500 170.3733
2136.854802 98.466 170.5768
2152.339333 98.438 170.7939
2167.936071 98.416 171.0247
2183.645829 98.400 171.2694
2199.469427 98.390 171.5283
2215.407689 98.388 171.8010
2231.461446 98.394 172.0875
2247.631536 98.408 172.3871
2263.918800 98.431 172.6990
2280.324089 98.463 173.0222
2296.848258 98.503 173.3553
2313.492167 98.552 173.6969
2330.256685 98.610 174.0453
2347.142685 98.675 174.3990
2364.151049 98.747 174.7565
2381.282662 98.825 175.1163
2398.538418 98.908 175.4776
2415.919216 98.995 175.8394
2433.425962 99.084 176.2015
2451.059570 99.174 176.5635
2468.820958 99.265 176.9255
2486.711052 99.354 177.2877
2504.730786 99.442 177.6506
2522.881098 99.527 178.0148
2541.162934 99.608 178.3809
2559.577248 99.686 178.7497
2578.125000 99.758 179.1221
2596.807157 99.825 179.4992
2615.624692 99.887 179.8820
2634.578586 99.943 -179.7285
2653.669829 99.993 -179.3316
2672.899414 100.038 -178.9268
2692.268345 100.078 -178.5142
2711.777632 100.114 -178.0946
2731.428290 100.145 -177.6697
2751.221345 100.172 -177.2420
2771.157829 100.197 -176.8148
2791.238781 100.218 -176.3918
2811.465248 100.237 -175.9771
2831.838284 100.253 -175.5743
2852.358952 100.266 -175.1862
2873.028321 100.277 -174.8150
2893.847468 100.285 -174.4615
2914.817480 100.289 -174.1256
2935.939449 100.290 -173.8059
2957.214476 100.287 -173.5003
2978.643672 100.281 -173.2059
3000.228152 100.271 -172.9193
3021.969041 100.258 -172.6372
3043.867475 100.241 -172.3562
3065.924593 100.223 -172.0731
3088.141547 100.202 -171.7854
3110.519493 100.181 -171.4913
3133.059600 100.159 -171.1891
3155.763041 100.137 -170.8781
3178.631001 100.115 -170.5577
