* Measurement data measured by REW V5.31.3
* Source: EXCL: Headset (USB-C to 3.5mm Headphone Jack Adapter), MICROPHONE (Master Volume), 0, volume: 0.260
* Format: 256k Log Swept Sine, 1 sweep at -12.0 dBFS with no timing reference
* Dated: Mar 5, 2025 10:53:44 AM
* REW Settings:
*  C-weighting compensation: Off
*  Target level: 75.0 dB
* Note: ; 
* Measurement: Ouroboros Reprint L5
* Smoothing: 1/6 octave
* Frequency Step: 96 ppo
* Start Frequency: 20.0 Hz
*
* Freq(Hz) SPL(dB) Phase(degrees)
20.141602 98.310 -101.8186
20.287556 98.291 -102.0170
20.434568 98.266 -102.2795
20.582645 98.235 -102.5941
20.731796 98.200 -102.9486
20.882027 98.162 -103.3322
21.033346 98.124 -103.7363
21.185763 98.086 -104.1550
21.339284 98.049 -104.5854
21.493917 98.014 -105.0274
21.649671 97.982 -105.4826
21.806553 97.953 -105.9541
21.964572 97.927 -106.4452
22.123737 97.904 -106.9593
22.284054 97.883 -107.4986
22.445534 97.863 -108.0643
22.608183 97.845 -108.6558
22.772012 97.826 -109.2715
22.937027 97.808 -109.9081
23.103238 97.789 -110.5620
23.270654 97.770 -111.2288
23.439282 97.751 -111.9045
23.609133 97.732 -112.5855
23.780215 97.713 -113.2689
23.952536 97.695 -113.9528
24.126106 97.678 -114.6362
24.300934 97.662 -115.3185
24.477028 97.646 -115.9995
24.654399 97.631 -116.6789
24.833055 97.615 -117.3559
25.013005 97.599 -118.0294
25.194260 97.582 -118.6977
25.376828 97.565 -119.3589
25.560719 97.547 -120.0111
25.745942 97.529 -120.6530
25.932508 97.511 -121.2840
26.120426 97.495 -121.9044
26.309705 97.481 -122.5156
26.500356 97.470 -123.1194
26.692388 97.461 -123.7178
26.885812 97.457 -124.3122
27.080638 97.455 -124.9027
27.276876 97.455 -125.4881
27.474535 97.457 -126.0650
27.673627 97.459 -126.6292
27.874161 97.462 -127.1754
28.076149 97.465 -127.6988
28.279600 97.467 -128.1960
28.484526 97.468 -128.6657
28.690937 97.469 -129.1096
28.898843 97.469 -129.5323
29.108256 97.468 -129.9406
29.319186 97.465 -130.3428
29.531645 97.461 -130.7475
29.745644 97.454 -131.1620
29.961193 97.445 -131.5918
30.178304 97.431 -132.0398
30.396989 97.415 -132.5065
30.617258 97.395 -132.9906
30.839123 97.372 -133.4896
31.062596 97.347 -134.0005
31.287688 97.322 -134.5204
31.514412 97.296 -135.0467
31.742778 97.271 -135.5768
31.972800 97.247 -136.1079
32.204488 97.225 -136.6369
32.437855 97.204 -137.1596
32.672913 97.186 -137.6713
32.909674 97.170 -138.1672
33.148151 97.157 -138.6432
33.388356 97.147 -139.0968
33.630302 97.141 -139.5273
33.874001 97.139 -139.9371
34.119466 97.141 -140.3304
34.366710 97.146 -140.7131
34.615745 97.153 -141.0919
34.866585 97.160 -141.4722
35.119243 97.166 -141.8580
35.373731 97.169 -142.2506
35.630064 97.166 -142.6482
35.888254 97.156 -143.0466
36.148315 97.139 -143.4397
36.410261 97.113 -143.8200
36.674104 97.080 -144.1805
36.939860 97.040 -144.5146
37.207542 96.994 -144.8179
37.477163 96.945 -145.0880
37.748738 96.893 -145.3247
38.022281 96.840 -145.5301
38.297806 96.787 -145.7077
38.575327 96.736 -145.8617
38.854860 96.686 -145.9966
39.136419 96.637 -146.1164
39.420017 96.589 -146.2244
39.705671 96.541 -146.3229
39.993395 96.494 -146.4131
40.283203 96.446 -146.4954
40.575112 96.398 -146.5690
40.869136 96.349 -146.6326
41.165290 96.300 -146.6838
41.463591 96.250 -146.7207
41.764053 96.200 -146.7415
42.066693 96.152 -146.7457
42.371525 96.107 -146.7345
42.678567 96.066 -146.7111
42.987834 96.030 -146.6803
43.299341 96.001 -146.6486
43.613106 95.979 -146.6227
43.929145 95.964 -146.6090
44.247473 95.958 -146.6130
44.568109 95.958 -146.6381
44.891068 95.965 -146.6859
45.216367 95.977 -146.7554
45.544023 95.993 -146.8437
45.874054 96.012 -146.9458
46.206476 96.031 -147.0561
46.541307 96.052 -147.1693
46.878565 96.072 -147.2810
47.218266 96.093 -147.3886
47.560429 96.113 -147.4915
47.905072 96.134 -147.5905
48.252212 96.155 -147.6868
48.601867 96.177 -147.7811
48.954056 96.200 -147.8736
49.308798 96.225 -147.9638
49.666109 96.251 -148.0512
50.026010 96.280 -148.1361
50.388520 96.312 -148.2200
50.753656 96.346 -148.3055
51.121437 96.382 -148.3960
51.491884 96.421 -148.4950
51.865016 96.461 -148.6054
52.240851 96.502 -148.7291
52.619410 96.543 -148.8665
53.000712 96.585 -149.0170
53.384777 96.627 -149.1791
53.771625 96.670 -149.3508
54.161276 96.712 -149.5307
54.553751 96.754 -149.7177
54.949070 96.796 -149.9111
55.347254 96.838 -150.1107
55.748323 96.879 -150.3161
56.152298 96.920 -150.5264
56.559201 96.961 -150.7399
56.969052 97.002 -150.9547
57.381873 97.043 -151.1685
57.797686 97.083 -151.3804
58.216512 97.123 -151.5907
58.638373 97.162 -151.8025
59.063291 97.200 -152.0206
59.491288 97.238 -152.2508
59.922386 97.274 -152.4981
60.356608 97.308 -152.7656
60.793977 97.342 -153.0535
61.234515 97.374 -153.3598
61.678246 97.406 -153.6811
62.125192 97.438 -154.0136
62.575377 97.471 -154.3538
63.028824 97.504 -154.6987
63.485557 97.537 -155.0463
63.945599 97.569 -155.3958
64.408975 97.601 -155.7470
64.875709 97.631 -156.1008
65.345825 97.659 -156.4581
65.819348 97.686 -156.8195
66.296302 97.711 -157.1850
66.776713 97.735 -157.5542
67.260604 97.757 -157.9264
67.748002 97.779 -158.3008
68.238932 97.801 -158.6771
68.733420 97.822 -159.0554
69.231490 97.842 -159.4362
69.733170 97.863 -159.8205
70.238485 97.883 -160.2092
70.747463 97.903 -160.6032
71.260128 97.924 -161.0027
71.776508 97.944 -161.4079
72.296630 97.963 -161.8180
72.820521 97.983 -162.2322
73.348209 98.002 -162.6491
73.879720 98.020 -163.0674
74.415083 98.038 -163.4859
74.954326 98.055 -163.9035
75.497475 98.072 -164.3196
76.044561 98.088 -164.7342
76.595612 98.103 -165.1476
77.150655 98.117 -165.5608
77.709720 98.131 -165.9747
78.272837 98.143 -166.3902
78.840034 98.154 -166.8082
79.411342 98.165 -167.2290
79.986789 98.173 -167.6524
80.566406 98.181 -168.0779
81.150224 98.188 -168.5047
81.738272 98.193 -168.9317
82.330581 98.198 -169.3582
82.927182 98.201 -169.7832
83.528107 98.204 -170.2062
84.133386 98.206 -170.6265
84.743051 98.207 -171.0438
85.357134 98.208 -171.4581
85.975667 98.209 -171.8694
86.598682 98.209 -172.2780
87.226212 98.210 -172.6844
87.858289 98.210 -173.0894
88.494946 98.211 -173.4936
89.136217 98.212 -173.8978
89.782135 98.214 -174.3027
90.432733 98.216 -174.7087
91.088046 98.219 -175.1159
91.748108 98.222 -175.5240
92.412952 98.225 -175.9324
93.082615 98.228 -176.3407
93.757130 98.231 -176.7485
94.436533 98.234 -177.1559
95.120859 98.235 -177.5630
95.810144 98.235 -177.9701
96.504423 98.234 -178.3778
97.203734 98.229 -178.7864
97.908112 98.222 -179.1963
98.617595 98.213 -179.6079
99.332219 98.201 179.9790
100.052021 98.186 179.5646
100.777039 98.169 179.1492
101.507311 98.150 178.7334
102.242875 98.130 178.3177
102.983769 98.109 177.9024
103.730032 98.087 177.4879
104.481702 98.064 177.0743
105.238820 98.042 176.6618
106.001424 98.020 176.2507
106.769554 97.999 175.8412
107.543250 97.978 175.4334
108.322553 97.957 175.0272
109.107503 97.937 174.6222
109.898141 97.917 174.2178
110.694508 97.897 173.8134
111.496646 97.877 173.4086
112.304596 97.857 173.0034
113.118402 97.836 172.5981
113.938104 97.815 172.1934
114.763747 97.793 171.7903
115.595372 97.769 171.3895
116.433024 97.744 170.9915
117.276746 97.718 170.5966
118.126581 97.690 170.2051
118.982575 97.660 169.8173
119.844772 97.630 169.4333
120.713217 97.598 169.0532
121.587954 97.566 168.6769
122.469031 97.532 168.3043
123.356492 97.498 167.9355
124.250384 97.463 167.5710
125.150753 97.429 167.2111
126.057647 97.394 166.8564
126.971113 97.359 166.5068
127.891198 97.325 166.1623
128.817950 97.291 165.8218
129.751418 97.258 165.4844
130.691651 97.225 165.1490
131.638696 97.192 164.8149
132.592604 97.160 164.4819
133.553425 97.128 164.1497
134.521208 97.096 163.8187
135.496004 97.063 163.4892
136.477864 97.029 163.1617
137.466839 96.994 162.8367
138.462981 96.957 162.5146
139.466340 96.918 162.1958
140.476971 96.877 161.8806
141.494925 96.833 161.5694
142.520256 96.786 161.2624
143.553016 96.736 160.9601
144.593260 96.684 160.6629
145.641043 96.628 160.3713
146.696418 96.571 160.0854
147.759441 96.511 159.8057
148.830166 96.450 159.5320
149.908651 96.388 159.2648
150.994951 96.326 159.0043
152.089123 96.263 158.7509
153.191223 96.201 158.5049
154.301310 96.139 158.2664
155.419441 96.079 158.0359
156.545674 96.019 157.8136
157.680069 95.959 157.5998
158.822683 95.900 157.3946
159.973578 95.841 157.1980
161.132813 95.782 157.0099
162.300447 95.723 156.8300
163.476543 95.664 156.6585
164.661162 95.604 156.4954
165.854364 95.544 156.3414
167.056213 95.484 156.1968
168.266772 95.424 156.0622
169.486102 95.364 155.9374
170.714268 95.304 155.8221
171.951334 95.244 155.7155
173.197364 95.184 155.6171
174.452424 95.124 155.5262
175.716578 95.063 155.4421
176.989893 95.002 155.3644
178.272434 94.940 155.2929
179.564270 94.878 155.2274
180.865467 94.814 155.1675
182.176092 94.750 155.1132
183.496216 94.684 155.0644
184.825905 94.617 155.0210
186.165229 94.549 154.9832
187.514259 94.479 154.9511
188.873065 94.407 154.9252
190.241717 94.334 154.9057
191.620287 94.258 154.8933
193.008847 94.181 154.8885
194.407468 94.102 154.8921
195.816225 94.022 154.9046
197.235190 93.939 154.9266
198.664438 93.855 154.9587
200.104042 93.769 155.0008
201.554078 93.682 155.0530
203.014622 93.595 155.1151
204.485750 93.508 155.1868
205.967538 93.421 155.2675
207.460064 93.336 155.3569
208.963405 93.254 155.4545
210.477640 93.174 155.5600
212.002848 93.099 155.6729
213.539108 93.028 155.7930
215.086500 92.962 155.9197
216.645105 92.902 156.0529
218.215005 92.847 156.1923
219.796281 92.799 156.3373
221.389015 92.756 156.4878
222.993292 92.718 156.6436
224.609193 92.686 156.8048
226.236804 92.658 156.9717
227.876209 92.635 157.1447
229.527494 92.616 157.3241
231.190745 92.601 157.5103
232.866048 92.588 157.7034
234.553491 92.579 157.9030
236.253163 92.572 158.1088
237.965150 92.568 158.3201
239.689544 92.565 158.5359
241.426433 92.564 158.7554
243.175909 92.564 158.9775
244.938062 92.565 159.2015
246.712984 92.567 159.4268
248.500768 92.570 159.6529
250.301507 92.572 159.8792
252.115295 92.575 160.1052
253.942226 92.579 160.3303
255.782396 92.582 160.5541
257.635901 92.586 160.7759
259.502837 92.591 160.9954
261.383301 92.596 161.2120
263.277392 92.601 161.4256
265.185209 92.607 161.6360
267.106850 92.613 161.8430
269.042417 92.618 162.0463
270.992009 92.622 162.2453
272.955729 92.624 162.4394
274.933678 92.623 162.6281
276.925961 92.620 162.8110
278.932681 92.613 162.9883
280.953942 92.603 163.1606
282.989850 92.589 163.3282
285.040511 92.571 163.4916
287.106032 92.549 163.6512
289.186521 92.523 163.8072
291.282086 92.493 163.9597
293.392836 92.459 164.1085
295.518881 92.422 164.2539
297.660333 92.382 164.3960
299.817302 92.340 164.5350
301.989902 92.296 164.6711
304.178245 92.251 164.8048
306.382446 92.206 164.9366
308.602620 92.161 165.0672
310.838882 92.117 165.1969
313.091348 92.074 165.3263
315.360137 92.033 165.4555
317.645367 91.995 165.5845
319.947156 91.961 165.7133
322.265625 91.930 165.8418
324.600895 91.903 165.9698
326.953086 91.882 166.0975
329.322323 91.865 166.2247
331.708729 91.853 166.3516
334.112427 91.847 166.4779
336.533543 91.847 166.6037
338.972204 91.853 166.7287
341.428536 91.864 166.8528
343.902668 91.881 166.9758
346.394729 91.902 167.0976
348.904848 91.928 167.2178
351.433156 91.958 167.3367
353.979786 91.990 167.4542
356.544869 92.024 167.5704
359.128540 92.059 167.6859
361.730934 92.094 167.8007
364.352185 92.128 167.9152
366.992431 92.159 168.0292
369.651810 92.188 168.1428
372.330459 92.214 168.2556
375.028519 92.235 168.3676
377.746130 92.252 168.4785
380.483434 92.265 168.5883
383.240574 92.273 168.6966
386.017693 92.278 168.8029
388.814937 92.278 168.9068
391.632450 92.275 169.0074
394.470380 92.270 169.1041
397.328875 92.264 169.1962
400.208084 92.258 169.2829
403.108157 92.253 169.3636
406.029245 92.250 169.4376
408.971500 92.250 169.5041
411.935076 92.254 169.5623
414.920127 92.263 169.6115
417.926810 92.276 169.6507
420.955280 92.295 169.6792
424.005695 92.318 169.6964
427.078215 92.345 169.7022
430.173000 92.375 169.6964
433.290211 92.408 169.6796
436.430010 92.442 169.6521
439.592562 92.476 169.6148
442.778031 92.508 169.5685
445.986583 92.539 169.5142
449.218386 92.567 169.4528
452.473607 92.591 169.3851
455.752418 92.611 169.3123
459.054987 92.628 169.2349
462.381489 92.640 169.1539
465.732096 92.648 169.0700
469.106983 92.653 168.9841
472.506325 92.654 168.8969
475.930301 92.652 168.8093
479.379088 92.648 168.7220
482.852867 92.642 168.6359
486.351817 92.635 168.5516
489.876123 92.626 168.4699
493.425968 92.617 168.3913
497.001536 92.608 168.3162
500.603014 92.600 168.2448
504.230589 92.594 168.1777
507.884452 92.590 168.1151
511.564792 92.589 168.0574
515.271802 92.593 168.0049
519.005673 92.602 167.9581
522.766602 92.616 167.9174
526.554785 92.635 167.8833
530.370418 92.661 167.8561
534.213700 92.692 167.8361
538.084833 92.728 167.8234
541.984018 92.767 167.8181
545.911457 92.810 167.8199
549.867357 92.854 167.8285
553.851922 92.898 167.8433
557.865362 92.941 167.8635
561.907884 92.981 167.8881
565.979700 93.017 167.9157
570.081022 93.049 167.9451
574.212064 93.074 167.9748
578.373042 93.093 168.0033
582.564171 93.104 168.0292
586.785671 93.106 168.0511
591.037762 93.100 168.0678
595.320665 93.084 168.0783
599.634604 93.059 168.0819
603.979804 93.025 168.0781
608.356491 92.982 168.0665
612.764893 92.931 168.0471
617.205240 92.874 168.0203
621.677763 92.811 167.9867
626.182696 92.744 167.9470
630.720274 92.675 167.9022
635.290733 92.606 167.8531
639.894312 92.538 167.8007
644.531250 92.473 167.7456
649.201789 92.413 167.6882
653.906173 92.358 167.6289
658.644647 92.309 167.5682
663.417457 92.268 167.5063
668.224854 92.234 167.4435
673.067086 92.209 167.3801
677.944408 92.192 167.3162
682.857073 92.183 167.2521
687.805336 92.182 167.1877
692.789457 92.189 167.1231
697.809695 92.204 167.0583
702.866312 92.224 166.9937
707.959571 92.250 166.9296
713.089738 92.279 166.8668
718.257080 92.311 166.8058
723.461867 92.343 166.7477
728.704370 92.375 166.6931
733.984862 92.406 166.6424
739.303619 92.433 166.5960
744.660918 92.457 166.5540
750.057038 92.477 166.5161
755.492260 92.494 166.4822
760.966869 92.506 166.4519
766.481148 92.514 166.4248
772.035387 92.520 166.4006
777.629873 92.522 166.3792
783.264900 92.522 166.3603
788.940760 92.519 166.3441
794.657750 92.513 166.3307
800.416168 92.502 166.3204
806.216313 92.487 166.3138
812.058489 92.467 166.3110
817.943000 92.440 166.3125
823.870152 92.407 166.3183
829.840255 92.367 166.3281
835.853619 92.322 166.3412
841.910559 92.273 166.3557
848.011390 92.222 166.3690
854.156430 92.170 166.3771
860.346000 92.121 166.3749
866.580422 92.077 166.3560
872.860020 92.040 166.3134
879.185124 92.013 166.2396
885.556062 91.996 166.1279
891.973166 91.989 165.9734
898.436771 91.992 165.7734
904.947215 92.004 165.5289
911.504835 92.021 165.2443
918.109975 92.041 164.9275
924.762978 92.063 164.5889
931.464192 92.085 164.2399
938.213966 92.103 163.8919
945.012651 92.119 163.5547
951.860602 92.130 163.2364
958.758176 92.136 162.9425
965.705733 92.138 162.6767
972.703635 92.134 162.4405
979.752246 92.125 162.2343
986.851935 92.111 162.0575
994.003071 92.093 161.9090
1001.206027 92.072 161.7878
1008.461179 92.048 161.6929
1015.768904 92.022 161.6237
1023.129584 91.995 161.5802
1030.543603 91.969 161.5629
1038.011347 91.945 161.5732
1045.533205 91.924 161.6128
1053.109569 91.907 161.6846
1060.740836 91.895 161.7919
1068.427401 91.888 161.9391
1076.169666 91.887 162.1308
1083.968035 91.893 162.3721
1091.822915 91.905 162.6678
1099.734713 91.923 163.0221
1107.703844 91.949 163.4370
1115.730723 91.983 163.9117
1123.815768 92.026 164.4407
1131.959400 92.080 165.0128
1140.162045 92.145 165.6094
1148.424129 92.224 166.2049
1156.746083 92.317 166.7674
1165.128342 92.423 167.2612
1173.571343 92.541 167.6512
1182.075524 92.668 167.9080
1190.641331 92.799 168.0118
1199.269209 92.931 167.9565
1207.959608 93.058 167.7492
1216.712981 93.177 167.4088
1225.529785 93.286 166.9614
1234.410479 93.383 166.4369
1243.355526 93.468 165.8644
1252.365393 93.542 165.2701
1261.440549 93.606 164.6759
1270.581467 93.662 164.0985
1279.788624 93.710 163.5498
1289.062500 93.754 163.0378
1298.403578 93.793 162.5666
1307.812346 93.829 162.1379
1317.289293 93.861 161.7515
1326.834914 93.891 161.4056
1336.449707 93.919 161.0975
1346.134173 93.943 160.8242
1355.888816 93.966 160.5826
1365.714145 93.985 160.3695
1375.610673 94.002 160.1819
1385.578915 94.015 160.0170
1395.619391 94.026 159.8722
1405.732624 94.033 159.7452
1415.919142 94.038 159.6336
1426.179476 94.041 159.5355
1436.514160 94.041 159.4488
1446.923734 94.040 159.3717
1457.408740 94.036 159.3026
1467.969724 94.032 159.2400
1478.607238 94.025 159.1826
1489.321836 94.018 159.1292
1500.114076 94.008 159.0788
1510.984521 93.997 159.0305
1521.933737 93.984 158.9835
1532.962297 93.968 158.9370
1544.070773 93.950 158.8902
1555.259747 93.929 158.8425
1566.529800 93.905 158.7934
1577.881521 93.879 158.7423
1589.315501 93.851 158.6889
1600.832336 93.821 158.6329
1612.432627 93.790 158.5741
1624.116978 93.758 158.5122
1635.886000 93.726 158.4472
1647.740304 93.693 158.3792
1659.680509 93.661 158.3081
1671.707238 93.628 158.2341
1683.821118 93.595 158.1575
1696.022780 93.561 158.0786
1708.312860 93.527 157.9979
1720.692000 93.492 157.9157
1733.160843 93.456 157.8326
1745.720041 93.420 157.7490
1758.370248 93.385 157.6652
1771.112124 93.350 157.5818
1783.946332 93.316 157.4990
1796.873543 93.283 157.4175
1809.894429 93.252 157.3375
1823.009670 93.222 157.2595
1836.219950 93.193 157.1836
1849.525956 93.164 157.1103
1862.928384 93.136 157.0399
1876.427931 93.107 156.9727
1890.025301 93.076 156.9094
1903.721204 93.043 156.8506
1917.516352 93.006 156.7969
1931.411466 92.967 156.7490
1945.407270 92.923 156.7075
1959.504493 92.876 156.6728
1973.703870 92.826 156.6452
1988.006142 92.772 156.6245
2002.412054 92.717 156.6100
2016.922357 92.660 156.6010
2031.537808 92.603 156.5959
2046.259169 92.546 156.5933
2061.087206 92.490 156.5913
2076.022694 92.436 156.5885
2091.066410 92.384 156.5837
2106.219139 92.335 156.5764
2121.481671 92.289 156.5671
2136.854802 92.246 156.5571
2152.339333 92.206 156.5484
2167.936071 92.170 156.5433
2183.645829 92.138 156.5443
2199.469427 92.111 156.5533
2215.407689 92.089 156.5715
2231.461446 92.072 156.5995
2247.631536 92.061 156.6375
2263.918800 92.056 156.6849
2280.324089 92.057 156.7416
2296.848258 92.065 156.8074
2313.492167 92.078 156.8826
2330.256685 92.096 156.9681
2347.142685 92.120 157.0647
2364.151049 92.147 157.1739
2381.282662 92.178 157.2971
2398.538418 92.211 157.4357
2415.919216 92.246 157.5912
2433.425962 92.282 157.7648
2451.059570 92.319 157.9578
2468.820958 92.355 158.1708
2486.711052 92.391 158.4044
2504.730786 92.425 158.6586
2522.881098 92.457 158.9329
2541.162934 92.487 159.2262
2559.577248 92.514 159.5370
2578.125000 92.537 159.8634
2596.807157 92.557 160.2032
2615.624692 92.573 160.5546
2634.578586 92.584 160.9159
2653.669829 92.591 161.2854
2672.899414 92.593 161.6622
2692.268345 92.590 162.0449
2711.777632 92.583 162.4327
2731.428290 92.571 162.8245
2751.221345 92.554 163.2189
2771.157829 92.533 163.6146
2791.238781 92.508 164.0104
2811.465248 92.479 164.4049
2831.838284 92.447 164.7970
2852.358952 92.412 165.1857
2873.028321 92.373 165.5706
2893.847468 92.330 165.9514
2914.817480 92.285 166.3285
2935.939449 92.236 166.7027
2957.214476 92.185 167.0752
2978.643672 92.130 167.4478
3000.228152 92.073 167.8227
3021.969041 92.013 168.2020
3043.867475 91.952 168.5881
3065.924593 91.889 168.9829
3088.141547 91.825 169.3881
3110.519493 91.762 169.8049
3133.059600 91.699 170.2339
3155.763041 91.638 170.6754
3178.631001 91.578 171.1296
3201.664672 91.521 171.5958
3224.865254 91.468 172.0733
3248.233957 91.417 172.5609
3271.771999 91.372 173.0568
3295.480608 91.331 173.5592
3319.361019 91.297 174.0659
3343.414477 91.268 174.5751
3367.642236 91.247 175.0849
3392.045560 91.232 175.5939
3416.625721 91.226 176.1009
3441.383999 91.227 176.6050
3466.321686 91.237 177.1053
3491.440082 91.255 177.6009
