* Measurement data measured by REW V5.31.3
* Source: EXCL: Headset (USB-C to 3.5mm Headphone Jack Adapter), MICROPHONE (Master Volume), 0, volume: 0.260
* Format: 256k Log Swept Sine, 1 sweep at -12.0 dBFS with no timing reference
* Dated: Feb 21, 2025 5:24:09 PM
* REW Settings:
*  C-weighting compensation: Off
*  Target level: 75.0 dB
* Note: ; 
* Measurement: Ouroboros (Golem Mod) L9
* Smoothing: 1/6 octave
* Frequency Step: 96 ppo
* Start Frequency: 20.0 Hz
*
* Freq(Hz) SPL(dB) Phase(degrees)
20.141602 106.536 -115.0293
20.287556 106.518 -115.2534
20.434568 106.493 -115.5543
20.582645 106.463 -115.9235
20.731796 106.429 -116.3518
20.882027 106.392 -116.8300
21.033346 106.353 -117.3492
21.185763 106.313 -117.9015
21.339284 106.272 -118.4798
21.493917 106.231 -119.0781
21.649671 106.192 -119.6912
21.806553 106.154 -120.3148
21.964572 106.117 -120.9455
22.123737 106.082 -121.5804
22.284054 106.049 -122.2173
22.445534 106.017 -122.8546
22.608183 105.987 -123.4909
22.772012 105.958 -124.1254
22.937027 105.929 -124.7574
23.103238 105.901 -125.3864
23.270654 105.874 -126.0123
23.439282 105.846 -126.6347
23.609133 105.817 -127.2538
23.780215 105.789 -127.8696
23.952536 105.759 -128.4823
24.126106 105.729 -129.0923
24.300934 105.697 -129.7001
24.477028 105.665 -130.3063
24.654399 105.632 -130.9116
24.833055 105.598 -131.5165
25.013005 105.563 -132.1214
25.194260 105.528 -132.7266
25.376828 105.492 -133.3317
25.560719 105.456 -133.9362
25.745942 105.420 -134.5392
25.932508 105.383 -135.1396
26.120426 105.348 -135.7357
26.309705 105.314 -136.3264
26.500356 105.281 -136.9103
26.692388 105.251 -137.4866
26.885812 105.224 -138.0546
27.080638 105.200 -138.6143
27.276876 105.179 -139.1658
27.474535 105.163 -139.7096
27.673627 105.149 -140.2460
27.874161 105.138 -140.7751
28.076149 105.129 -141.2969
28.279600 105.121 -141.8108
28.484526 105.112 -142.3157
28.690937 105.102 -142.8105
28.898843 105.090 -143.2937
29.108256 105.074 -143.7642
29.319186 105.054 -144.2210
29.531645 105.030 -144.6635
29.745644 105.001 -145.0914
29.961193 104.968 -145.5050
30.178304 104.931 -145.9045
30.396989 104.891 -146.2904
30.617258 104.848 -146.6629
30.839123 104.804 -147.0222
31.062596 104.760 -147.3686
31.287688 104.716 -147.7021
31.514412 104.675 -148.0234
31.742778 104.636 -148.3332
31.972800 104.602 -148.6330
32.204488 104.572 -148.9249
32.437855 104.547 -149.2111
32.672913 104.528 -149.4943
32.909674 104.514 -149.7769
33.148151 104.506 -150.0612
33.388356 104.501 -150.3486
33.630302 104.501 -150.6398
33.874001 104.502 -150.9349
34.119466 104.506 -151.2329
34.366710 104.510 -151.5322
34.615745 104.514 -151.8307
34.866585 104.517 -152.1257
35.119243 104.517 -152.4144
35.373731 104.514 -152.6938
35.630064 104.507 -152.9612
35.888254 104.495 -153.2142
36.148315 104.478 -153.4512
36.410261 104.456 -153.6710
36.674104 104.429 -153.8734
36.939860 104.396 -154.0588
37.207542 104.359 -154.2281
37.477163 104.318 -154.3823
37.748738 104.273 -154.5229
38.022281 104.225 -154.6510
38.297806 104.176 -154.7676
38.575327 104.125 -154.8740
38.854860 104.075 -154.9713
39.136419 104.025 -155.0609
39.420017 103.976 -155.1448
39.705671 103.929 -155.2251
39.993395 103.884 -155.3046
40.283203 103.841 -155.3859
40.575112 103.801 -155.4722
40.869136 103.763 -155.5666
41.165290 103.727 -155.6718
41.463591 103.695 -155.7907
41.764053 103.665 -155.9252
42.066693 103.638 -156.0770
42.371525 103.615 -156.2462
42.678567 103.595 -156.4322
42.987834 103.579 -156.6329
43.299341 103.565 -156.8449
43.613106 103.554 -157.0643
43.929145 103.546 -157.2869
44.247473 103.540 -157.5086
44.568109 103.537 -157.7266
44.891068 103.536 -157.9390
45.216367 103.537 -158.1452
45.544023 103.540 -158.3457
45.874054 103.544 -158.5416
46.206476 103.550 -158.7343
46.541307 103.558 -158.9250
46.878565 103.567 -159.1148
47.218266 103.578 -159.3042
47.560429 103.590 -159.4934
47.905072 103.603 -159.6822
48.252212 103.617 -159.8699
48.601867 103.632 -160.0555
48.954056 103.647 -160.2379
49.308798 103.663 -160.4158
49.666109 103.678 -160.5879
50.026010 103.693 -160.7533
50.388520 103.707 -160.9113
50.753656 103.719 -161.0615
51.121437 103.731 -161.2036
51.491884 103.741 -161.3376
51.865016 103.750 -161.4634
52.240851 103.758 -161.5809
52.619410 103.765 -161.6901
53.000712 103.772 -161.7912
53.384777 103.779 -161.8843
53.771625 103.785 -161.9696
54.161276 103.792 -162.0472
54.553751 103.798 -162.1174
54.949070 103.805 -162.1801
55.347254 103.812 -162.2355
55.748323 103.820 -162.2841
56.152298 103.829 -162.3272
56.559201 103.840 -162.3662
56.969052 103.853 -162.4033
57.381873 103.869 -162.4410
57.797686 103.888 -162.4816
58.216512 103.911 -162.5278
58.638373 103.938 -162.5817
59.063291 103.970 -162.6455
59.491288 104.006 -162.7212
59.922386 104.047 -162.8104
60.356608 104.092 -162.9142
60.793977 104.141 -163.0335
61.234515 104.193 -163.1691
61.678246 104.248 -163.3217
62.125192 104.305 -163.4919
62.575377 104.364 -163.6805
63.028824 104.423 -163.8882
63.485557 104.483 -164.1155
63.945599 104.543 -164.3629
64.408975 104.602 -164.6309
64.875709 104.661 -164.9198
65.345825 104.719 -165.2301
65.819348 104.777 -165.5621
66.296302 104.834 -165.9162
66.776713 104.890 -166.2928
67.260604 104.946 -166.6920
67.748002 105.000 -167.1139
68.238932 105.052 -167.5580
68.733420 105.103 -168.0238
69.231490 105.153 -168.5106
69.733170 105.201 -169.0179
70.238485 105.247 -169.5449
70.747463 105.291 -170.0905
71.260128 105.333 -170.6539
71.776508 105.373 -171.2339
72.296630 105.410 -171.8293
72.820521 105.444 -172.4392
73.348209 105.477 -173.0623
73.879720 105.506 -173.6975
74.415083 105.533 -174.3436
74.954326 105.557 -174.9992
75.497475 105.579 -175.6633
76.044561 105.598 -176.3347
76.595612 105.613 -177.0125
77.150655 105.626 -177.6955
77.709720 105.636 -178.3830
78.272837 105.642 -179.0740
78.840034 105.646 -179.7677
79.411342 105.646 179.5370
79.986789 105.643 178.8412
80.566406 105.638 178.1459
81.150224 105.629 177.4522
81.738272 105.618 176.7606
82.330581 105.604 176.0716
82.927182 105.587 175.3851
83.528107 105.569 174.7011
84.133386 105.547 174.0195
84.743051 105.524 173.3401
85.357134 105.499 172.6631
85.975667 105.473 171.9882
86.598682 105.445 171.3157
87.226212 105.415 170.6456
87.858289 105.385 169.9779
88.494946 105.353 169.3129
89.136217 105.321 168.6508
89.782135 105.287 167.9918
90.432733 105.253 167.3365
91.088046 105.217 166.6855
91.748108 105.181 166.0397
92.412952 105.143 165.4000
93.082615 105.104 164.7674
93.757130 105.062 164.1427
94.436533 105.019 163.5265
95.120859 104.972 162.9188
95.810144 104.923 162.3195
96.504423 104.869 161.7281
97.203734 104.812 161.1443
97.908112 104.751 160.5675
98.617595 104.686 159.9976
99.332219 104.616 159.4348
100.052021 104.543 158.8794
100.777039 104.466 158.3322
101.507311 104.386 157.7939
102.242875 104.303 157.2654
102.983769 104.217 156.7476
103.730032 104.130 156.2412
104.481702 104.041 155.7467
105.238820 103.951 155.2645
106.001424 103.861 154.7949
106.769554 103.770 154.3382
107.543250 103.680 153.8945
108.322553 103.589 153.4640
109.107503 103.498 153.0468
109.898141 103.407 152.6430
110.694508 103.316 152.2528
111.496646 103.224 151.8764
112.304596 103.132 151.5140
113.118402 103.038 151.1660
113.938104 102.944 150.8328
114.763747 102.847 150.5151
115.595372 102.749 150.2133
116.433024 102.649 149.9279
117.276746 102.547 149.6594
118.126581 102.442 149.4080
118.982575 102.336 149.1740
119.844772 102.229 148.9574
120.713217 102.120 148.7586
121.587954 102.011 148.5778
122.469031 101.901 148.4153
123.356492 101.790 148.2712
124.250384 101.679 148.1459
125.150753 101.568 148.0394
126.057647 101.457 147.9518
126.971113 101.347 147.8833
127.891198 101.237 147.8341
128.817950 101.129 147.8044
129.751418 101.021 147.7946
130.691651 100.914 147.8049
131.638696 100.809 147.8358
132.592604 100.704 147.8876
133.553425 100.600 147.9608
134.521208 100.497 148.0561
135.496004 100.393 148.1739
136.477864 100.290 148.3150
137.466839 100.187 148.4799
138.462981 100.083 148.6692
139.466340 99.978 148.8835
140.476971 99.872 149.1233
141.494925 99.766 149.3893
142.520256 99.658 149.6816
143.553016 99.549 150.0007
144.593260 99.440 150.3464
145.641043 99.331 150.7188
146.696418 99.223 151.1175
147.759441 99.116 151.5422
148.830166 99.012 151.9925
149.908651 98.911 152.4678
150.994951 98.813 152.9675
152.089123 98.719 153.4907
153.191223 98.630 154.0364
154.301310 98.546 154.6032
155.419441 98.468 155.1897
156.545674 98.395 155.7941
157.680069 98.328 156.4146
158.822683 98.266 157.0497
159.973578 98.209 157.6976
161.132813 98.157 158.3568
162.300447 98.111 159.0254
163.476543 98.070 159.7016
164.661162 98.033 160.3833
165.854364 98.002 161.0685
167.056213 97.975 161.7549
168.266772 97.953 162.4405
169.486102 97.936 163.1232
170.714268 97.923 163.8011
171.951334 97.915 164.4722
173.197364 97.911 165.1348
174.452424 97.910 165.7872
175.716578 97.913 166.4280
176.989893 97.920 167.0560
178.272434 97.929 167.6702
179.564270 97.940 168.2698
180.865467 97.954 168.8542
182.176092 97.969 169.4232
183.496216 97.985 169.9767
184.825905 98.003 170.5153
186.165229 98.021 171.0395
187.514259 98.040 171.5507
188.873065 98.059 172.0502
190.241717 98.079 172.5394
191.620287 98.099 173.0194
193.008847 98.120 173.4909
194.407468 98.142 173.9536
195.816225 98.165 174.4058
197.235190 98.189 174.8450
198.664438 98.216 175.2675
200.104042 98.245 175.6686
201.554078 98.278 176.0434
203.014622 98.313 176.3870
204.485750 98.351 176.6953
205.967538 98.391 176.9654
207.460064 98.435 177.1960
208.963405 98.481 177.3869
210.477640 98.530 177.5394
212.002848 98.581 177.6556
213.539108 98.635 177.7385
215.086500 98.691 177.7914
216.645105 98.750 177.8177
218.215005 98.810 177.8209
219.796281 98.873 177.8040
221.389015 98.938 177.7699
222.993292 99.005 177.7210
224.609193 99.073 177.6593
226.236804 99.142 177.5864
227.876209 99.211 177.5034
229.527494 99.281 177.4117
231.190745 99.351 177.3122
232.866048 99.421 177.2057
234.553491 99.490 177.0932
236.253163 99.558 176.9755
237.965150 99.624 176.8533
239.689544 99.690 176.7274
241.426433 99.754 176.5983
243.175909 99.816 176.4666
244.938062 99.876 176.3328
246.712984 99.934 176.1973
248.500768 99.989 176.0604
250.301507 100.042 175.9225
252.115295 100.093 175.7838
253.942226 100.142 175.6445
255.782396 100.188 175.5047
257.635901 100.232 175.3645
259.502837 100.275 175.2238
261.383301 100.315 175.0823
263.277392 100.355 174.9398
265.185209 100.392 174.7959
267.106850 100.428 174.6501
269.042417 100.462 174.5021
270.992009 100.493 174.3513
272.955729 100.521 174.1973
274.933678 100.546 174.0398
276.925961 100.566 173.8787
278.932681 100.583 173.7139
280.953942 100.594 173.5455
282.989850 100.601 173.3735
285.040511 100.603 173.1982
287.106032 100.599 173.0199
289.186521 100.590 172.8387
291.282086 100.575 172.6552
293.392836 100.556 172.4695
295.518881 100.532 172.2823
297.660333 100.504 172.0939
299.817302 100.473 171.9048
301.989902 100.438 171.7155
304.178245 100.401 171.5264
306.382446 100.362 171.3382
308.602620 100.323 171.1512
310.838882 100.283 170.9658
313.091348 100.243 170.7825
315.360137 100.205 170.6014
317.645367 100.168 170.4229
319.947156 100.133 170.2471
322.265625 100.102 170.0740
324.600895 100.073 169.9037
326.953086 100.049 169.7360
329.322323 100.028 169.5708
331.708729 100.012 169.4080
334.112427 100.001 169.2476
336.533543 99.994 169.0895
338.972204 99.992 168.9338
341.428536 99.995 168.7806
343.902668 100.002 168.6301
346.394729 100.012 168.4824
348.904848 100.026 168.3375
351.433156 100.043 168.1958
353.979786 100.062 168.0573
356.544869 100.081 167.9221
359.128540 100.101 167.7906
361.730934 100.119 167.6630
364.352185 100.136 167.5394
366.992431 100.150 167.4200
369.651810 100.161 167.3050
372.330459 100.168 167.1945
375.028519 100.171 167.0887
377.746130 100.168 166.9876
380.483434 100.161 166.8910
383.240574 100.149 166.7988
386.017693 100.132 166.7106
388.814937 100.111 166.6260
391.632450 100.086 166.5447
394.470380 100.059 166.4660
397.328875 100.030 166.3894
400.208084 100.001 166.3144
403.108157 99.972 166.2403
406.029245 99.945 166.1665
408.971500 99.921 166.0925
411.935076 99.900 166.0177
414.920127 99.883 165.9414
417.926810 99.871 165.8630
420.955280 99.864 165.7820
424.005695 99.862 165.6976
427.078215 99.863 165.6095
430.173000 99.869 165.5172
433.290211 99.877 165.4202
436.430010 99.887 165.3182
439.592562 99.897 165.2109
442.778031 99.908 165.0982
445.986583 99.917 164.9800
449.218386 99.923 164.8562
452.473607 99.927 164.7271
455.752418 99.927 164.5927
459.054987 99.924 164.4537
462.381489 99.917 164.3103
465.732096 99.907 164.1633
469.106983 99.893 164.0131
472.506325 99.876 163.8605
475.930301 99.856 163.7062
479.379088 99.833 163.5511
482.852867 99.808 163.3959
486.351817 99.781 163.2418
489.876123 99.752 163.0896
493.425968 99.722 162.9403
497.001536 99.691 162.7952
500.603014 99.660 162.6555
504.230589 99.629 162.5226
507.884452 99.599 162.3982
511.564792 99.572 162.2843
515.271802 99.549 162.1831
519.005673 99.529 162.0968
522.766602 99.515 162.0276
526.554785 99.506 161.9773
530.370418 99.503 161.9472
534.213700 99.507 161.9373
538.084833 99.518 161.9465
541.984018 99.534 161.9726
545.911457 99.555 162.0123
549.867357 99.579 162.0620
553.851922 99.606 162.1178
557.865362 99.634 162.1765
561.907884 99.660 162.2352
565.979700 99.683 162.2917
570.081022 99.702 162.3443
574.212064 99.715 162.3919
578.373042 99.721 162.4335
582.564171 99.720 162.4683
586.785671 99.710 162.4957
591.037762 99.691 162.5153
595.320665 99.662 162.5265
599.634604 99.624 162.5291
603.979804 99.576 162.5230
608.356491 99.519 162.5084
612.764893 99.454 162.4854
617.205240 99.382 162.4543
621.677763 99.304 162.4159
626.182696 99.222 162.3706
630.720274 99.138 162.3193
635.290733 99.053 162.2625
639.894312 98.970 162.2008
644.531250 98.889 162.1347
649.201789 98.812 162.0646
653.906173 98.741 161.9909
658.644647 98.676 161.9138
663.417457 98.617 161.8337
668.224854 98.566 161.7509
673.067086 98.523 161.6658
677.944408 98.487 161.5790
682.857073 98.459 161.4911
687.805336 98.438 161.4029
692.789457 98.424 161.3151
697.809695 98.416 161.2286
702.866312 98.414 161.1446
707.959571 98.417 161.0641
713.089738 98.422 160.9885
718.257080 98.429 160.9187
723.461867 98.437 160.8561
728.704370 98.443 160.8017
733.984862 98.448 160.7565
739.303619 98.448 160.7213
744.660918 98.445 160.6968
750.057038 98.438 160.6834
755.492260 98.426 160.6815
760.966869 98.410 160.6913
766.481148 98.390 160.7125
772.035387 98.367 160.7451
777.629873 98.341 160.7886
783.264900 98.313 160.8427
788.940760 98.282 160.9067
794.657750 98.248 160.9802
800.416168 98.210 161.0625
806.216313 98.169 161.1530
812.058489 98.122 161.2512
817.943000 98.069 161.3566
823.870152 98.010 161.4686
829.840255 97.944 161.5870
835.853619 97.872 161.7115
841.910559 97.794 161.8417
848.011390 97.713 161.9774
854.156430 97.629 162.1181
860.346000 97.546 162.2632
866.580422 97.466 162.4117
872.860020 97.392 162.5626
879.185124 97.326 162.7140
885.556062 97.270 162.8636
891.973166 97.227 163.0085
898.436771 97.197 163.1454
904.947215 97.181 163.2704
911.504835 97.178 163.3792
918.109975 97.186 163.4676
924.762978 97.205 163.5319
931.464192 97.230 163.5693
938.213966 97.260 163.5788
945.012651 97.291 163.5613
951.860602 97.320 163.5205
958.758176 97.345 163.4627
965.705733 97.363 163.3968
972.703635 97.374 163.3335
979.752246 97.375 163.2845
986.851935 97.368 163.2620
994.003071 97.354 163.2769
1001.206027 97.333 163.3394
1008.461179 97.307 163.4579
1015.768904 97.281 163.6393
1023.129584 97.255 163.8889
1030.543603 97.235 164.2101
1038.011347 97.223 164.6041
1045.533205 97.223 165.0692
1053.109569 97.240 165.5994
1060.740836 97.275 166.1838
1068.427401 97.332 166.8048
1076.169666 97.412 167.4382
1083.968035 97.514 168.0535
1091.822915 97.636 168.6165
1099.734713 97.775 169.0925
1107.703844 97.923 169.4509
1115.730723 98.076 169.6700
1123.815768 98.224 169.7394
1131.959400 98.363 169.6623
1140.162045 98.486 169.4537
1148.424129 98.590 169.1377
1156.746083 98.673 168.7440
1165.128342 98.734 168.3032
1173.571343 98.776 167.8441
1182.075524 98.799 167.3915
1190.641331 98.808 166.9646
1199.269209 98.807 166.5773
1207.959608 98.799 166.2385
1216.712981 98.788 165.9524
1225.529785 98.776 165.7199
1234.410479 98.767 165.5393
1243.355526 98.763 165.4068
1252.365393 98.765 165.3175
1261.440549 98.774 165.2658
1270.581467 98.790 165.2460
1279.788624 98.812 165.2525
1289.062500 98.841 165.2800
1298.403578 98.875 165.3240
1307.812346 98.913 165.3806
1317.289293 98.955 165.4470
1326.834914 98.998 165.5209
1336.449707 99.041 165.6010
1346.134173 99.084 165.6862
1355.888816 99.126 165.7758
1365.714145 99.167 165.8690
1375.610673 99.205 165.9651
1385.578915 99.240 166.0634
1395.619391 99.272 166.1630
1405.732624 99.302 166.2630
1415.919142 99.328 166.3627
1426.179476 99.352 166.4615
1436.514160 99.373 166.5588
1446.923734 99.392 166.6544
1457.408740 99.408 166.7476
1467.969724 99.423 166.8385
1478.607238 99.435 166.9267
1489.321836 99.446 167.0121
1500.114076 99.454 167.0947
1510.984521 99.460 167.1745
1521.933737 99.463 167.2517
1532.962297 99.462 167.3264
1544.070773 99.459 167.3990
1555.259747 99.452 167.4696
1566.529800 99.442 167.5384
1577.881521 99.429 167.6055
1589.315501 99.413 167.6709
1600.832336 99.396 167.7347
1612.432627 99.377 167.7971
1624.116978 99.357 167.8577
1635.886000 99.337 167.9167
1647.740304 99.316 167.9738
1659.680509 99.295 168.0289
1671.707238 99.274 168.0818
1683.821118 99.253 168.1325
1696.022780 99.231 168.1808
1708.312860 99.209 168.2270
1720.692000 99.186 168.2712
1733.160843 99.163 168.3140
1745.720041 99.140 168.3560
1758.370248 99.117 168.3976
1771.112124 99.095 168.4396
1783.946332 99.074 168.4825
1796.873543 99.055 168.5270
1809.894429 99.037 168.5737
1823.009670 99.020 168.6229
1836.219950 99.004 168.6753
1849.525956 98.989 168.7315
1862.928384 98.974 168.7923
1876.427931 98.957 168.8584
1890.025301 98.939 168.9307
1903.721204 98.918 169.0100
1917.516352 98.895 169.0973
1931.411466 98.867 169.1931
1945.407270 98.836 169.2982
1959.504493 98.802 169.4130
1973.703870 98.763 169.5378
1988.006142 98.722 169.6727
2002.412054 98.679 169.8179
2016.922357 98.634 169.9733
2031.537808 98.588 170.1390
2046.259169 98.543 170.3150
2061.087206 98.499 170.5013
2076.022694 98.457 170.6984
2091.066410 98.418 170.9065
2106.219139 98.383 171.1263
2121.481671 98.352 171.3583
2136.854802 98.326 171.6032
2152.339333 98.307 171.8613
2167.936071 98.294 172.1330
2183.645829 98.288 172.4181
2199.469427 98.290 172.7162
2215.407689 98.300 173.0264
2231.461446 98.320 173.3475
2247.631536 98.349 173.6778
2263.918800 98.387 174.0154
2280.324089 98.436 174.3580
2296.848258 98.494 174.7031
2313.492167 98.562 175.0482
2330.256685 98.638 175.3910
2347.142685 98.722 175.7291
2364.151049 98.813 176.0608
2381.282662 98.910 176.3845
2398.538418 99.011 176.6992
2415.919216 99.116 177.0044
2433.425962 99.222 177.3000
2451.059570 99.329 177.5862
2468.820958 99.435 177.8636
2486.711052 99.539 178.1333
2504.730786 99.641 178.3964
2522.881098 99.738 178.6541
2541.162934 99.831 178.9078
2559.577248 99.919 179.1591
2578.125000 100.001 179.4095
2596.807157 100.077 179.6603
2615.624692 100.146 179.9130
2634.578586 100.209 -179.8310
2653.669829 100.265 -179.5706
2672.899414 100.314 -179.3053
2692.268345 100.358 -179.0348
2711.777632 100.395 -178.7596
2731.428290 100.428 -178.4812
2751.221345 100.456 -178.2019
2771.157829 100.479 -177.9246
2791.238781 100.498 -177.6527
2811.465248 100.514 -177.3894
2831.838284 100.526 -177.1376
2852.358952 100.533 -176.8991
2873.028321 100.537 -176.6750
2893.847468 100.537 -176.4651
2914.817480 100.532 -176.2682
2935.939449 100.523 -176.0824
2957.214476 100.510 -175.9051
2978.643672 100.492 -175.7332
3000.228152 100.469 -175.5635
3021.969041 100.443 -175.3927
3043.867475 100.414 -175.2179
3065.924593 100.381 -175.0365
3088.141547 100.347 -174.8464
3110.519493 100.310 -174.6459
3133.059600 100.272 -174.4339
3155.763041 100.234 -174.2095
3178.631001 100.196 -173.9721
