* Measurement data measured by REW V5.31.3
* Source: EXCL: Headset (USB-C to 3.5mm Headphone Jack Adapter), MICROPHONE (Master Volume), 0, volume: 0.260
* Format: 256k Log Swept Sine, 1 sweep at -12.0 dBFS with no timing reference
* Dated: Mar 5, 2025 10:57:17 AM
* REW Settings:
*  C-weighting compensation: Off
*  Target level: 75.0 dB
* Note: ; 
* Measurement: Ouroboros Reprint R7
* Smoothing: 1/6 octave
* Frequency Step: 96 ppo
* Start Frequency: 20.0 Hz
*
* Freq(Hz) SPL(dB) Phase(degrees)
20.141602 97.774 -120.6508
20.287556 97.755 -120.8488
20.434568 97.730 -121.1156
20.582645 97.700 -121.4447
20.731796 97.666 -121.8290
20.882027 97.627 -122.2615
21.033346 97.586 -122.7347
21.185763 97.543 -123.2418
21.339284 97.498 -123.7757
21.493917 97.451 -124.3299
21.649671 97.405 -124.8979
21.806553 97.359 -125.4741
21.964572 97.313 -126.0536
22.123737 97.269 -126.6325
22.284054 97.227 -127.2087
22.445534 97.188 -127.7814
22.608183 97.152 -128.3515
22.772012 97.120 -128.9212
22.937027 97.091 -129.4941
23.103238 97.067 -130.0738
23.270654 97.045 -130.6642
23.439282 97.026 -131.2682
23.609133 97.008 -131.8876
23.780215 96.991 -132.5225
23.952536 96.974 -133.1712
24.126106 96.956 -133.8302
24.300934 96.935 -134.4946
24.477028 96.913 -135.1588
24.654399 96.888 -135.8164
24.833055 96.861 -136.4614
25.013005 96.833 -137.0885
25.194260 96.805 -137.6934
25.376828 96.777 -138.2729
25.560719 96.750 -138.8251
25.745942 96.725 -139.3493
25.932508 96.703 -139.8453
26.120426 96.685 -140.3135
26.309705 96.671 -140.7543
26.500356 96.660 -141.1679
26.692388 96.654 -141.5543
26.885812 96.651 -141.9129
27.080638 96.652 -142.2429
27.276876 96.655 -142.5433
27.474535 96.660 -142.8132
27.673627 96.665 -143.0520
27.874161 96.668 -143.2595
28.076149 96.668 -143.4362
28.279600 96.664 -143.5838
28.484526 96.653 -143.7049
28.690937 96.634 -143.8036
28.898843 96.606 -143.8858
29.108256 96.567 -143.9591
29.319186 96.519 -144.0331
29.531645 96.460 -144.1189
29.745644 96.392 -144.2288
29.961193 96.316 -144.3754
30.178304 96.233 -144.5702
30.396989 96.145 -144.8221
30.617258 96.054 -145.1363
30.839123 95.962 -145.5127
31.062596 95.872 -145.9456
31.287688 95.785 -146.4232
31.514412 95.704 -146.9287
31.742778 95.629 -147.4416
31.972800 95.562 -147.9401
32.204488 95.504 -148.4030
32.437855 95.456 -148.8122
32.672913 95.417 -149.1549
32.909674 95.387 -149.4239
33.148151 95.365 -149.6189
33.388356 95.350 -149.7453
33.630302 95.339 -149.8136
33.874001 95.333 -149.8373
34.119466 95.327 -149.8318
34.366710 95.323 -149.8115
34.615745 95.317 -149.7894
34.866585 95.308 -149.7747
35.119243 95.297 -149.7726
35.373731 95.282 -149.7841
35.630064 95.263 -149.8058
35.888254 95.241 -149.8311
36.148315 95.214 -149.8510
36.410261 95.183 -149.8559
36.674104 95.149 -149.8365
36.939860 95.112 -149.7858
37.207542 95.073 -149.6994
37.477163 95.033 -149.5761
37.748738 94.992 -149.4183
38.022281 94.953 -149.2316
38.297806 94.915 -149.0234
38.575327 94.880 -148.8027
38.854860 94.849 -148.5779
39.136419 94.822 -148.3566
39.420017 94.798 -148.1436
39.705671 94.779 -147.9413
39.993395 94.763 -147.7493
40.283203 94.750 -147.5652
40.575112 94.740 -147.3856
40.869136 94.733 -147.2073
41.165290 94.728 -147.0283
41.463591 94.726 -146.8486
41.764053 94.728 -146.6700
42.066693 94.735 -146.4960
42.371525 94.747 -146.3310
42.678567 94.764 -146.1794
42.987834 94.787 -146.0452
43.299341 94.816 -145.9315
43.613106 94.851 -145.8401
43.929145 94.891 -145.7719
44.247473 94.937 -145.7268
44.568109 94.987 -145.7037
44.891068 95.040 -145.7005
45.216367 95.097 -145.7149
45.544023 95.157 -145.7442
45.874054 95.220 -145.7863
46.206476 95.287 -145.8400
46.541307 95.356 -145.9051
46.878565 95.429 -145.9827
47.218266 95.505 -146.0743
47.560429 95.584 -146.1821
47.905072 95.666 -146.3077
48.252212 95.750 -146.4527
48.601867 95.836 -146.6186
48.954056 95.923 -146.8071
49.308798 96.011 -147.0201
49.666109 96.099 -147.2591
50.026010 96.187 -147.5249
50.388520 96.273 -147.8170
50.753656 96.358 -148.1340
51.121437 96.441 -148.4734
51.491884 96.522 -148.8327
51.865016 96.601 -149.2096
52.240851 96.678 -149.6022
52.619410 96.752 -150.0087
53.000712 96.824 -150.4278
53.384777 96.893 -150.8579
53.771625 96.958 -151.2985
54.161276 97.021 -151.7493
54.553751 97.080 -152.2107
54.949070 97.136 -152.6834
55.347254 97.188 -153.1677
55.748323 97.237 -153.6634
56.152298 97.282 -154.1698
56.559201 97.324 -154.6857
56.969052 97.362 -155.2098
57.381873 97.399 -155.7411
57.797686 97.434 -156.2782
58.216512 97.467 -156.8195
58.638373 97.500 -157.3632
59.063291 97.532 -157.9074
59.491288 97.564 -158.4500
59.922386 97.595 -158.9900
60.356608 97.626 -159.5270
60.793977 97.658 -160.0623
61.234515 97.689 -160.5979
61.678246 97.721 -161.1365
62.125192 97.751 -161.6802
62.575377 97.780 -162.2306
63.028824 97.807 -162.7884
63.485557 97.832 -163.3531
63.945599 97.853 -163.9240
64.408975 97.871 -164.4995
64.875709 97.884 -165.0780
65.345825 97.894 -165.6573
65.819348 97.900 -166.2357
66.296302 97.902 -166.8118
66.776713 97.901 -167.3848
67.260604 97.897 -167.9546
67.748002 97.891 -168.5210
68.238932 97.883 -169.0842
68.733420 97.873 -169.6443
69.231490 97.861 -170.2014
69.733170 97.848 -170.7555
70.238485 97.834 -171.3064
70.747463 97.818 -171.8534
71.260128 97.802 -172.3958
71.776508 97.784 -172.9328
72.296630 97.765 -173.4632
72.820521 97.745 -173.9865
73.348209 97.724 -174.5014
73.879720 97.702 -175.0071
74.415083 97.679 -175.5027
74.954326 97.656 -175.9871
75.497475 97.631 -176.4599
76.044561 97.606 -176.9206
76.595612 97.581 -177.3686
77.150655 97.554 -177.8036
77.709720 97.526 -178.2253
78.272837 97.498 -178.6336
78.840034 97.469 -179.0286
79.411342 97.439 -179.4109
79.986789 97.408 -179.7811
80.566406 97.377 179.8596
81.150224 97.346 179.5100
81.738272 97.315 179.1689
82.330581 97.285 178.8348
82.927182 97.256 178.5069
83.528107 97.228 178.1845
84.133386 97.201 177.8672
84.743051 97.176 177.5547
85.357134 97.153 177.2462
85.975667 97.131 176.9406
86.598682 97.111 176.6367
87.226212 97.093 176.3329
87.858289 97.077 176.0280
88.494946 97.063 175.7206
89.136217 97.051 175.4096
89.782135 97.041 175.0941
90.432733 97.033 174.7736
91.088046 97.026 174.4474
91.748108 97.021 174.1156
92.412952 97.017 173.7783
93.082615 97.013 173.4357
93.757130 97.009 173.0883
94.436533 97.005 172.7360
95.120859 96.999 172.3791
95.810144 96.992 172.0174
96.504423 96.983 171.6511
97.203734 96.971 171.2801
97.908112 96.956 170.9047
98.617595 96.939 170.5251
99.332219 96.919 170.1416
100.052021 96.897 169.7546
100.777039 96.872 169.3648
101.507311 96.844 168.9727
102.242875 96.815 168.5786
102.983769 96.783 168.1829
103.730032 96.750 167.7854
104.481702 96.716 167.3860
105.238820 96.680 166.9845
106.001424 96.644 166.5809
106.769554 96.608 166.1754
107.543250 96.571 165.7684
108.322553 96.535 165.3605
109.107503 96.498 164.9524
109.898141 96.461 164.5448
110.694508 96.425 164.1381
111.496646 96.388 163.7327
112.304596 96.350 163.3288
113.118402 96.311 162.9265
113.938104 96.271 162.5262
114.763747 96.230 162.1281
115.595372 96.187 161.7328
116.433024 96.142 161.3408
117.276746 96.096 160.9529
118.126581 96.047 160.5704
118.982575 95.997 160.1947
119.844772 95.945 159.8276
120.713217 95.891 159.4701
121.587954 95.836 159.1230
122.469031 95.779 158.7863
123.356492 95.721 158.4597
124.250384 95.662 158.1426
125.150753 95.603 157.8348
126.057647 95.544 157.5361
126.971113 95.485 157.2464
127.891198 95.427 156.9662
128.817950 95.368 156.6959
129.751418 95.311 156.4360
130.691651 95.253 156.1865
131.638696 95.196 155.9472
132.592604 95.139 155.7176
133.553425 95.082 155.4973
134.521208 95.025 155.2862
135.496004 94.967 155.0840
136.477864 94.908 154.8904
137.466839 94.848 154.7052
138.462981 94.786 154.5281
139.466340 94.723 154.3590
140.476971 94.657 154.1981
141.494925 94.589 154.0457
142.520256 94.519 153.9026
143.553016 94.446 153.7692
144.593260 94.371 153.6459
145.641043 94.294 153.5331
146.696418 94.215 153.4307
147.759441 94.135 153.3384
148.830166 94.055 153.2559
149.908651 93.974 153.1827
150.994951 93.894 153.1182
152.089123 93.814 153.0623
153.191223 93.735 153.0145
154.301310 93.658 152.9751
155.419441 93.582 152.9443
156.545674 93.508 152.9225
157.680069 93.435 152.9100
158.822683 93.364 152.9070
159.973578 93.294 152.9143
161.132813 93.224 152.9324
162.300447 93.156 152.9621
163.476543 93.088 153.0038
164.661162 93.021 153.0581
165.854364 92.954 153.1248
167.056213 92.888 153.2042
168.266772 92.822 153.2960
169.486102 92.757 153.4005
170.714268 92.693 153.5173
171.951334 92.629 153.6467
173.197364 92.567 153.7883
174.452424 92.504 153.9420
175.716578 92.443 154.1077
176.989893 92.382 154.2849
178.272434 92.321 154.4734
179.564270 92.261 154.6726
180.865467 92.201 154.8821
182.176092 92.141 155.1012
183.496216 92.082 155.3291
184.825905 92.022 155.5651
186.165229 91.963 155.8083
187.514259 91.903 156.0580
188.873065 91.843 156.3137
190.241717 91.783 156.5743
191.620287 91.722 156.8390
193.008847 91.661 157.1067
194.407468 91.599 157.3765
195.816225 91.537 157.6475
197.235190 91.474 157.9195
198.664438 91.412 158.1921
200.104042 91.350 158.4653
201.554078 91.288 158.7388
203.014622 91.228 159.0124
204.485750 91.169 159.2854
205.967538 91.113 159.5571
207.460064 91.060 159.8268
208.963405 91.011 160.0940
210.477640 90.966 160.3582
212.002848 90.926 160.6193
213.539108 90.891 160.8773
215.086500 90.863 161.1320
216.645105 90.841 161.3835
218.215005 90.825 161.6318
219.796281 90.815 161.8770
221.389015 90.811 162.1188
222.993292 90.812 162.3571
224.609193 90.819 162.5919
226.236804 90.830 162.8229
227.876209 90.844 163.0503
229.527494 90.863 163.2740
231.190745 90.884 163.4940
232.866048 90.907 163.7103
234.553491 90.933 163.9227
236.253163 90.960 164.1310
237.965150 90.989 164.3350
239.689544 91.019 164.5341
241.426433 91.050 164.7284
243.175909 91.082 164.9175
244.938062 91.113 165.1020
246.712984 91.144 165.2820
248.500768 91.174 165.4582
250.301507 91.203 165.6307
252.115295 91.231 165.7997
253.942226 91.257 165.9655
255.782396 91.282 166.1279
257.635901 91.306 166.2870
259.502837 91.329 166.4434
261.383301 91.350 166.5974
263.277392 91.370 166.7498
265.185209 91.390 166.9016
267.106850 91.408 167.0538
269.042417 91.424 167.2073
270.992009 91.440 167.3628
272.955729 91.453 167.5208
274.933678 91.465 167.6813
276.925961 91.475 167.8444
278.932681 91.482 168.0093
280.953942 91.487 168.1753
282.989850 91.489 168.3412
285.040511 91.489 168.5062
287.106032 91.486 168.6692
289.186521 91.480 168.8293
291.282086 91.471 168.9853
293.392836 91.460 169.1358
295.518881 91.447 169.2791
297.660333 91.432 169.4133
299.817302 91.415 169.5369
301.989902 91.398 169.6481
304.178245 91.381 169.7459
306.382446 91.364 169.8293
308.602620 91.347 169.8978
310.838882 91.332 169.9510
313.091348 91.318 169.9890
315.360137 91.306 170.0119
317.645367 91.297 170.0201
319.947156 91.291 170.0141
322.265625 91.287 169.9946
324.600895 91.288 169.9626
326.953086 91.292 169.9189
329.322323 91.300 169.8645
331.708729 91.312 169.8001
334.112427 91.327 169.7266
336.533543 91.347 169.6448
338.972204 91.371 169.5560
341.428536 91.398 169.4611
343.902668 91.428 169.3611
346.394729 91.461 169.2573
348.904848 91.497 169.1504
351.433156 91.534 169.0414
353.979786 91.572 168.9313
356.544869 91.610 168.8206
359.128540 91.647 168.7103
361.730934 91.682 168.6011
364.352185 91.715 168.4934
366.992431 91.744 168.3876
369.651810 91.770 168.2838
372.330459 91.790 168.1817
375.028519 91.805 168.0813
377.746130 91.815 167.9821
380.483434 91.819 167.8839
383.240574 91.818 167.7862
386.017693 91.811 167.6889
388.814937 91.799 167.5917
391.632450 91.783 167.4947
394.470380 91.762 167.3978
397.328875 91.739 167.3010
400.208084 91.715 167.2043
403.108157 91.689 167.1079
406.029245 91.664 167.0119
408.971500 91.641 166.9166
411.935076 91.619 166.8221
414.920127 91.601 166.7288
417.926810 91.587 166.6370
420.955280 91.576 166.5471
424.005695 91.570 166.4594
427.078215 91.567 166.3745
430.173000 91.567 166.2928
433.290211 91.569 166.2143
436.430010 91.573 166.1392
439.592562 91.577 166.0674
442.778031 91.580 165.9988
445.986583 91.582 165.9330
449.218386 91.582 165.8698
452.473607 91.579 165.8091
455.752418 91.573 165.7506
459.054987 91.565 165.6944
462.381489 91.553 165.6406
465.732096 91.538 165.5889
469.106983 91.521 165.5397
472.506325 91.501 165.4930
475.930301 91.479 165.4489
479.379088 91.455 165.4078
482.852867 91.430 165.3700
486.351817 91.404 165.3360
489.876123 91.377 165.3062
493.425968 91.349 165.2815
497.001536 91.321 165.2623
500.603014 91.294 165.2495
504.230589 91.269 165.2437
507.884452 91.247 165.2457
511.564792 91.228 165.2559
515.271802 91.213 165.2751
519.005673 91.204 165.3036
522.766602 91.202 165.3418
526.554785 91.205 165.3896
530.370418 91.216 165.4471
534.213700 91.232 165.5140
538.084833 91.255 165.5901
541.984018 91.282 165.6750
545.911457 91.313 165.7681
549.867357 91.346 165.8689
553.851922 91.380 165.9766
557.865362 91.413 166.0903
561.907884 91.444 166.2089
565.979700 91.472 166.3312
570.081022 91.494 166.4561
574.212064 91.511 166.5824
578.373042 91.521 166.7088
582.564171 91.524 166.8344
586.785671 91.518 166.9581
591.037762 91.504 167.0795
595.320665 91.480 167.1979
599.634604 91.447 167.3132
603.979804 91.406 167.4252
608.356491 91.356 167.5335
612.764893 91.300 167.6378
617.205240 91.236 167.7379
621.677763 91.169 167.8329
626.182696 91.098 167.9225
630.720274 91.026 168.0060
635.290733 90.954 168.0831
639.894312 90.885 168.1536
644.531250 90.819 168.2176
649.201789 90.758 168.2753
653.906173 90.703 168.3275
658.644647 90.655 168.3748
663.417457 90.614 168.4182
668.224854 90.582 168.4587
673.067086 90.557 168.4971
677.944408 90.541 168.5342
682.857073 90.533 168.5708
687.805336 90.533 168.6074
692.789457 90.541 168.6443
697.809695 90.556 168.6820
702.866312 90.577 168.7208
707.959571 90.603 168.7612
713.089738 90.633 168.8037
718.257080 90.666 168.8491
723.461867 90.699 168.8984
728.704370 90.732 168.9527
733.984862 90.763 169.0134
739.303619 90.792 169.0817
744.660918 90.817 169.1588
750.057038 90.838 169.2458
755.492260 90.856 169.3435
760.966869 90.870 169.4523
766.481148 90.882 169.5725
772.035387 90.892 169.7035
777.629873 90.901 169.8445
783.264900 90.909 169.9938
788.940760 90.916 170.1496
794.657750 90.922 170.3091
800.416168 90.927 170.4691
806.216313 90.930 170.6256
812.058489 90.931 170.7739
817.943000 90.928 170.9087
823.870152 90.922 171.0243
829.840255 90.911 171.1145
835.853619 90.897 171.1734
841.910559 90.878 171.1956
848.011390 90.856 171.1770
854.156430 90.831 171.1149
860.346000 90.804 171.0094
866.580422 90.776 170.8629
872.860020 90.747 170.6809
879.185124 90.720 170.4716
885.556062 90.694 170.2451
891.973166 90.671 170.0122
898.436771 90.652 169.7840
904.947215 90.638 169.5697
911.504835 90.628 169.3768
918.109975 90.625 169.2102
924.762978 90.627 169.0724
931.464192 90.634 168.9639
938.213966 90.646 168.8834
945.012651 90.662 168.8287
951.860602 90.679 168.7972
958.758176 90.699 168.7857
965.705733 90.718 168.7914
972.703635 90.737 168.8116
979.752246 90.755 168.8441
986.851935 90.772 168.8868
994.003071 90.787 168.9384
1001.206027 90.801 168.9976
1008.461179 90.814 169.0635
1015.768904 90.827 169.1357
1023.129584 90.841 169.2138
1030.543603 90.858 169.2977
1038.011347 90.877 169.3876
1045.533205 90.901 169.4838
1053.109569 90.930 169.5869
1060.740836 90.963 169.6974
1068.427401 91.002 169.8166
1076.169666 91.046 169.9457
1083.968035 91.094 170.0864
1091.822915 91.146 170.2404
1099.734713 91.199 170.4100
1107.703844 91.254 170.5975
1115.730723 91.309 170.8055
1123.815768 91.363 171.0365
1131.959400 91.415 171.2925
1140.162045 91.467 171.5750
1148.424129 91.520 171.8838
1156.746083 91.574 172.2171
1165.128342 91.631 172.5699
1173.571343 91.695 172.9343
1182.075524 91.768 173.2977
1190.641331 91.852 173.6439
1199.269209 91.948 173.9529
1207.959608 92.058 174.2028
1216.712981 92.179 174.3716
1225.529785 92.310 174.4409
1234.410479 92.447 174.3984
1243.355526 92.585 174.2413
1252.365393 92.721 173.9766
1261.440549 92.851 173.6207
1270.581467 92.971 173.1965
1279.788624 93.081 172.7297
1289.062500 93.179 172.2455
1298.403578 93.267 171.7658
1307.812346 93.346 171.3079
1317.289293 93.416 170.8841
1326.834914 93.480 170.5014
1336.449707 93.539 170.1630
1346.134173 93.593 169.8686
1355.888816 93.644 169.6154
1365.714145 93.692 169.3994
1375.610673 93.738 169.2154
1385.578915 93.781 169.0579
1395.619391 93.823 168.9216
1405.732624 93.864 168.8015
1415.919142 93.902 168.6930
1426.179476 93.940 168.5921
1436.514160 93.976 168.4953
1446.923734 94.011 168.3997
1457.408740 94.046 168.3030
1467.969724 94.079 168.2032
1478.607238 94.112 168.0987
1489.321836 94.143 167.9883
1500.114076 94.173 167.8710
1510.984521 94.201 167.7461
1521.933737 94.227 167.6130
1532.962297 94.249 167.4716
1544.070773 94.269 167.3215
1555.259747 94.286 167.1626
1566.529800 94.299 166.9950
1577.881521 94.309 166.8188
1589.315501 94.317 166.6339
1600.832336 94.322 166.4403
1612.432627 94.325 166.2381
1624.116978 94.326 166.0271
1635.886000 94.326 165.8075
1647.740304 94.325 165.5792
1659.680509 94.324 165.3425
1671.707238 94.321 165.0975
1683.821118 94.318 164.8448
1696.022780 94.313 164.5847
1708.312860 94.307 164.3178
1720.692000 94.300 164.0448
1733.160843 94.292 163.7663
1745.720041 94.283 163.4831
1758.370248 94.275 163.1960
1771.112124 94.266 162.9055
1783.946332 94.258 162.6123
1796.873543 94.250 162.3170
1809.894429 94.243 162.0198
1823.009670 94.237 161.7213
1836.219950 94.231 161.4217
1849.525956 94.225 161.1212
1862.928384 94.218 160.8200
1876.427931 94.209 160.5184
1890.025301 94.198 160.2164
1903.721204 94.183 159.9144
1917.516352 94.164 159.6125
1931.411466 94.141 159.3113
1945.407270 94.113 159.0110
1959.504493 94.081 158.7124
1973.703870 94.044 158.4161
1988.006142 94.002 158.1227
2002.412054 93.957 157.8333
2016.922357 93.909 157.5484
2031.537808 93.859 157.2691
2046.259169 93.807 156.9962
2061.087206 93.755 156.7303
2076.022694 93.703 156.4724
2091.066410 93.652 156.2231
2106.219139 93.603 155.9826
2121.481671 93.557 155.7515
2136.854802 93.514 155.5297
2152.339333 93.475 155.3173
2167.936071 93.440 155.1139
2183.645829 93.411 154.9188
2199.469427 93.387 154.7312
2215.407689 93.370 154.5499
2231.461446 93.359 154.3737
2247.631536 93.355 154.2009
2263.918800 93.357 154.0302
2280.324089 93.367 153.8604
2296.848258 93.382 153.6906
2313.492167 93.404 153.5205
2330.256685 93.430 153.3501
2347.142685 93.461 153.1799
2364.151049 93.495 153.0109
2381.282662 93.532 152.8444
2398.538418 93.570 152.6819
2415.919216 93.608 152.5254
2433.425962 93.646 152.3765
2451.059570 93.682 152.2371
2468.820958 93.716 152.1087
2486.711052 93.747 151.9926
2504.730786 93.774 151.8899
2522.881098 93.797 151.8012
2541.162934 93.815 151.7269
2559.577248 93.828 151.6670
2578.125000 93.836 151.6214
2596.807157 93.837 151.5897
2615.624692 93.832 151.5714
2634.578586 93.820 151.5660
2653.669829 93.801 151.5732
2672.899414 93.775 151.5928
2692.268345 93.742 151.6244
2711.777632 93.702 151.6680
2731.428290 93.655 151.7234
2751.221345 93.602 151.7903
2771.157829 93.542 151.8687
2791.238781 93.476 151.9582
2811.465248 93.404 152.0585
2831.838284 93.327 152.1696
2852.358952 93.244 152.2913
2873.028321 93.156 152.4236
2893.847468 93.064 152.5668
2914.817480 92.967 152.7208
2935.939449 92.866 152.8859
2957.214476 92.762 153.0623
2978.643672 92.653 153.2503
3000.228152 92.542 153.4500
3021.969041 92.428 153.6618
3043.867475 92.311 153.8859
3065.924593 92.192 154.1230
3088.141547 92.071 154.3738
3110.519493 91.949 154.6398
3133.059600 91.825 154.9224
3155.763041 91.700 155.2240
3178.631001 91.574 155.5468
3201.664672 91.447 155.8939
3224.865254 91.320 156.2685
3248.233957 91.193 156.6739
3271.771999 91.066 157.1137
3295.480608 90.941 157.5916
3319.361019 90.818 158.1109
3343.414477 90.698 158.6749
3367.642236 90.582 159.2868
3392.045560 90.472 159.9494
3416.625721 90.368 160.6655
3441.383999 90.272 161.4376
3466.321686 90.186 162.2681
3491.440082 90.110 163.1591
3516.740496 90.045 164.1119
