* Measurement data measured by REW V5.31.3
* Source: EXCL: Headset (USB-C to 3.5mm Headphone Jack Adapter), MICROPHONE (Master Volume), 0, volume: 0.750
* Format: 256k Log Swept Sine, 1 sweep at -12.0 dBFS with no timing reference
* Dated: Apr 1, 2025 10:54:11 PM
* REW Settings:
*  C-weighting compensation: Off
*  Target level: 75.0 dB
* Note: ; 
* Measurement: Ouro (golem) L10
* Smoothing: 1/6 octave
* Frequency Step: 96 ppo
* Start Frequency: 20.0 Hz
*
* Freq(Hz) SPL(dB) Phase(degrees)
20.187378 92.992 -165.5803
20.333664 92.999 -166.1381
20.481010 93.005 -166.8742
20.629424 93.008 -167.7504
20.778913 93.004 -168.7230
20.929486 92.990 -169.7460
21.081150 92.968 -170.7739
21.233912 92.938 -171.7645
21.387782 92.903 -172.6808
21.542767 92.868 -173.4937
21.698874 92.837 -174.1833
21.856113 92.817 -174.7405
22.014492 92.812 -175.1663
22.174018 92.824 -175.4709
22.334700 92.855 -175.6710
22.496546 92.904 -175.7856
22.659566 92.967 -175.8326
22.823766 93.039 -175.8250
22.989157 93.116 -175.7694
23.155745 93.193 -175.6653
23.323542 93.264 -175.5068
23.492554 93.328 -175.2853
23.662790 93.383 -174.9927
23.834261 93.429 -174.6250
24.006973 93.466 -174.1851
24.180938 93.496 -173.6848
24.356163 93.521 -173.1450
24.532658 93.543 -172.5947
24.710431 93.562 -172.0683
24.889493 93.578 -171.6019
25.069853 93.591 -171.2295
25.251519 93.598 -170.9798
25.434502 93.598 -170.8736
25.618811 93.588 -170.9229
25.804456 93.566 -171.1313
25.991445 93.530 -171.4939
26.179790 93.478 -171.9994
26.369500 93.411 -172.6306
26.560584 93.327 -173.3660
26.753053 93.229 -174.1805
26.946917 93.116 -175.0465
27.142185 92.992 -175.9346
27.338869 92.859 -176.8151
27.536977 92.721 -177.6592
27.736522 92.581 -178.4415
27.937512 92.444 -179.1414
28.139959 92.314 -179.7455
28.343872 92.196 179.7516
28.549264 92.091 179.3467
28.756143 92.001 179.0291
28.964522 91.925 178.7831
29.174411 91.863 178.5909
29.385821 91.811 178.4354
29.598763 91.765 178.3028
29.813248 91.723 178.1836
30.029287 91.681 178.0726
30.246891 91.637 177.9674
30.466073 91.591 177.8671
30.686842 91.543 177.7704
30.909212 91.495 177.6750
31.133193 91.449 177.5777
31.358797 91.406 177.4750
31.586035 91.367 177.3650
31.814921 91.333 177.2488
32.045465 91.304 177.1312
32.277680 91.279 177.0203
32.511577 91.258 176.9263
32.747169 91.239 176.8594
32.984469 91.222 176.8273
33.223488 91.206 176.8340
33.464239 91.190 176.8782
33.706735 91.175 176.9547
33.950987 91.159 177.0543
34.197010 91.144 177.1662
34.444816 91.129 177.2792
34.694417 91.115 177.3825
34.945827 91.105 177.4663
35.199059 91.099 177.5225
35.454126 91.099 177.5450
35.711041 91.105 177.5312
35.969818 91.119 177.4829
36.230470 91.139 177.4072
36.493011 91.164 177.3170
36.757455 91.192 177.2297
37.023814 91.223 177.1646
37.292104 91.254 177.1396
37.562338 91.285 177.1688
37.834530 91.317 177.2591
38.108695 91.349 177.4098
38.384846 91.380 177.6136
38.662999 91.410 177.8582
38.943167 91.438 178.1290
39.225365 91.464 178.4116
39.509608 91.485 178.6931
39.795911 91.502 178.9632
40.084289 91.516 179.2142
40.374756 91.525 179.4414
40.667328 91.531 179.6432
40.962020 91.536 179.8213
41.258848 91.541 179.9805
41.557827 91.547 -179.8715
41.858972 91.557 -179.7251
42.162299 91.572 -179.5700
42.467824 91.592 -179.3964
42.775564 91.617 -179.1959
43.085533 91.646 -178.9622
43.397749 91.679 -178.6915
43.712227 91.714 -178.3827
44.028983 91.750 -178.0383
44.348036 91.786 -177.6640
44.669400 91.822 -177.2686
44.993093 91.860 -176.8631
45.319131 91.899 -176.4591
45.647532 91.940 -176.0672
45.978313 91.986 -175.6957
46.311491 92.035 -175.3503
46.647083 92.090 -175.0339
46.985107 92.149 -174.7481
47.325581 92.211 -174.4933
47.668521 92.277 -174.2699
48.013947 92.344 -174.0780
48.361876 92.410 -173.9181
48.712326 92.476 -173.7899
49.065315 92.539 -173.6925
49.420863 92.599 -173.6236
49.778987 92.656 -173.5794
50.139706 92.709 -173.5550
50.503039 92.759 -173.5445
50.869005 92.807 -173.5427
51.237623 92.853 -173.5461
51.608912 92.897 -173.5542
51.982891 92.940 -173.5690
52.359580 92.981 -173.5951
52.739000 93.023 -173.6381
53.121168 93.063 -173.7040
53.506106 93.103 -173.7983
53.893833 93.144 -173.9256
54.284370 93.185 -174.0895
54.677737 93.228 -174.2919
55.073955 93.272 -174.5321
55.473043 93.316 -174.8068
55.875024 93.361 -175.1108
56.279917 93.406 -175.4380
56.687745 93.449 -175.7837
57.098527 93.492 -176.1445
57.512287 93.534 -176.5191
57.929045 93.575 -176.9060
58.348822 93.615 -177.3031
58.771642 93.655 -177.7063
59.197525 93.696 -178.1107
59.626495 93.740 -178.5110
60.058573 93.787 -178.9031
60.493782 93.837 -179.2848
60.932145 93.890 -179.6557
61.373685 93.947 179.9829
61.818424 94.007 179.6283
62.266386 94.068 179.2770
62.717593 94.129 178.9255
63.172071 94.191 178.5709
63.629842 94.250 178.2115
64.090930 94.308 177.8470
64.555359 94.361 177.4775
65.023154 94.411 177.1030
65.494339 94.458 176.7227
65.968938 94.500 176.3351
66.446976 94.539 175.9393
66.928478 94.575 175.5350
67.413469 94.609 175.1233
67.901975 94.642 174.7064
68.394021 94.673 174.2868
68.889632 94.703 173.8672
69.388835 94.732 173.4500
69.891655 94.760 173.0369
70.398118 94.785 172.6294
70.908252 94.807 172.2283
71.422083 94.826 171.8338
71.939636 94.842 171.4457
72.460941 94.854 171.0632
72.986023 94.862 170.6846
73.514909 94.866 170.3083
74.047629 94.866 169.9326
74.584208 94.863 169.5564
75.124676 94.857 169.1792
75.669061 94.847 168.8007
76.217390 94.835 168.4210
76.769692 94.820 168.0397
77.325997 94.803 167.6564
77.886333 94.784 167.2708
78.450730 94.764 166.8830
79.019216 94.742 166.4936
79.591822 94.719 166.1036
80.168577 94.695 165.7143
80.749512 94.670 165.3267
81.334656 94.644 164.9416
81.924040 94.617 164.5594
82.517696 94.590 164.1805
83.115653 94.563 163.8055
83.717943 94.536 163.4351
84.324598 94.509 163.0704
84.935649 94.481 162.7128
85.551128 94.453 162.3632
86.171066 94.425 162.0223
86.795497 94.396 161.6901
87.424453 94.366 161.3658
88.057967 94.336 161.0481
88.696071 94.305 160.7354
89.338800 94.272 160.4266
89.986185 94.239 160.1207
90.638262 94.204 159.8176
91.295065 94.169 159.5175
91.956626 94.132 159.2213
92.622982 94.094 158.9304
93.294166 94.055 158.6462
93.970214 94.015 158.3700
94.651161 93.975 158.1027
95.337042 93.935 157.8444
96.027894 93.896 157.5945
96.723752 93.857 157.3518
97.424652 93.820 157.1144
98.130631 93.785 156.8801
98.841726 93.752 156.6461
99.557974 93.720 156.4098
100.279412 93.691 156.1688
101.006078 93.663 155.9213
101.738010 93.636 155.6660
102.475245 93.610 155.4026
103.217823 93.584 155.1318
103.965782 93.558 154.8550
104.719161 93.531 154.5744
105.477999 93.504 154.2922
106.242336 93.475 154.0108
107.012212 93.446 153.7324
107.787666 93.415 153.4588
108.568740 93.384 153.1917
109.355474 93.353 152.9321
110.147909 93.322 152.6808
110.946086 93.291 152.4375
111.750047 93.262 152.2014
112.559834 93.233 151.9709
113.375489 93.205 151.7440
114.197055 93.179 151.5186
115.024574 93.153 151.2928
115.858089 93.127 151.0647
116.697645 93.102 150.8330
117.543284 93.077 150.5965
118.395051 93.051 150.3542
119.252990 93.025 150.1052
120.117147 92.998 149.8484
120.987565 92.971 149.5831
121.864291 92.943 149.3088
122.747370 92.915 149.0258
123.636848 92.885 148.7348
124.532771 92.856 148.4374
125.435187 92.825 148.1356
126.344142 92.794 147.8319
127.259684 92.761 147.5295
128.181860 92.728 147.2321
129.110718 92.692 146.9432
130.046308 92.656 146.6666
130.988677 92.617 146.4056
131.937875 92.576 146.1623
132.893951 92.534 145.9379
133.856956 92.490 145.7322
134.826938 92.444 145.5434
135.803950 92.396 145.3682
136.788041 92.347 145.2024
137.779264 92.295 145.0415
138.777669 92.241 144.8811
139.783309 92.186 144.7178
140.796237 92.128 144.5494
141.816504 92.069 144.3748
142.844165 92.008 144.1942
143.879273 91.946 144.0089
144.921881 91.882 143.8211
145.972045 91.817 143.6332
147.029819 91.751 143.4482
148.095257 91.684 143.2687
149.168417 91.617 143.0971
150.249353 91.548 142.9355
151.338121 91.479 142.7848
152.434780 91.409 142.6452
153.539385 91.339 142.5165
154.651995 91.270 142.3978
155.772667 91.200 142.2881
156.901460 91.130 142.1866
158.038432 91.060 142.0930
159.183644 90.990 142.0067
160.337154 90.919 141.9275
161.499023 90.848 141.8552
162.669312 90.776 141.7893
163.848081 90.703 141.7292
165.035392 90.629 141.6742
166.231306 90.555 141.6235
167.435887 90.480 141.5765
168.649196 90.406 141.5334
169.871298 90.331 141.4950
171.102255 90.258 141.4623
172.342133 90.185 141.4372
173.590995 90.112 141.4213
174.848907 90.040 141.4162
176.115934 89.969 141.4228
177.392143 89.897 141.4414
178.677599 89.826 141.4720
179.972371 89.754 141.5137
181.276525 89.681 141.5655
182.590129 89.608 141.6260
183.913252 89.535 141.6942
185.245964 89.462 141.7687
186.588332 89.389 141.8488
187.940428 89.316 141.9341
189.302322 89.243 142.0243
190.674085 89.171 142.1198
192.055788 89.099 142.2211
193.447503 89.027 142.3289
194.849303 88.955 142.4442
196.261262 88.882 142.5680
197.683452 88.809 142.7016
199.115948 88.736 142.8460
200.558824 88.663 143.0021
202.012156 88.589 143.1702
203.476019 88.515 143.3500
204.950490 88.442 143.5406
206.435646 88.370 143.7406
207.931564 88.299 143.9488
209.438322 88.230 144.1639
210.955998 88.162 144.3848
212.484672 88.097 144.6102
214.024424 88.034 144.8389
215.575333 87.974 145.0698
217.137481 87.916 145.3016
218.710948 87.861 145.5335
220.295818 87.808 145.7646
221.892172 87.759 145.9941
223.500094 87.712 146.2217
225.119668 87.668 146.4472
226.750978 87.627 146.6712
228.394109 87.590 146.8947
230.049147 87.555 147.1193
231.716178 87.523 147.3464
233.395289 87.494 147.5774
235.086567 87.468 147.8134
236.790102 87.443 148.0547
238.505980 87.420 148.3013
240.234293 87.398 148.5527
241.975130 87.378 148.8080
243.728581 87.358 149.0663
245.494739 87.339 149.3263
247.273695 87.321 149.5867
249.065542 87.304 149.8466
250.870374 87.288 150.1055
252.688284 87.273 150.3629
254.519367 87.258 150.6190
256.363720 87.244 150.8739
258.221437 87.230 151.1281
260.092616 87.216 151.3817
261.977354 87.202 151.6348
263.875750 87.188 151.8879
265.787903 87.174 152.1414
267.713911 87.159 152.3958
269.653877 87.145 152.6520
271.607900 87.131 152.9109
273.576083 87.117 153.1732
275.558528 87.104 153.4393
277.555338 87.092 153.7095
279.566619 87.080 153.9839
281.592474 87.069 154.2621
283.633009 87.059 154.5437
285.688331 87.050 154.8284
287.758546 87.042 155.1157
289.843763 87.035 155.4057
291.944090 87.030 155.6982
294.059638 87.026 155.9936
296.190515 87.024 156.2921
298.336833 87.023 156.5942
300.498705 87.023 156.9003
302.676243 87.025 157.2104
304.869559 87.028 157.5245
307.078770 87.033 157.8426
309.303989 87.040 158.1644
311.545334 87.048 158.4895
313.802919 87.058 158.8177
316.076865 87.070 159.1488
318.367288 87.084 159.4821
320.674309 87.099 159.8171
322.998047 87.116 160.1530
325.338624 87.134 160.4889
327.696162 87.154 160.8237
330.070783 87.174 161.1566
332.462612 87.196 161.4865
334.871773 87.219 161.8126
337.298392 87.243 162.1344
339.742595 87.268 162.4514
342.204510 87.294 162.7630
344.684265 87.320 163.0692
347.181989 87.347 163.3696
349.697813 87.374 163.6640
352.231868 87.402 163.9522
354.784285 87.429 164.2342
357.355198 87.457 164.5095
359.944741 87.486 164.7779
362.553049 87.514 165.0385
365.180258 87.543 165.2903
367.826505 87.573 165.5322
370.491927 87.604 165.7628
373.176665 87.635 165.9810
375.880856 87.667 166.1855
378.604644 87.700 166.3752
381.348169 87.734 166.5494
384.111575 87.768 166.7074
386.895006 87.804 166.8486
389.698607 87.840 166.9729
392.522524 87.875 167.0803
395.366904 87.911 167.1710
398.231895 87.946 167.2457
401.117648 87.981 167.3050
404.024312 88.014 167.3499
406.952038 88.046 167.3813
409.900981 88.075 167.4002
412.871292 88.103 167.4076
415.863128 88.129 167.4042
418.876643 88.152 167.3906
421.911996 88.172 167.3674
424.969344 88.190 167.3347
428.048847 88.205 167.2929
431.150666 88.218 167.2420
434.274961 88.228 167.1823
437.421897 88.236 167.1139
440.591636 88.241 167.0370
443.784345 88.243 166.9520
447.000189 88.244 166.8593
450.239337 88.242 166.7596
453.501956 88.238 166.6535
456.788219 88.231 166.5419
460.098294 88.223 166.4256
463.432356 88.214 166.3056
466.790578 88.202 166.1828
470.173135 88.190 166.0580
473.580203 88.177 165.9322
477.011961 88.162 165.8061
480.468586 88.147 165.6806
483.950259 88.131 165.5566
487.457163 88.115 165.4348
490.989478 88.098 165.3163
494.547390 88.082 165.2016
498.131084 88.065 165.0915
501.740748 88.048 164.9865
505.376568 88.032 164.8867
509.038735 88.016 164.7921
512.727439 88.001 164.7026
516.442874 87.986 164.6178
520.185232 87.973 164.5370
523.954708 87.961 164.4597
527.751500 87.950 164.3853
531.575805 87.940 164.3132
535.427822 87.932 164.2430
539.307753 87.927 164.1741
543.215800 87.922 164.1064
547.152165 87.920 164.0400
551.117055 87.920 163.9751
555.110677 87.921 163.9121
559.133237 87.924 163.8517
563.184947 87.928 163.7947
567.266018 87.934 163.7416
571.376661 87.940 163.6929
575.517092 87.947 163.6490
579.687526 87.955 163.6099
583.888181 87.963 163.5756
588.119275 87.971 163.5458
592.381030 87.979 163.5201
596.673667 87.987 163.4978
600.997410 87.995 163.4784
605.352485 88.001 163.4614
609.739119 88.007 163.4464
614.157540 88.012 163.4334
618.607979 88.016 163.4226
623.090667 88.019 163.4144
627.605839 88.022 163.4092
632.153730 88.023 163.4075
636.734576 88.024 163.4094
641.348617 88.024 163.4144
645.996094 88.024 163.4216
650.677248 88.023 163.4291
655.392323 88.023 163.4350
660.141566 88.022 163.4368
664.925224 88.021 163.4323
669.743546 88.019 163.4195
674.596784 88.017 163.3973
679.485191 88.014 163.3651
684.409020 88.010 163.3228
689.368530 88.004 163.2712
694.363979 87.996 163.2113
699.395626 87.986 163.1442
704.463736 87.974 163.0714
709.568570 87.959 162.9940
714.710396 87.941 162.9134
719.889483 87.921 162.8309
725.106099 87.898 162.7476
730.360516 87.872 162.6647
735.653010 87.844 162.5834
740.983855 87.812 162.5053
746.353329 87.778 162.4319
751.761713 87.740 162.3648
757.209288 87.700 162.3060
762.696339 87.657 162.2574
768.223151 87.612 162.2209
773.790013 87.564 162.1982
779.397214 87.515 162.1910
785.045047 87.465 162.2004
790.733808 87.414 162.2274
796.463791 87.363 162.2727
802.235296 87.313 162.3364
808.048623 87.265 162.4183
813.904077 87.220 162.5174
819.801961 87.178 162.6315
825.742584 87.140 162.7575
831.726255 87.107 162.8905
837.753287 87.081 163.0239
843.823992 87.060 163.1497
849.938689 87.046 163.2582
856.097695 87.037 163.3392
862.301332 87.033 163.3829
868.549922 87.033 163.3808
874.843793 87.035 163.3274
881.183272 87.036 163.2210
887.568689 87.034 163.0645
894.000378 87.029 162.8652
900.478673 87.017 162.6336
907.003913 86.999 162.3821
913.576437 86.975 162.1235
920.196588 86.945 161.8691
926.864712 86.910 161.6285
933.581156 86.870 161.4083
940.346270 86.829 161.2129
947.160407 86.785 161.0443
954.023921 86.741 160.9030
960.937172 86.697 160.7880
967.900519 86.654 160.6978
974.914325 86.613 160.6304
981.978956 86.573 160.5839
989.094780 86.536 160.5566
996.262169 86.500 160.5472
1003.481495 86.465 160.5548
1010.753136 86.433 160.5792
1018.077470 86.401 160.6210
1025.454879 86.371 160.6815
1032.885748 86.341 160.7629
1040.370463 86.312 160.8683
1047.909417 86.284 161.0017
1055.503000 86.256 161.1680
1063.151610 86.230 161.3727
1070.855645 86.204 161.6223
1078.615506 86.181 161.9235
1086.431599 86.161 162.2833
1094.304330 86.147 162.7079
1102.234110 86.139 163.2017
1110.221353 86.141 163.7664
1118.266475 86.156 164.3987
1126.369895 86.186 165.0892
1134.532035 86.234 165.8205
1142.753322 86.302 166.5668
1151.034184 86.390 167.2945
1159.375052 86.499 167.9652
1167.776361 86.625 168.5394
1176.238550 86.764 168.9824
1184.762060 86.910 169.2693
1193.347334 87.058 169.3886
1201.994821 87.202 169.3434
1210.704971 87.335 169.1498
1219.478238 87.455 168.8331
1228.315080 87.560 168.4234
1237.215957 87.647 167.9519
1246.181334 87.718 167.4474
1255.211678 87.774 166.9349
1264.307459 87.817 166.4342
1273.469152 87.848 165.9603
1282.697235 87.870 165.5234
1291.992188 87.884 165.1294
1301.354495 87.893 164.7811
1310.784647 87.897 164.4788
1320.283132 87.899 164.2208
1329.850448 87.900 164.0043
1339.487093 87.900 163.8258
1349.193569 87.900 163.6813
1358.970381 87.902 163.5669
1368.818041 87.904 163.4784
1378.737061 87.909 163.4121
1388.727958 87.915 163.3644
1398.791253 87.924 163.3323
1408.927471 87.936 163.3127
1419.137140 87.950 163.3032
1429.420793 87.968 163.3017
1439.778965 87.988 163.3065
1450.212197 88.011 163.3161
1460.721033 88.036 163.3295
1471.306019 88.064 163.3458
1481.967709 88.095 163.3642
1492.706658 88.127 163.3843
1503.523426 88.161 163.4055
1514.418576 88.196 163.4276
1525.392678 88.231 163.4501
1536.446302 88.266 163.4727
1547.580025 88.301 163.4951
1558.794428 88.335 163.5171
1570.090095 88.367 163.5383
1581.467615 88.398 163.5585
1592.927581 88.426 163.5773
1604.470591 88.451 163.5945
1616.097246 88.473 163.6098
1627.808153 88.493 163.6232
1639.603922 88.509 163.6346
1651.485168 88.522 163.6443
1663.452510 88.531 163.6525
1675.506573 88.538 163.6594
1687.647984 88.540 163.6653
1699.877377 88.540 163.6707
1712.195390 88.536 163.6757
1724.602663 88.529 163.6808
1737.099845 88.518 163.6862
1749.687587 88.505 163.6924
1762.366544 88.488 163.6999
1775.137379 88.469 163.7089
1788.000756 88.446 163.7199
1800.957346 88.420 163.7332
1814.007826 88.390 163.7491
1827.152874 88.358 163.7680
1840.393177 88.322 163.7900
1853.729425 88.282 163.8156
1867.162312 88.239 163.8452
1880.692540 88.193 163.8791
1894.320813 88.143 163.9182
1908.047843 88.090 163.9630
1921.874344 88.033 164.0145
1935.801038 87.973 164.0734
1949.828650 87.910 164.1406
1963.957912 87.844 164.2166
1978.189561 87.774 164.3019
1992.524338 87.701 164.3966
2006.962991 87.625 164.5007
2021.506272 87.546 164.6141
2036.154940 87.465 164.7367
2050.909758 87.380 164.8685
2065.771495 87.293 165.0100
2080.740927 87.203 165.1618
2095.818833 87.111 165.3248
2111.006001 87.018 165.5001
2126.303220 86.923 165.6891
2141.711290 86.826 165.8930
2157.231013 86.730 166.1127
2172.863198 86.633 166.3490
2188.608660 86.538 166.6022
2204.468221 86.443 166.8723
2220.442706 86.349 167.1589
2236.532950 86.258 167.4614
2252.739789 86.168 167.7793
2269.064070 86.081 168.1118
2285.506644 85.996 168.4584
2302.068367 85.915 168.8188
2318.750104 85.836 169.1928
2335.552723 85.761 169.5801
2352.477101 85.689 169.9805
2369.524119 85.621 170.3936
2386.694668 85.558 170.8190
2403.989641 85.499 171.2558
2421.409941 85.445 171.7031
2438.956476 85.396 172.1599
2456.630160 85.353 172.6245
2474.431915 85.315 173.0956
2492.362668 85.284 173.5714
2510.423356 85.258 174.0503
2528.614918 85.238 174.5305
2546.938304 85.225 175.0103
2565.394469 85.217 175.4883
2583.984375 85.215 175.9630
2602.708991 85.219 176.4329
2621.569293 85.229 176.8966
2640.566265 85.243 177.3531
2659.700897 85.263 177.8014
2678.974186 85.288 178.2407
2698.387137 85.317 178.6707
2717.940763 85.350 179.0914
2737.636082 85.387 179.5031
2757.474121 85.427 179.9068
2777.455915 85.470 -179.6964
2797.582506 85.516 -179.3051
2817.854942 85.563 -178.9176
2838.274281 85.611 -178.5321
2858.841586 85.661 -178.1468
2879.557931 85.711 -177.7599
2900.424394 85.761 -177.3694
2921.442065 85.812 -176.9734
2942.612039 85.862 -176.5700
2963.935418 85.912 -176.1575
2985.413316 85.961 -175.7343
3007.046852 86.009 -175.2994
3028.837153 86.057 -174.8519
3050.785356 86.104 -174.3915
3072.892604 86.149 -173.9184
3095.160050 86.193 -173.4332
3117.588856 86.235 -172.9367
3140.180190 86.274 -172.4302
3162.935230 86.312 -171.9150
3185.855163 86.347 -171.3929
3208.941182 86.379 -170.8658
3232.194493 86.408 -170.3355
3255.616307 86.434 -169.8035
3279.207844 86.457 -169.2709
3302.970336 86.477 -168.7383
3326.905021 86.494 -168.2060
3351.013146 86.508 -167.6739
3375.295969 86.520 -167.1417
3399.754755 86.529 -166.6097
3424.390779 86.538 -166.0786
3449.205326 86.545 -165.5493
3474.199690 86.552 -165.0236
3499.375173 86.559 -164.5034
3524.733088 86.568 -163.9906
3550.274757 86.578 -163.4869
3576.001511 86.590 -162.9936
3601.914692 86.604 -162.5115
