* Measurement data measured by REW V5.31.3
* Source: EXCL: Headset (USB-C to 3.5mm Headphone Jack Adapter), MICROPHONE (Master Volume), 0, volume: 0.260
* Format: 256k Log Swept Sine, 1 sweep at -12.0 dBFS with no timing reference
* Dated: Feb 21, 2025 5:23:35 PM
* REW Settings:
*  C-weighting compensation: Off
*  Target level: 75.0 dB
* Note: ; 
* Measurement: Ouroboros (Golem Mod) L7
* Smoothing: 1/6 octave
* Frequency Step: 96 ppo
* Start Frequency: 20.0 Hz
*
* Freq(Hz) SPL(dB) Phase(degrees)
20.141602 106.503 -115.5275
20.287556 106.488 -115.7435
20.434568 106.467 -116.0333
20.582645 106.441 -116.3885
20.731796 106.410 -116.7999
20.882027 106.377 -117.2586
21.033346 106.340 -117.7560
21.185763 106.301 -118.2843
21.339284 106.261 -118.8368
21.493917 106.220 -119.4077
21.649671 106.179 -119.9922
21.806553 106.138 -120.5863
21.964572 106.098 -121.1865
22.123737 106.058 -121.7903
22.284054 106.020 -122.3957
22.445534 105.984 -123.0012
22.608183 105.949 -123.6058
22.772012 105.915 -124.2090
22.937027 105.882 -124.8106
23.103238 105.851 -125.4109
23.270654 105.821 -126.0102
23.439282 105.792 -126.6093
23.609133 105.763 -127.2086
23.780215 105.734 -127.8089
23.952536 105.705 -128.4106
24.126106 105.675 -129.0140
24.300934 105.645 -129.6190
24.477028 105.615 -130.2255
24.654399 105.583 -130.8329
24.833055 105.551 -131.4405
25.013005 105.518 -132.0474
25.194260 105.484 -132.6527
25.376828 105.451 -133.2557
25.560719 105.418 -133.8555
25.745942 105.385 -134.4516
25.932508 105.353 -135.0436
26.120426 105.323 -135.6313
26.309705 105.294 -136.2147
26.500356 105.267 -136.7939
26.692388 105.242 -137.3688
26.885812 105.219 -137.9397
27.080638 105.198 -138.5065
27.276876 105.179 -139.0692
27.474535 105.162 -139.6278
27.673627 105.146 -140.1821
27.874161 105.132 -140.7318
28.076149 105.118 -141.2766
28.279600 105.105 -141.8160
28.484526 105.091 -142.3495
28.690937 105.076 -142.8763
28.898843 105.059 -143.3952
29.108256 105.040 -143.9052
29.319186 105.019 -144.4046
29.531645 104.994 -144.8923
29.745644 104.965 -145.3667
29.961193 104.933 -145.8266
30.178304 104.898 -146.2711
30.396989 104.859 -146.7000
30.617258 104.818 -147.1132
30.839123 104.775 -147.5112
31.062596 104.731 -147.8949
31.287688 104.686 -148.2655
31.514412 104.640 -148.6243
31.742778 104.596 -148.9726
31.972800 104.554 -149.3116
32.204488 104.515 -149.6425
32.437855 104.479 -149.9661
32.672913 104.447 -150.2834
32.909674 104.420 -150.5949
33.148151 104.398 -150.9011
33.388356 104.382 -151.2025
33.630302 104.371 -151.4992
33.874001 104.363 -151.7914
34.119466 104.360 -152.0789
34.366710 104.359 -152.3618
34.615745 104.359 -152.6397
34.866585 104.358 -152.9125
35.119243 104.356 -153.1803
35.373731 104.352 -153.4429
35.630064 104.343 -153.7005
35.888254 104.329 -153.9531
36.148315 104.309 -154.2004
36.410261 104.284 -154.4418
36.674104 104.252 -154.6762
36.939860 104.214 -154.9019
37.207542 104.171 -155.1167
37.477163 104.123 -155.3185
37.748738 104.070 -155.5050
38.022281 104.014 -155.6747
38.297806 103.957 -155.8269
38.575327 103.898 -155.9619
38.854860 103.839 -156.0811
39.136419 103.781 -156.1869
39.420017 103.725 -156.2819
39.705671 103.670 -156.3690
39.993395 103.617 -156.4506
40.283203 103.565 -156.5284
40.575112 103.516 -156.6033
40.869136 103.468 -156.6757
41.165290 103.423 -156.7452
41.463591 103.379 -156.8114
41.764053 103.338 -156.8738
42.066693 103.299 -156.9320
42.371525 103.263 -156.9862
42.678567 103.230 -157.0367
42.987834 103.200 -157.0842
43.299341 103.174 -157.1297
43.613106 103.152 -157.1744
43.929145 103.135 -157.2195
44.247473 103.121 -157.2660
44.568109 103.112 -157.3152
44.891068 103.106 -157.3678
45.216367 103.104 -157.4247
45.544023 103.105 -157.4862
45.874054 103.109 -157.5526
46.206476 103.116 -157.6238
46.541307 103.126 -157.6994
46.878565 103.137 -157.7787
47.218266 103.151 -157.8609
47.560429 103.166 -157.9446
47.905072 103.183 -158.0286
48.252212 103.202 -158.1113
48.601867 103.223 -158.1915
48.954056 103.245 -158.2679
49.308798 103.269 -158.3399
49.666109 103.295 -158.4077
50.026010 103.322 -158.4717
50.388520 103.351 -158.5333
50.753656 103.380 -158.5938
51.121437 103.411 -158.6544
51.491884 103.443 -158.7161
51.865016 103.476 -158.7793
52.240851 103.508 -158.8440
52.619410 103.541 -158.9099
53.000712 103.574 -158.9770
53.384777 103.606 -159.0452
53.771625 103.638 -159.1148
54.161276 103.670 -159.1861
54.553751 103.700 -159.2598
54.949070 103.730 -159.3365
55.347254 103.759 -159.4171
55.748323 103.788 -159.5026
56.152298 103.816 -159.5941
56.559201 103.845 -159.6929
56.969052 103.874 -159.8004
57.381873 103.904 -159.9176
57.797686 103.937 -160.0455
58.216512 103.971 -160.1843
58.638373 104.009 -160.3332
59.063291 104.050 -160.4909
59.491288 104.096 -160.6559
59.922386 104.145 -160.8268
60.356608 104.198 -161.0035
60.793977 104.255 -161.1870
61.234515 104.315 -161.3796
61.678246 104.378 -161.5847
62.125192 104.443 -161.8057
62.575377 104.509 -162.0459
63.028824 104.576 -162.3081
63.485557 104.641 -162.5940
63.945599 104.705 -162.9047
64.408975 104.767 -163.2408
64.875709 104.827 -163.6018
65.345825 104.885 -163.9872
65.819348 104.941 -164.3960
66.296302 104.995 -164.8268
66.776713 105.046 -165.2783
67.260604 105.096 -165.7490
67.748002 105.144 -166.2374
68.238932 105.191 -166.7422
68.733420 105.236 -167.2626
69.231490 105.280 -167.7977
69.733170 105.322 -168.3470
70.238485 105.362 -168.9100
70.747463 105.401 -169.4861
71.260128 105.438 -170.0749
71.776508 105.473 -170.6756
72.296630 105.506 -171.2873
72.820521 105.537 -171.9092
73.348209 105.566 -172.5403
73.879720 105.592 -173.1796
74.415083 105.617 -173.8261
74.954326 105.638 -174.4788
75.497475 105.658 -175.1369
76.044561 105.675 -175.7998
76.595612 105.689 -176.4670
77.150655 105.701 -177.1382
77.709720 105.711 -177.8131
78.272837 105.717 -178.4913
78.840034 105.721 -179.1725
79.411342 105.722 -179.8565
79.986789 105.721 179.4571
80.566406 105.716 178.7685
81.150224 105.710 178.0779
81.738272 105.700 177.3856
82.330581 105.688 176.6917
82.927182 105.673 175.9965
83.528107 105.656 175.3005
84.133386 105.637 174.6042
84.743051 105.615 173.9083
85.357134 105.592 173.2137
85.975667 105.566 172.5211
86.598682 105.539 171.8314
87.226212 105.510 171.1456
87.858289 105.479 170.4642
88.494946 105.448 169.7877
89.136217 105.415 169.1163
89.782135 105.382 168.4502
90.432733 105.347 167.7893
91.088046 105.312 167.1337
91.748108 105.275 166.4835
92.412952 105.236 165.8388
93.082615 105.196 165.1998
93.757130 105.154 164.5667
94.436533 105.110 163.9398
95.120859 105.062 163.3192
95.810144 105.012 162.7050
96.504423 104.957 162.0975
97.203734 104.899 161.4968
97.908112 104.837 160.9033
98.617595 104.771 160.3170
99.332219 104.700 159.7386
100.052021 104.626 159.1682
100.777039 104.549 158.6064
101.507311 104.468 158.0535
102.242875 104.385 157.5100
102.983769 104.299 156.9766
103.730032 104.212 156.4537
104.481702 104.124 155.9422
105.238820 104.034 155.4425
106.001424 103.943 154.9553
106.769554 103.852 154.4809
107.543250 103.761 154.0201
108.322553 103.670 153.5732
109.107503 103.579 153.1407
109.898141 103.487 152.7232
110.694508 103.396 152.3210
111.496646 103.304 151.9344
112.304596 103.211 151.5638
113.118402 103.118 151.2095
113.938104 103.023 150.8715
114.763747 102.926 150.5499
115.595372 102.828 150.2444
116.433024 102.728 149.9548
117.276746 102.625 149.6807
118.126581 102.521 149.4220
118.982575 102.414 149.1784
119.844772 102.305 148.9499
120.713217 102.193 148.7367
121.587954 102.081 148.5394
122.469031 101.966 148.3585
123.356492 101.851 148.1951
124.250384 101.735 148.0500
125.150753 101.619 147.9240
126.057647 101.503 147.8181
126.971113 101.387 147.7330
127.891198 101.273 147.6696
128.817950 101.159 147.6283
129.751418 101.047 147.6100
130.691651 100.936 147.6152
131.638696 100.827 147.6444
132.592604 100.719 147.6980
133.553425 100.611 147.7762
134.521208 100.505 147.8791
135.496004 100.399 148.0067
136.477864 100.293 148.1592
137.466839 100.187 148.3368
138.462981 100.080 148.5400
139.466340 99.973 148.7690
140.476971 99.864 149.0244
141.494925 99.754 149.3065
142.520256 99.644 149.6155
143.553016 99.533 149.9517
144.593260 99.421 150.3148
145.641043 99.310 150.7050
146.696418 99.199 151.1217
147.759441 99.091 151.5646
148.830166 98.984 152.0333
149.908651 98.880 152.5269
150.994951 98.781 153.0447
152.089123 98.685 153.5858
153.191223 98.594 154.1489
154.301310 98.509 154.7327
155.419441 98.429 155.3360
156.545674 98.355 155.9571
157.680069 98.286 156.5946
158.822683 98.223 157.2468
159.973578 98.166 157.9120
161.132813 98.114 158.5885
162.300447 98.068 159.2744
163.476543 98.026 159.9677
164.661162 97.990 160.6666
165.854364 97.958 161.3689
167.056213 97.931 162.0727
168.266772 97.909 162.7761
169.486102 97.892 163.4771
170.714268 97.879 164.1735
171.951334 97.871 164.8633
173.197364 97.867 165.5445
174.452424 97.867 166.2150
175.716578 97.870 166.8731
176.989893 97.877 167.5173
178.272434 97.886 168.1467
179.564270 97.898 168.7604
180.865467 97.912 169.3583
182.176092 97.928 169.9402
183.496216 97.945 170.5068
184.825905 97.963 171.0588
186.165229 97.982 171.5973
187.514259 98.001 172.1236
188.873065 98.021 172.6391
190.241717 98.041 173.1451
191.620287 98.061 173.6424
193.008847 98.082 174.1314
194.407468 98.105 174.6116
195.816225 98.128 175.0815
197.235190 98.153 175.5383
198.664438 98.181 175.9785
200.104042 98.212 176.3974
201.554078 98.245 176.7902
203.014622 98.282 177.1523
204.485750 98.322 177.4794
205.967538 98.365 177.7687
207.460064 98.411 178.0183
208.963405 98.459 178.2281
210.477640 98.511 178.3989
212.002848 98.565 178.5327
213.539108 98.622 178.6323
215.086500 98.682 178.7007
216.645105 98.744 178.7414
218.215005 98.808 178.7574
219.796281 98.875 178.7520
221.389015 98.943 178.7277
222.993292 99.014 178.6871
224.609193 99.085 178.6321
226.236804 99.158 178.5644
227.876209 99.231 178.4855
229.527494 99.305 178.3964
231.190745 99.378 178.2982
232.866048 99.451 178.1921
234.553491 99.524 178.0788
236.253163 99.596 177.9594
237.965150 99.667 177.8345
239.689544 99.736 177.7052
241.426433 99.804 177.5718
243.175909 99.870 177.4350
244.938062 99.935 177.2950
246.712984 99.996 177.1520
248.500768 100.056 177.0063
250.301507 100.113 176.8581
252.115295 100.167 176.7074
253.942226 100.219 176.5546
255.782396 100.269 176.3997
257.635901 100.316 176.2431
259.502837 100.362 176.0847
261.383301 100.405 175.9247
263.277392 100.447 175.7629
265.185209 100.487 175.5991
267.106850 100.525 175.4329
269.042417 100.560 175.2640
270.992009 100.593 175.0920
272.955729 100.622 174.9168
274.933678 100.648 174.7382
276.925961 100.670 174.5563
278.932681 100.687 174.3710
280.953942 100.699 174.1827
282.989850 100.706 173.9914
285.040511 100.708 173.7976
287.106032 100.704 173.6015
289.186521 100.695 173.4034
291.282086 100.681 173.2036
293.392836 100.662 173.0022
295.518881 100.638 172.7993
297.660333 100.611 172.5953
299.817302 100.579 172.3902
301.989902 100.545 172.1843
304.178245 100.509 171.9780
306.382446 100.470 171.7714
308.602620 100.431 171.5648
310.838882 100.392 171.3586
313.091348 100.352 171.1528
315.360137 100.314 170.9479
317.645367 100.277 170.7441
319.947156 100.242 170.5417
322.265625 100.210 170.3411
324.600895 100.181 170.1426
326.953086 100.155 169.9468
329.322323 100.133 169.7537
331.708729 100.116 169.5639
334.112427 100.102 169.3774
336.533543 100.094 169.1944
338.972204 100.089 169.0150
341.428536 100.089 168.8394
343.902668 100.093 168.6675
346.394729 100.100 168.4996
348.904848 100.111 168.3358
351.433156 100.124 168.1763
353.979786 100.139 168.0214
356.544869 100.155 167.8714
359.128540 100.170 167.7266
361.730934 100.185 167.5872
364.352185 100.198 167.4534
366.992431 100.209 167.3254
369.651810 100.216 167.2033
372.330459 100.219 167.0871
375.028519 100.217 166.9768
377.746130 100.210 166.8722
380.483434 100.199 166.7732
383.240574 100.182 166.6797
386.017693 100.160 166.5915
388.814937 100.134 166.5085
391.632450 100.104 166.4303
394.470380 100.071 166.3568
397.328875 100.037 166.2876
400.208084 100.001 166.2224
403.108157 99.966 166.1607
406.029245 99.933 166.1021
408.971500 99.902 166.0461
411.935076 99.875 165.9921
414.920127 99.852 165.9397
417.926810 99.834 165.8883
420.955280 99.821 165.8375
424.005695 99.813 165.7869
427.078215 99.809 165.7361
430.173000 99.810 165.6848
433.290211 99.813 165.6325
436.430010 99.820 165.5791
439.592562 99.827 165.5244
442.778031 99.835 165.4681
445.986583 99.841 165.4100
449.218386 99.847 165.3499
452.473607 99.850 165.2870
455.752418 99.851 165.2213
459.054987 99.850 165.1519
462.381489 99.846 165.0785
465.732096 99.839 165.0005
469.106983 99.830 164.9175
472.506325 99.819 164.8294
475.930301 99.806 164.7359
479.379088 99.792 164.6369
482.852867 99.775 164.5326
486.351817 99.758 164.4230
489.876123 99.739 164.3087
493.425968 99.720 164.1901
497.001536 99.700 164.0681
500.603014 99.680 163.9440
504.230589 99.661 163.8192
507.884452 99.643 163.6956
511.564792 99.627 163.5753
515.271802 99.614 163.4611
519.005673 99.605 163.3554
522.766602 99.601 163.2611
526.554785 99.602 163.1805
530.370418 99.609 163.1154
534.213700 99.621 163.0662
538.084833 99.640 163.0322
541.984018 99.663 163.0113
545.911457 99.690 163.0004
549.867357 99.720 162.9960
553.851922 99.751 162.9942
557.865362 99.782 162.9918
561.907884 99.811 162.9860
565.979700 99.835 162.9749
570.081022 99.855 162.9572
574.212064 99.868 162.9324
578.373042 99.874 162.9003
582.564171 99.870 162.8611
586.785671 99.858 162.8153
591.037762 99.835 162.7633
595.320665 99.802 162.7056
599.634604 99.758 162.6431
603.979804 99.704 162.5763
608.356491 99.640 162.5063
612.764893 99.568 162.4341
617.205240 99.487 162.3607
621.677763 99.400 162.2871
626.182696 99.308 162.2145
630.720274 99.213 162.1438
635.290733 99.117 162.0756
639.894312 99.022 162.0106
644.531250 98.930 161.9492
649.201789 98.841 161.8914
653.906173 98.758 161.8372
658.644647 98.682 161.7867
663.417457 98.612 161.7396
668.224854 98.550 161.6959
673.067086 98.497 161.6559
677.944408 98.452 161.6196
682.857073 98.415 161.5872
687.805336 98.387 161.5591
692.789457 98.367 161.5356
697.809695 98.354 161.5168
702.866312 98.347 161.5034
707.959571 98.346 161.4955
713.089738 98.349 161.4934
718.257080 98.355 161.4975
723.461867 98.363 161.5079
728.704370 98.371 161.5249
733.984862 98.377 161.5485
739.303619 98.381 161.5785
744.660918 98.382 161.6149
750.057038 98.379 161.6575
755.492260 98.373 161.7060
760.966869 98.363 161.7601
766.481148 98.349 161.8196
772.035387 98.332 161.8843
777.629873 98.313 161.9541
783.264900 98.291 162.0291
788.940760 98.266 162.1094
794.657750 98.237 162.1953
800.416168 98.205 162.2873
806.216313 98.168 162.3856
812.058489 98.126 162.4905
817.943000 98.077 162.6021
823.870152 98.022 162.7206
829.840255 97.960 162.8458
835.853619 97.891 162.9775
841.910559 97.818 163.1153
848.011390 97.741 163.2588
854.156430 97.661 163.4073
860.346000 97.583 163.5597
866.580422 97.508 163.7147
872.860020 97.439 163.8707
879.185124 97.379 164.0254
885.556062 97.330 164.1759
891.973166 97.294 164.3190
898.436771 97.271 164.4505
904.947215 97.261 164.5660
911.504835 97.265 164.6606
918.109975 97.280 164.7297
924.762978 97.304 164.7691
931.464192 97.335 164.7761
938.213966 97.370 164.7498
945.012651 97.404 164.6920
951.860602 97.436 164.6077
958.758176 97.462 164.5045
965.705733 97.481 164.3931
972.703635 97.490 164.2859
979.752246 97.490 164.1964
986.851935 97.481 164.1377
994.003071 97.463 164.1218
1001.206027 97.438 164.1591
1008.461179 97.410 164.2582
1015.768904 97.379 164.4258
1023.129584 97.350 164.6666
1030.543603 97.327 164.9838
1038.011347 97.312 165.3779
1045.533205 97.309 165.8465
1053.109569 97.323 166.3831
1060.740836 97.357 166.9758
1068.427401 97.412 167.6065
1076.169666 97.491 168.2501
1083.968035 97.592 168.8756
1091.822915 97.714 169.4486
1099.734713 97.852 169.9343
1107.703844 98.000 170.3025
1115.730723 98.152 170.5317
1123.815768 98.301 170.6125
1131.959400 98.439 170.5482
1140.162045 98.563 170.3544
1148.424129 98.667 170.0553
1156.746083 98.751 169.6802
1165.128342 98.813 169.2595
1173.571343 98.856 168.8214
1182.075524 98.881 168.3898
1190.641331 98.893 167.9835
1199.269209 98.895 167.6154
1207.959608 98.891 167.2939
1216.712981 98.883 167.0228
1225.529785 98.876 166.8026
1234.410479 98.872 166.6309
1243.355526 98.873 166.5042
1252.365393 98.880 166.4173
1261.440549 98.894 166.3646
1270.581467 98.915 166.3404
1279.788624 98.943 166.3389
1289.062500 98.977 166.3546
1298.403578 99.016 166.3829
1307.812346 99.059 166.4198
1317.289293 99.104 166.4621
1326.834914 99.151 166.5077
1336.449707 99.198 166.5552
1346.134173 99.244 166.6039
1355.888816 99.288 166.6537
1365.714145 99.330 166.7043
1375.610673 99.369 166.7561
1385.578915 99.404 166.8090
1395.619391 99.437 166.8631
1405.732624 99.466 166.9186
1415.919142 99.492 166.9753
1426.179476 99.516 167.0335
1436.514160 99.536 167.0929
1446.923734 99.555 167.1534
1457.408740 99.571 167.2147
1467.969724 99.586 167.2766
1478.607238 99.599 167.3386
1489.321836 99.610 167.4002
1500.114076 99.619 167.4611
1510.984521 99.626 167.5207
1521.933737 99.631 167.5786
1532.962297 99.632 167.6342
1544.070773 99.631 167.6871
1555.259747 99.627 167.7370
1566.529800 99.620 167.7833
1577.881521 99.610 167.8257
1589.315501 99.598 167.8641
1600.832336 99.584 167.8983
1612.432627 99.568 167.9285
1624.116978 99.552 167.9547
1635.886000 99.535 167.9771
1647.740304 99.517 167.9958
1659.680509 99.499 168.0112
1671.707238 99.481 168.0234
1683.821118 99.462 168.0325
1696.022780 99.441 168.0390
1708.312860 99.420 168.0430
1720.692000 99.399 168.0449
1733.160843 99.376 168.0450
1745.720041 99.353 168.0437
1758.370248 99.329 168.0414
1771.112124 99.307 168.0384
1783.946332 99.285 168.0351
1796.873543 99.264 168.0319
1809.894429 99.244 168.0292
1823.009670 99.225 168.0275
1836.219950 99.208 168.0274
1849.525956 99.190 168.0297
1862.928384 99.172 168.0353
1876.427931 99.153 168.0450
1890.025301 99.131 168.0600
1903.721204 99.107 168.0811
1917.516352 99.079 168.1091
1931.411466 99.048 168.1450
1945.407270 99.012 168.1893
1959.504493 98.973 168.2426
1973.703870 98.929 168.3054
1988.006142 98.882 168.3781
2002.412054 98.832 168.4608
2016.922357 98.780 168.5539
2031.537808 98.726 168.6577
2046.259169 98.672 168.7726
2061.087206 98.619 168.8990
2076.022694 98.567 169.0375
2091.066410 98.518 169.1889
2106.219139 98.472 169.3539
2121.481671 98.430 169.5332
2136.854802 98.393 169.7275
2152.339333 98.361 169.9372
2167.936071 98.336 170.1624
2183.645829 98.317 170.4029
2199.469427 98.305 170.6582
2215.407689 98.301 170.9274
2231.461446 98.306 171.2091
2247.631536 98.319 171.5019
2263.918800 98.341 171.8040
2280.324089 98.372 172.1133
2296.848258 98.412 172.4280
2313.492167 98.461 172.7460
2330.256685 98.518 173.0657
2347.142685 98.583 173.3854
2364.151049 98.654 173.7040
2381.282662 98.730 174.0206
2398.538418 98.811 174.3346
2415.919216 98.895 174.6459
2433.425962 98.981 174.9547
2451.059570 99.067 175.2612
2468.820958 99.153 175.5662
2486.711052 99.238 175.8704
2504.730786 99.319 176.1748
2522.881098 99.398 176.4807
2541.162934 99.472 176.7895
2559.577248 99.541 177.1026
2578.125000 99.605 177.4218
2596.807157 99.662 177.7487
2615.624692 99.714 178.0848
2634.578586 99.759 178.4319
2653.669829 99.798 178.7909
2672.899414 99.831 179.1627
2692.268345 99.859 179.5471
2711.777632 99.881 179.9434
2731.428290 99.900 -179.6502
2751.221345 99.914 -179.2365
2771.157829 99.924 -178.8188
2791.238781 99.932 -178.4009
2811.465248 99.936 -177.9863
2831.838284 99.938 -177.5785
2852.358952 99.937 -177.1799
2873.028321 99.933 -176.7920
2893.847468 99.925 -176.4153
2914.817480 99.915 -176.0491
2935.939449 99.901 -175.6919
2957.214476 99.883 -175.3413
2978.643672 99.862 -174.9944
3000.228152 99.839 -174.6481
3021.969041 99.812 -174.2993
3043.867475 99.783 -173.9452
3065.924593 99.753 -173.5836
3088.141547 99.722 -173.2127
3110.519493 99.691 -172.8317
3133.059600 99.660 -172.4402
3155.763041 99.631 -172.0383
3178.631001 99.603 -171.6264
3201.664672 99.578 -171.2053
3224.865254 99.556 -170.7760
