* Measurement data measured by REW V5.31.3
* Source: EXCL: Headset (USB-C to 3.5mm Headphone Jack Adapter), MICROPHONE (Master Volume), 0, volume: 0.260
* Format: 256k Log Swept Sine, 1 sweep at -12.0 dBFS with no timing reference
* Dated: Feb 21, 2025 5:27:23 PM
* REW Settings:
*  C-weighting compensation: Off
*  Target level: 75.0 dB
* Note: ; 
* Measurement: Ouroboros (Golem Mod) R9
* Smoothing: 1/6 octave
* Frequency Step: 96 ppo
* Start Frequency: 20.0 Hz
*
* Freq(Hz) SPL(dB) Phase(degrees)
20.141602 106.089 -118.2899
20.287556 106.073 -118.5039
20.434568 106.053 -118.7923
20.582645 106.027 -119.1484
20.731796 105.997 -119.5646
20.882027 105.963 -120.0324
21.033346 105.926 -120.5433
21.185763 105.886 -121.0887
21.339284 105.844 -121.6601
21.493917 105.801 -122.2497
21.649671 105.756 -122.8505
21.806553 105.711 -123.4565
21.964572 105.667 -124.0631
22.123737 105.624 -124.6669
22.284054 105.582 -125.2663
22.445534 105.543 -125.8609
22.608183 105.506 -126.4515
22.772012 105.471 -127.0402
22.937027 105.439 -127.6292
23.103238 105.408 -128.2211
23.270654 105.378 -128.8182
23.439282 105.349 -129.4222
23.609133 105.320 -130.0339
23.780215 105.290 -130.6531
23.952536 105.259 -131.2788
24.126106 105.226 -131.9089
24.300934 105.191 -132.5408
24.477028 105.154 -133.1715
24.654399 105.115 -133.7979
24.833055 105.075 -134.4172
25.013005 105.035 -135.0269
25.194260 104.994 -135.6254
25.376828 104.954 -136.2115
25.560719 104.916 -136.7851
25.745942 104.879 -137.3463
25.932508 104.845 -137.8962
26.120426 104.814 -138.4358
26.309705 104.785 -138.9665
26.500356 104.759 -139.4897
26.692388 104.737 -140.0065
26.885812 104.716 -140.5178
27.080638 104.699 -141.0243
27.276876 104.683 -141.5263
27.474535 104.670 -142.0240
27.673627 104.658 -142.5173
27.874161 104.647 -143.0060
28.076149 104.637 -143.4896
28.279600 104.627 -143.9679
28.484526 104.616 -144.4402
28.690937 104.604 -144.9058
28.898843 104.590 -145.3638
29.108256 104.573 -145.8129
29.319186 104.552 -146.2516
29.531645 104.527 -146.6782
29.745644 104.497 -147.0908
29.961193 104.463 -147.4874
30.178304 104.423 -147.8664
30.396989 104.379 -148.2264
30.617258 104.331 -148.5668
30.839123 104.280 -148.8878
31.062596 104.227 -149.1903
31.287688 104.173 -149.4766
31.514412 104.119 -149.7496
31.742778 104.067 -150.0131
31.972800 104.018 -150.2712
32.204488 103.974 -150.5283
32.437855 103.935 -150.7882
32.672913 103.903 -151.0540
32.909674 103.877 -151.3276
33.148151 103.859 -151.6095
33.388356 103.846 -151.8989
33.630302 103.840 -152.1934
33.874001 103.839 -152.4896
34.119466 103.841 -152.7837
34.366710 103.847 -153.0714
34.615745 103.854 -153.3489
34.866585 103.861 -153.6130
35.119243 103.867 -153.8613
35.373731 103.869 -154.0925
35.630064 103.868 -154.3060
35.888254 103.863 -154.5022
36.148315 103.851 -154.6821
36.410261 103.833 -154.8472
36.674104 103.810 -154.9994
36.939860 103.780 -155.1407
37.207542 103.744 -155.2732
37.477163 103.704 -155.3990
37.748738 103.660 -155.5200
38.022281 103.613 -155.6376
38.297806 103.563 -155.7528
38.575327 103.513 -155.8661
38.854860 103.462 -155.9777
39.136419 103.411 -156.0873
39.420017 103.362 -156.1945
39.705671 103.313 -156.2985
39.993395 103.266 -156.3987
40.283203 103.221 -156.4943
40.575112 103.177 -156.5849
40.869136 103.135 -156.6696
41.165290 103.094 -156.7481
41.463591 103.055 -156.8199
41.764053 103.018 -156.8848
42.066693 102.982 -156.9427
42.371525 102.947 -156.9940
42.678567 102.914 -157.0395
42.987834 102.884 -157.0807
43.299341 102.855 -157.1196
43.613106 102.828 -157.1583
43.929145 102.805 -157.1995
44.247473 102.784 -157.2455
44.568109 102.766 -157.2980
44.891068 102.752 -157.3581
45.216367 102.741 -157.4259
45.544023 102.733 -157.5005
45.874054 102.729 -157.5804
46.206476 102.729 -157.6634
46.541307 102.733 -157.7470
46.878565 102.740 -157.8290
47.218266 102.751 -157.9075
47.560429 102.766 -157.9809
47.905072 102.784 -158.0484
48.252212 102.804 -158.1098
48.601867 102.828 -158.1652
48.954056 102.854 -158.2152
49.308798 102.883 -158.2605
49.666109 102.913 -158.3018
50.026010 102.946 -158.3397
50.388520 102.979 -158.3754
50.753656 103.013 -158.4099
51.121437 103.048 -158.4443
51.491884 103.083 -158.4801
51.865016 103.118 -158.5182
52.240851 103.152 -158.5595
52.619410 103.186 -158.6042
53.000712 103.219 -158.6525
53.384777 103.251 -158.7038
53.771625 103.281 -158.7579
54.161276 103.311 -158.8142
54.553751 103.340 -158.8729
54.949070 103.368 -158.9342
55.347254 103.395 -158.9987
55.748323 103.422 -159.0673
56.152298 103.449 -159.1406
56.559201 103.476 -159.2193
56.969052 103.504 -159.3040
57.381873 103.535 -159.3947
57.797686 103.567 -159.4914
58.216512 103.603 -159.5937
58.638373 103.643 -159.7012
59.063291 103.687 -159.8134
59.491288 103.735 -159.9301
59.922386 103.787 -160.0517
60.356608 103.844 -160.1797
60.793977 103.904 -160.3167
61.234515 103.968 -160.4659
61.678246 104.034 -160.6309
62.125192 104.102 -160.8151
62.575377 104.172 -161.0214
63.028824 104.241 -161.2521
63.485557 104.310 -161.5086
63.945599 104.377 -161.7917
64.408975 104.444 -162.1017
64.875709 104.508 -162.4384
65.345825 104.570 -162.8011
65.819348 104.631 -163.1888
66.296302 104.689 -163.6004
66.776713 104.746 -164.0347
67.260604 104.801 -164.4907
67.748002 104.854 -164.9673
68.238932 104.906 -165.4639
68.733420 104.956 -165.9795
69.231490 105.005 -166.5133
69.733170 105.052 -167.0642
70.238485 105.097 -167.6313
70.747463 105.140 -168.2135
71.260128 105.182 -168.8099
71.776508 105.222 -169.4196
72.296630 105.259 -170.0416
72.820521 105.294 -170.6750
73.348209 105.327 -171.3190
73.879720 105.358 -171.9726
74.415083 105.386 -172.6351
74.954326 105.412 -173.3059
75.497475 105.435 -173.9841
76.044561 105.455 -174.6689
76.595612 105.472 -175.3594
77.150655 105.487 -176.0546
77.709720 105.498 -176.7535
78.272837 105.506 -177.4551
78.840034 105.510 -178.1586
79.411342 105.512 -178.8634
79.986789 105.510 -179.5688
80.566406 105.506 179.7253
81.150224 105.498 179.0195
81.738272 105.488 178.3139
82.330581 105.475 177.6089
82.927182 105.459 176.9048
83.528107 105.440 176.2023
84.133386 105.419 175.5019
84.743051 105.395 174.8044
85.357134 105.369 174.1108
85.975667 105.341 173.4216
86.598682 105.311 172.7378
87.226212 105.279 172.0599
87.858289 105.246 171.3886
88.494946 105.212 170.7245
89.136217 105.176 170.0681
89.782135 105.139 169.4200
90.432733 105.101 168.7802
91.088046 105.062 168.1488
91.748108 105.022 167.5258
92.412952 104.981 166.9111
93.082615 104.938 166.3046
93.757130 104.894 165.7066
94.436533 104.847 165.1172
95.120859 104.798 164.5368
95.810144 104.746 163.9659
96.504423 104.690 163.4048
97.203734 104.632 162.8537
97.908112 104.569 162.3127
98.617595 104.503 161.7820
99.332219 104.433 161.2615
100.052021 104.360 160.7512
100.777039 104.284 160.2511
101.507311 104.205 159.7609
102.242875 104.124 159.2808
102.983769 104.041 158.8108
103.730032 103.957 158.3512
104.481702 103.872 157.9025
105.238820 103.787 157.4651
106.001424 103.701 157.0395
106.769554 103.616 156.6257
107.543250 103.532 156.2236
108.322553 103.448 155.8329
109.107503 103.365 155.4530
109.898141 103.283 155.0835
110.694508 103.201 154.7242
111.496646 103.120 154.3749
112.304596 103.038 154.0358
113.118402 102.957 153.7070
113.938104 102.874 153.3889
114.763747 102.790 153.0820
115.595372 102.704 152.7867
116.433024 102.617 152.5032
117.276746 102.527 152.2319
118.126581 102.435 151.9731
118.982575 102.340 151.7267
119.844772 102.244 151.4932
120.713217 102.145 151.2727
121.587954 102.044 151.0660
122.469031 101.941 150.8738
123.356492 101.837 150.6970
124.250384 101.731 150.5364
125.150753 101.626 150.3927
126.057647 101.520 150.2665
126.971113 101.414 150.1583
127.891198 101.308 150.0686
128.817950 101.203 149.9980
129.751418 101.100 149.9471
130.691651 100.997 149.9167
131.638696 100.895 149.9075
132.592604 100.794 149.9205
133.553425 100.693 149.9565
134.521208 100.593 150.0164
135.496004 100.493 150.1011
136.477864 100.393 150.2113
137.466839 100.293 150.3476
138.462981 100.192 150.5107
139.466340 100.089 150.7011
140.476971 99.986 150.9191
141.494925 99.882 151.1649
142.520256 99.777 151.4385
143.553016 99.671 151.7398
144.593260 99.564 152.0687
145.641043 99.458 152.4250
146.696418 99.352 152.8084
147.759441 99.248 153.2185
148.830166 99.146 153.6548
149.908651 99.047 154.1168
150.994951 98.952 154.6037
152.089123 98.862 155.1146
153.191223 98.776 155.6482
154.301310 98.697 156.2031
155.419441 98.623 156.7774
156.545674 98.555 157.3693
157.680069 98.493 157.9765
158.822683 98.437 158.5968
159.973578 98.387 159.2281
161.132813 98.342 159.8684
162.300447 98.303 160.5154
163.476543 98.270 161.1674
164.661162 98.241 161.8224
165.854364 98.218 162.4785
167.056213 98.200 163.1334
168.266772 98.186 163.7852
169.486102 98.178 164.4313
170.714268 98.174 165.0696
171.951334 98.175 165.6979
173.197364 98.180 166.3140
174.452424 98.189 166.9158
175.716578 98.201 167.5018
176.989893 98.218 168.0701
178.272434 98.237 168.6193
179.564270 98.259 169.1481
180.865467 98.283 169.6555
182.176092 98.309 170.1404
183.496216 98.337 170.6023
184.825905 98.365 171.0407
186.165229 98.395 171.4554
187.514259 98.424 171.8461
188.873065 98.454 172.2130
190.241717 98.483 172.5562
191.620287 98.512 172.8757
193.008847 98.540 173.1719
194.407468 98.566 173.4451
195.816225 98.591 173.6953
197.235190 98.615 173.9231
198.664438 98.637 174.1286
200.104042 98.658 174.3120
201.554078 98.678 174.4738
203.014622 98.698 174.6144
204.485750 98.716 174.7343
205.967538 98.736 174.8343
207.460064 98.756 174.9153
208.963405 98.777 174.9786
210.477640 98.801 175.0251
212.002848 98.827 175.0561
213.539108 98.856 175.0724
215.086500 98.889 175.0751
216.645105 98.925 175.0649
218.215005 98.965 175.0424
219.796281 99.009 175.0081
221.389015 99.056 174.9628
222.993292 99.105 174.9069
224.609193 99.158 174.8410
226.236804 99.212 174.7656
227.876209 99.268 174.6813
229.527494 99.326 174.5884
231.190745 99.384 174.4875
232.866048 99.442 174.3788
234.553491 99.500 174.2629
236.253163 99.558 174.1401
237.965150 99.615 174.0111
239.689544 99.672 173.8765
241.426433 99.726 173.7366
243.175909 99.779 173.5922
244.938062 99.830 173.4437
246.712984 99.879 173.2916
248.500768 99.925 173.1365
250.301507 99.968 172.9788
252.115295 100.008 172.8192
253.942226 100.046 172.6580
255.782396 100.081 172.4959
257.635901 100.113 172.3331
259.502837 100.143 172.1702
261.383301 100.171 172.0076
263.277392 100.196 171.8455
265.185209 100.219 171.6846
267.106850 100.239 171.5254
269.042417 100.257 171.3682
270.992009 100.271 171.2137
272.955729 100.282 171.0625
274.933678 100.289 170.9152
276.925961 100.292 170.7723
278.932681 100.290 170.6345
280.953942 100.284 170.5024
282.989850 100.273 170.3762
285.040511 100.257 170.2563
287.106032 100.236 170.1428
289.186521 100.211 170.0355
291.282086 100.181 169.9342
293.392836 100.148 169.8384
295.518881 100.111 169.7476
297.660333 100.071 169.6609
299.817302 100.029 169.5778
301.989902 99.986 169.4973
304.178245 99.941 169.4188
306.382446 99.896 169.3416
308.602620 99.852 169.2651
310.838882 99.809 169.1888
313.091348 99.768 169.1123
315.360137 99.729 169.0350
317.645367 99.692 168.9565
319.947156 99.659 168.8766
322.265625 99.630 168.7951
324.600895 99.605 168.7117
326.953086 99.584 168.6266
329.322323 99.568 168.5397
331.708729 99.557 168.4512
334.112427 99.551 168.3615
336.533543 99.550 168.2706
338.972204 99.555 168.1789
341.428536 99.564 168.0866
343.902668 99.577 167.9940
346.394729 99.595 167.9013
348.904848 99.616 167.8084
351.433156 99.640 167.7156
353.979786 99.667 167.6227
356.544869 99.694 167.5299
359.128540 99.722 167.4370
361.730934 99.749 167.3442
364.352185 99.775 167.2512
366.992431 99.798 167.1580
369.651810 99.819 167.0641
372.330459 99.835 166.9695
375.028519 99.848 166.8735
377.746130 99.855 166.7759
380.483434 99.858 166.6761
383.240574 99.855 166.5741
386.017693 99.848 166.4695
388.814937 99.836 166.3623
391.632450 99.821 166.2525
394.470380 99.802 166.1400
397.328875 99.781 166.0251
400.208084 99.759 165.9074
403.108157 99.737 165.7869
406.029245 99.717 165.6631
408.971500 99.698 165.5350
411.935076 99.683 165.4019
414.920127 99.671 165.2626
417.926810 99.664 165.1161
420.955280 99.660 164.9616
424.005695 99.661 164.7985
427.078215 99.664 164.6267
430.173000 99.670 164.4461
433.290211 99.678 164.2571
436.430010 99.686 164.0604
439.592562 99.693 163.8568
442.778031 99.698 163.6473
445.986583 99.701 163.4331
449.218386 99.699 163.2156
452.473607 99.694 162.9960
455.752418 99.683 162.7759
459.054987 99.668 162.5565
462.381489 99.648 162.3390
465.732096 99.624 162.1245
469.106983 99.595 161.9141
472.506325 99.563 161.7086
475.930301 99.527 161.5087
479.379088 99.489 161.3150
482.852867 99.447 161.1283
486.351817 99.404 160.9490
489.876123 99.358 160.7779
493.425968 99.311 160.6157
497.001536 99.263 160.4630
500.603014 99.216 160.3209
504.230589 99.168 160.1902
507.884452 99.123 160.0718
511.564792 99.080 159.9669
515.271802 99.040 159.8762
519.005673 99.005 159.8008
522.766602 98.975 159.7418
526.554785 98.950 159.7000
530.370418 98.931 159.6765
534.213700 98.917 159.6724
538.084833 98.908 159.6885
541.984018 98.904 159.7257
545.911457 98.903 159.7842
549.867357 98.905 159.8637
553.851922 98.908 159.9632
557.865362 98.911 160.0809
561.907884 98.914 160.2142
565.979700 98.914 160.3601
570.081022 98.911 160.5157
574.212064 98.903 160.6781
578.373042 98.890 160.8450
582.564171 98.871 161.0148
586.785671 98.843 161.1863
591.037762 98.808 161.3589
595.320665 98.764 161.5325
599.634604 98.711 161.7071
603.979804 98.650 161.8829
608.356491 98.581 162.0600
612.764893 98.504 162.2385
617.205240 98.422 162.4184
621.677763 98.336 162.5993
626.182696 98.248 162.7806
630.720274 98.159 162.9613
635.290733 98.072 163.1400
639.894312 97.989 163.3152
644.531250 97.911 163.4850
649.201789 97.840 163.6476
653.906173 97.776 163.8012
658.644647 97.722 163.9444
663.417457 97.676 164.0757
668.224854 97.641 164.1944
673.067086 97.614 164.2999
677.944408 97.598 164.3919
682.857073 97.590 164.4706
687.805336 97.591 164.5365
692.789457 97.600 164.5900
697.809695 97.616 164.6320
702.866312 97.638 164.6631
707.959571 97.665 164.6844
713.089738 97.695 164.6966
718.257080 97.727 164.7007
723.461867 97.760 164.6977
728.704370 97.790 164.6887
733.984862 97.818 164.6748
739.303619 97.842 164.6572
744.660918 97.861 164.6370
750.057038 97.874 164.6154
755.492260 97.881 164.5934
760.966869 97.883 164.5723
766.481148 97.880 164.5533
772.035387 97.871 164.5377
777.629873 97.858 164.5267
783.264900 97.841 164.5217
788.940760 97.819 164.5239
794.657750 97.792 164.5345
800.416168 97.760 164.5550
806.216313 97.722 164.5864
812.058489 97.677 164.6300
817.943000 97.624 164.6868
823.870152 97.564 164.7577
829.840255 97.496 164.8434
835.853619 97.420 164.9443
841.910559 97.339 165.0607
848.011390 97.253 165.1923
854.156430 97.165 165.3386
860.346000 97.076 165.4985
866.580422 96.991 165.6705
872.860020 96.912 165.8525
879.185124 96.841 166.0423
885.556062 96.781 166.2368
891.973166 96.733 166.4326
898.436771 96.699 166.6258
904.947215 96.679 166.8123
911.504835 96.673 166.9880
918.109975 96.678 167.1490
924.762978 96.693 167.2920
931.464192 96.716 167.4150
938.213966 96.743 167.5176
945.012651 96.773 167.6019
951.860602 96.801 167.6719
958.758176 96.827 167.7343
965.705733 96.847 167.7972
972.703635 96.862 167.8698
979.752246 96.871 167.9614
986.851935 96.874 168.0804
994.003071 96.871 168.2339
1001.206027 96.865 168.4276
1008.461179 96.858 168.6657
1015.768904 96.851 168.9516
1023.129584 96.846 169.2877
1030.543603 96.847 169.6757
1038.011347 96.857 170.1167
1045.533205 96.878 170.6105
1053.109569 96.914 171.1550
1060.740836 96.967 171.7447
1068.427401 97.039 172.3701
1076.169666 97.131 173.0159
1083.968035 97.246 173.6604
1091.822915 97.380 174.2756
1099.734713 97.532 174.8287
1107.703844 97.698 175.2855
1115.730723 97.872 175.6144
1123.815768 98.047 175.7921
1131.959400 98.216 175.8077
1140.162045 98.373 175.6647
1148.424129 98.512 175.3806
1156.746083 98.629 174.9829
1165.128342 98.723 174.5049
1173.571343 98.795 173.9804
1182.075524 98.846 173.4404
1190.641331 98.879 172.9106
1199.269209 98.898 172.4103
1207.959608 98.908 171.9530
1216.712981 98.910 171.5468
1225.529785 98.911 171.1953
1234.410479 98.911 170.8987
1243.355526 98.914 170.6550
1252.365393 98.921 170.4602
1261.440549 98.934 170.3098
1270.581467 98.952 170.1985
1279.788624 98.976 170.1212
1289.062500 99.005 170.0730
1298.403578 99.039 170.0494
1307.812346 99.077 170.0467
1317.289293 99.117 170.0616
1326.834914 99.159 170.0919
1336.449707 99.201 170.1356
1346.134173 99.243 170.1915
1355.888816 99.284 170.2586
1365.714145 99.323 170.3362
1375.610673 99.360 170.4237
1385.578915 99.394 170.5204
1395.619391 99.426 170.6255
1405.732624 99.456 170.7382
1415.919142 99.483 170.8575
1426.179476 99.509 170.9823
1436.514160 99.533 171.1114
1446.923734 99.555 171.2433
1457.408740 99.577 171.3770
1467.969724 99.598 171.5107
1478.607238 99.618 171.6433
1489.321836 99.637 171.7735
1500.114076 99.655 171.8999
1510.984521 99.671 172.0217
1521.933737 99.686 172.1380
1532.962297 99.698 172.2483
1544.070773 99.707 172.3522
1555.259747 99.713 172.4496
1566.529800 99.717 172.5407
1577.881521 99.718 172.6257
1589.315501 99.717 172.7051
1600.832336 99.713 172.7795
1612.432627 99.709 172.8494
1624.116978 99.704 172.9152
1635.886000 99.698 172.9773
1647.740304 99.693 173.0361
1659.680509 99.688 173.0918
1671.707238 99.683 173.1443
1683.821118 99.679 173.1938
1696.022780 99.674 173.2401
1708.312860 99.670 173.2833
1720.692000 99.665 173.3232
1733.160843 99.661 173.3600
1745.720041 99.658 173.3937
1758.370248 99.655 173.4242
1771.112124 99.654 173.4517
1783.946332 99.654 173.4761
1796.873543 99.656 173.4977
1809.894429 99.660 173.5164
1823.009670 99.666 173.5324
1836.219950 99.674 173.5460
1849.525956 99.682 173.5571
1862.928384 99.690 173.5661
1876.427931 99.698 173.5732
1890.025301 99.704 173.5786
1903.721204 99.708 173.5823
1917.516352 99.709 173.5847
1931.411466 99.707 173.5858
1945.407270 99.701 173.5858
1959.504493 99.691 173.5848
1973.703870 99.678 173.5833
1988.006142 99.661 173.5817
2002.412054 99.642 173.5804
2016.922357 99.620 173.5804
2031.537808 99.598 173.5824
2046.259169 99.574 173.5875
2061.087206 99.551 173.5969
2076.022694 99.529 173.6116
2091.066410 99.509 173.6326
2106.219139 99.492 173.6611
2121.481671 99.478 173.6976
2136.854802 99.469 173.7427
2152.339333 99.464 173.7969
2167.936071 99.465 173.8602
2183.645829 99.472 173.9323
2199.469427 99.486 174.0127
2215.407689 99.507 174.1005
2231.461446 99.535 174.1945
2247.631536 99.572 174.2933
2263.918800 99.617 174.3954
2280.324089 99.669 174.4991
2296.848258 99.730 174.6026
2313.492167 99.798 174.7046
2330.256685 99.873 174.8040
2347.142685 99.954 174.9000
2364.151049 100.040 174.9925
2381.282662 100.130 175.0817
2398.538418 100.222 175.1682
2415.919216 100.317 175.2528
2433.425962 100.412 175.3367
2451.059570 100.507 175.4211
2468.820958 100.601 175.5068
2486.711052 100.693 175.5946
2504.730786 100.783 175.6851
2522.881098 100.869 175.7783
2541.162934 100.951 175.8740
2559.577248 101.029 175.9714
2578.125000 101.101 176.0697
2596.807157 101.169 176.1677
2615.624692 101.230 176.2642
2634.578586 101.284 176.3581
2653.669829 101.332 176.4489
2672.899414 101.373 176.5366
2692.268345 101.406 176.6218
2711.777632 101.432 176.7056
2731.428290 101.450 176.7898
2751.221345 101.461 176.8764
2771.157829 101.465 176.9674
2791.238781 101.463 177.0645
2811.465248 101.454 177.1689
2831.838284 101.440 177.2811
2852.358952 101.422 177.4010
2873.028321 101.399 177.5277
2893.847468 101.373 177.6601
2914.817480 101.344 177.7966
2935.939449 101.312 177.9358
2957.214476 101.278 178.0762
2978.643672 101.242 178.2169
3000.228152 101.204 178.3570
3021.969041 101.164 178.4963
3043.867475 101.122 178.6348
3065.924593 101.079 178.7729
3088.141547 101.035 178.9112
3110.519493 100.990 179.0509
3133.059600 100.944 179.1932
3155.763041 100.898 179.3395
3178.631001 100.851 179.4915
3201.664672 100.804 179.6506
3224.865254 100.757 179.8184
