* Measurement data measured by REW V5.31.3
* Source: EXCL: Headset (USB-C to 3.5mm Headphone Jack Adapter), MICROPHONE (Master Volume), 0, volume: 0.750
* Format: 256k Log Swept Sine, 1 sweep at -12.0 dBFS with no timing reference
* Dated: Apr 1, 2025 10:51:43 PM
* REW Settings:
*  C-weighting compensation: Off
*  Target level: 75.0 dB
* Note: ; 
* Measurement: Ouro (golem) L3
* Smoothing: 1/6 octave
* Frequency Step: 96 ppo
* Start Frequency: 20.0 Hz
*
* Freq(Hz) SPL(dB) Phase(degrees)
20.187378 93.533 -169.9410
20.333664 93.543 -170.0360
20.481010 93.556 -170.1636
20.629424 93.572 -170.3204
20.778913 93.591 -170.5025
20.929486 93.613 -170.7057
21.081150 93.638 -170.9263
21.233912 93.666 -171.1608
21.387782 93.697 -171.4062
21.542767 93.730 -171.6602
21.698874 93.767 -171.9214
21.856113 93.806 -172.1890
22.014492 93.847 -172.4634
22.174018 93.890 -172.7456
22.334700 93.935 -173.0373
22.496546 93.980 -173.3407
22.659566 94.024 -173.6583
22.823766 94.066 -173.9921
22.989157 94.105 -174.3438
23.155745 94.139 -174.7144
23.323542 94.166 -175.1039
23.492554 94.186 -175.5110
23.662790 94.197 -175.9335
23.834261 94.198 -176.3684
24.006973 94.189 -176.8121
24.180938 94.170 -177.2608
24.356163 94.142 -177.7111
24.532658 94.104 -178.1602
24.710431 94.059 -178.6064
24.889493 94.008 -179.0493
25.069853 93.951 -179.4898
25.251519 93.891 -179.9296
25.434502 93.829 179.6288
25.618811 93.765 179.1832
25.804456 93.701 178.7319
25.991445 93.637 178.2750
26.179790 93.572 177.8144
26.369500 93.506 177.3541
26.560584 93.440 176.9002
26.753053 93.374 176.4600
26.946917 93.307 176.0417
27.142185 93.239 175.6528
27.338869 93.173 175.2992
27.536977 93.107 174.9846
27.736522 93.045 174.7090
27.937512 92.985 174.4697
28.139959 92.930 174.2604
28.343872 92.880 174.0728
28.549264 92.835 173.8974
28.756143 92.793 173.7251
28.964522 92.755 173.5481
29.174411 92.720 173.3610
29.385821 92.685 173.1616
29.598763 92.650 172.9507
29.813248 92.613 172.7319
30.029287 92.575 172.5111
30.246891 92.534 172.2956
30.466073 92.490 172.0935
30.686842 92.445 171.9127
30.909212 92.398 171.7604
31.133193 92.351 171.6421
31.358797 92.304 171.5613
31.586035 92.259 171.5191
31.814921 92.218 171.5137
32.045465 92.181 171.5402
32.277680 92.151 171.5912
32.511577 92.127 171.6571
32.747169 92.110 171.7267
32.984469 92.100 171.7887
33.223488 92.097 171.8325
33.464239 92.100 171.8493
33.706735 92.107 171.8332
33.950987 92.117 171.7809
34.197010 92.129 171.6928
34.444816 92.142 171.5717
34.694417 92.153 171.4229
34.945827 92.163 171.2535
35.199059 92.170 171.0716
35.454126 92.173 170.8862
35.711041 92.173 170.7062
35.969818 92.168 170.5405
36.230470 92.158 170.3976
36.493011 92.143 170.2852
36.757455 92.124 170.2098
37.023814 92.102 170.1768
37.292104 92.076 170.1901
37.562338 92.049 170.2519
37.834530 92.020 170.3627
38.108695 91.992 170.5213
38.384846 91.966 170.7250
38.662999 91.943 170.9697
38.943167 91.924 171.2502
39.225365 91.910 171.5610
39.509608 91.901 171.8963
39.795911 91.899 172.2507
40.084289 91.902 172.6193
40.374756 91.912 172.9981
40.667328 91.927 173.3835
40.962020 91.948 173.7726
41.258848 91.973 174.1627
41.557827 92.003 174.5516
41.858972 92.036 174.9373
42.162299 92.071 175.3178
42.467824 92.109 175.6917
42.775564 92.149 176.0569
43.085533 92.189 176.4111
43.397749 92.229 176.7516
43.712227 92.270 177.0752
44.028983 92.311 177.3793
44.348036 92.350 177.6619
44.669400 92.389 177.9225
44.993093 92.428 178.1624
45.319131 92.465 178.3840
45.647532 92.503 178.5901
45.978313 92.540 178.7834
46.311491 92.579 178.9653
46.647083 92.619 179.1364
46.985107 92.661 179.2964
47.325581 92.703 179.4445
47.668521 92.747 179.5801
48.013947 92.791 179.7029
48.361876 92.835 179.8123
48.712326 92.880 179.9080
49.065315 92.926 179.9886
49.420863 92.972 -179.9472
49.778987 93.020 -179.9011
50.139706 93.068 -179.8748
50.503039 93.118 -179.8688
50.869005 93.170 -179.8828
51.237623 93.221 -179.9152
51.608912 93.274 -179.9632
51.982891 93.327 179.9766
52.359580 93.380 179.9072
52.739000 93.433 179.8309
53.121168 93.487 179.7483
53.506106 93.541 179.6587
53.893833 93.596 179.5599
54.284370 93.650 179.4489
54.677737 93.705 179.3224
55.073955 93.759 179.1773
55.473043 93.812 179.0106
55.875024 93.863 178.8202
56.279917 93.913 178.6044
56.687745 93.962 178.3627
57.098527 94.010 178.0952
57.512287 94.057 177.8031
57.929045 94.105 177.4887
58.348822 94.154 177.1552
58.771642 94.206 176.8065
59.197525 94.259 176.4468
59.626495 94.316 176.0796
60.058573 94.376 175.7066
60.493782 94.439 175.3278
60.932145 94.505 174.9415
61.373685 94.573 174.5456
61.818424 94.642 174.1383
62.266386 94.711 173.7188
62.717593 94.779 173.2876
63.172071 94.846 172.8462
63.629842 94.911 172.3967
64.090930 94.974 171.9418
64.555359 95.035 171.4835
65.023154 95.094 171.0232
65.494339 95.150 170.5613
65.968938 95.205 170.0970
66.446976 95.257 169.6289
66.928478 95.307 169.1557
67.413469 95.354 168.6764
67.901975 95.398 168.1911
68.394021 95.439 167.7007
68.889632 95.477 167.2068
69.388835 95.511 166.7116
69.891655 95.542 166.2171
70.398118 95.568 165.7253
70.908252 95.590 165.2375
71.422083 95.609 164.7550
71.939636 95.623 164.2783
72.460941 95.633 163.8077
72.986023 95.640 163.3431
73.514909 95.643 162.8845
74.047629 95.642 162.4310
74.584208 95.638 161.9822
75.124676 95.630 161.5370
75.669061 95.620 161.0947
76.217390 95.607 160.6546
76.769692 95.591 160.2162
77.325997 95.573 159.7795
77.886333 95.553 159.3447
78.450730 95.530 158.9122
79.019216 95.506 158.4829
79.591822 95.481 158.0576
80.168577 95.453 157.6370
80.749512 95.424 157.2220
81.334656 95.394 156.8132
81.924040 95.362 156.4109
82.517696 95.330 156.0151
83.115653 95.296 155.6259
83.717943 95.262 155.2432
84.324598 95.226 154.8668
84.935649 95.190 154.4964
85.551128 95.153 154.1320
86.171066 95.116 153.7738
86.795497 95.078 153.4221
87.424453 95.039 153.0777
88.057967 95.000 152.7413
88.696071 94.961 152.4135
89.338800 94.921 152.0942
89.986185 94.882 151.7830
90.638262 94.842 151.4788
91.295065 94.803 151.1804
91.956626 94.764 150.8868
92.622982 94.726 150.5971
93.294166 94.687 150.3107
93.970214 94.650 150.0269
94.651161 94.613 149.7454
95.337042 94.576 149.4659
96.027894 94.539 149.1880
96.723752 94.503 148.9119
97.424652 94.467 148.6376
98.130631 94.432 148.3650
98.841726 94.398 148.0942
99.557974 94.364 147.8246
100.279412 94.332 147.5560
101.006078 94.301 147.2875
101.738010 94.270 147.0185
102.475245 94.241 146.7485
103.217823 94.214 146.4772
103.965782 94.188 146.2042
104.719161 94.163 145.9291
105.477999 94.139 145.6513
106.242336 94.117 145.3702
107.012212 94.096 145.0848
107.787666 94.077 144.7947
108.568740 94.058 144.4992
109.355474 94.040 144.1985
110.147909 94.023 143.8929
110.946086 94.006 143.5831
111.750047 93.990 143.2699
112.559834 93.973 142.9541
113.375489 93.956 142.6367
114.197055 93.938 142.3185
115.024574 93.921 142.0004
115.858089 93.902 141.6830
116.697645 93.883 141.3668
117.543284 93.864 141.0521
118.395051 93.843 140.7388
119.252990 93.822 140.4266
120.117147 93.799 140.1155
120.987565 93.776 139.8051
121.864291 93.751 139.4953
122.747370 93.724 139.1862
123.636848 93.696 138.8779
124.532771 93.667 138.5709
125.435187 93.636 138.2656
126.344142 93.603 137.9622
127.259684 93.568 137.6609
128.181860 93.531 137.3618
129.110718 93.492 137.0652
130.046308 93.452 136.7713
130.988677 93.409 136.4808
131.937875 93.365 136.1942
132.893951 93.318 135.9122
133.856956 93.270 135.6357
134.826938 93.220 135.3656
135.803950 93.169 135.1024
136.788041 93.117 134.8467
137.779264 93.064 134.5984
138.777669 93.009 134.3574
139.783309 92.953 134.1230
140.796237 92.896 133.8948
141.816504 92.837 133.6722
142.844165 92.777 133.4544
143.879273 92.716 133.2410
144.921881 92.653 133.0313
145.972045 92.590 132.8250
147.029819 92.525 132.6218
148.095257 92.460 132.4214
149.168417 92.394 132.2239
150.249353 92.328 132.0296
151.338121 92.262 131.8385
152.434780 92.196 131.6508
153.539385 92.130 131.4666
154.651995 92.064 131.2859
155.772667 91.999 131.1089
156.901460 91.933 130.9354
158.038432 91.868 130.7653
159.183644 91.803 130.5986
160.337154 91.737 130.4355
161.499023 91.671 130.2764
162.669312 91.606 130.1213
163.848081 91.540 129.9710
165.035392 91.473 129.8256
166.231306 91.407 129.6854
167.435887 91.340 129.5505
168.649196 91.272 129.4211
169.871298 91.204 129.2972
171.102255 91.136 129.1793
172.342133 91.067 129.0677
173.590995 90.998 128.9629
174.848907 90.928 128.8655
176.115934 90.858 128.7762
177.392143 90.788 128.6956
178.677599 90.717 128.6242
179.972371 90.647 128.5626
181.276525 90.575 128.5110
182.590129 90.504 128.4695
183.913252 90.432 128.4380
185.245964 90.360 128.4162
186.588332 90.288 128.4039
187.940428 90.215 128.4006
189.302322 90.142 128.4063
190.674085 90.068 128.4206
192.055788 89.995 128.4431
193.447503 89.921 128.4731
194.849303 89.848 128.5102
196.261262 89.774 128.5536
197.683452 89.701 128.6030
199.115948 89.628 128.6577
200.558824 89.556 128.7173
202.012156 89.484 128.7814
203.476019 89.413 128.8500
204.950490 89.342 128.9236
206.435646 89.272 129.0029
207.931564 89.203 129.0890
209.438322 89.135 129.1829
210.955998 89.067 129.2852
212.484672 89.002 129.3964
214.024424 88.937 129.5164
215.575333 88.874 129.6453
217.137481 88.812 129.7825
218.710948 88.752 129.9274
220.295818 88.694 130.0792
221.892172 88.638 130.2371
223.500094 88.584 130.4005
225.119668 88.532 130.5686
226.750978 88.482 130.7414
228.394109 88.434 130.9186
230.049147 88.389 131.1003
231.716178 88.346 131.2863
233.395289 88.305 131.4765
235.086567 88.266 131.6708
236.790102 88.230 131.8690
238.505980 88.196 132.0711
240.234293 88.164 132.2772
241.975130 88.135 132.4871
243.728581 88.108 132.7007
245.494739 88.082 132.9178
247.273695 88.059 133.1378
249.065542 88.037 133.3600
250.870374 88.017 133.5841
252.688284 87.998 133.8090
254.519367 87.981 134.0339
256.363720 87.965 134.2580
258.221437 87.949 134.4804
260.092616 87.934 134.7004
261.977354 87.920 134.9178
263.875750 87.906 135.1327
265.787903 87.893 135.3452
267.713911 87.881 135.5560
269.653877 87.869 135.7652
271.607900 87.857 135.9732
273.576083 87.847 136.1801
275.558528 87.837 136.3858
277.555338 87.829 136.5905
279.566619 87.821 136.7945
281.592474 87.815 136.9982
283.633009 87.810 137.2020
285.688331 87.806 137.4064
287.758546 87.803 137.6116
289.843763 87.801 137.8177
291.944090 87.801 138.0247
294.059638 87.802 138.2325
296.190515 87.804 138.4410
298.336833 87.808 138.6499
300.498705 87.813 138.8591
302.676243 87.819 139.0683
304.869559 87.827 139.2773
307.078770 87.835 139.4861
309.303989 87.845 139.6942
311.545334 87.857 139.9015
313.802919 87.869 140.1078
316.076865 87.883 140.3130
318.367288 87.898 140.5166
320.674309 87.913 140.7187
322.998047 87.930 140.9191
325.338624 87.947 141.1180
327.696162 87.965 141.3157
330.070783 87.984 141.5125
332.462612 88.002 141.7087
334.871773 88.021 141.9045
337.298392 88.040 142.0998
339.742595 88.059 142.2944
342.204510 88.079 142.4877
344.684265 88.098 142.6789
347.181989 88.118 142.8672
349.697813 88.137 143.0517
352.231868 88.157 143.2315
354.784285 88.178 143.4059
357.355198 88.198 143.5740
359.944741 88.219 143.7353
362.553049 88.240 143.8888
365.180258 88.262 144.0339
367.826505 88.284 144.1697
370.491927 88.307 144.2956
373.176665 88.330 144.4109
375.880856 88.354 144.5153
378.604644 88.379 144.6082
381.348169 88.404 144.6893
384.111575 88.429 144.7584
386.895006 88.455 144.8152
389.698607 88.482 144.8596
392.522524 88.508 144.8917
395.366904 88.534 144.9116
398.231895 88.559 144.9194
401.117648 88.584 144.9157
404.024312 88.608 144.9009
406.952038 88.631 144.8758
409.900981 88.653 144.8411
412.871292 88.673 144.7974
415.863128 88.691 144.7456
418.876643 88.708 144.6861
421.911996 88.723 144.6193
424.969344 88.736 144.5451
428.048847 88.747 144.4637
431.150666 88.755 144.3748
434.274961 88.763 144.2782
437.421897 88.768 144.1740
440.591636 88.771 144.0619
443.784345 88.772 143.9421
447.000189 88.772 143.8148
450.239337 88.770 143.6801
453.501956 88.767 143.5383
456.788219 88.762 143.3896
460.098294 88.756 143.2342
463.432356 88.750 143.0722
466.790578 88.742 142.9038
470.173135 88.734 142.7292
473.580203 88.725 142.5489
477.011961 88.716 142.3633
480.468586 88.706 142.1728
483.950259 88.696 141.9782
487.457163 88.686 141.7802
490.989478 88.676 141.5793
494.547390 88.665 141.3760
498.131084 88.655 141.1708
501.740748 88.644 140.9641
505.376568 88.634 140.7561
509.038735 88.624 140.5469
512.727439 88.614 140.3367
516.442874 88.605 140.1255
520.185232 88.596 139.9136
523.954708 88.588 139.7009
527.751500 88.581 139.4878
531.575805 88.575 139.2747
535.427822 88.569 139.0620
539.307753 88.565 138.8502
543.215800 88.561 138.6397
547.152165 88.558 138.4313
551.117055 88.555 138.2258
555.110677 88.554 138.0237
559.133237 88.553 137.8259
563.184947 88.552 137.6331
567.266018 88.552 137.4457
571.376661 88.552 137.2643
575.517092 88.552 137.0892
579.687526 88.552 136.9205
583.888181 88.552 136.7584
588.119275 88.551 136.6030
592.381030 88.550 136.4542
596.673667 88.549 136.3121
600.997410 88.547 136.1768
605.352485 88.544 136.0483
609.739119 88.540 135.9268
614.157540 88.535 135.8120
618.607979 88.530 135.7041
623.090667 88.523 135.6029
627.605839 88.516 135.5080
632.153730 88.508 135.4193
636.734576 88.499 135.3362
641.348617 88.489 135.2583
645.996094 88.478 135.1849
650.677248 88.467 135.1149
655.392323 88.455 135.0473
660.141566 88.443 134.9807
664.925224 88.430 134.9138
669.743546 88.417 134.8453
674.596784 88.404 134.7741
679.485191 88.390 134.6993
684.409020 88.375 134.6205
689.368530 88.359 134.5376
694.363979 88.343 134.4507
699.395626 88.325 134.3603
704.463736 88.305 134.2672
709.568570 88.284 134.1723
714.710396 88.262 134.0767
719.889483 88.237 133.9813
725.106099 88.211 133.8873
730.360516 88.182 133.7955
735.653010 88.152 133.7069
740.983855 88.120 133.6225
746.353329 88.086 133.5433
751.761713 88.050 133.4703
757.209288 88.013 133.4045
762.696339 87.974 133.3470
768.223151 87.934 133.2989
773.790013 87.893 133.2610
779.397214 87.851 133.2342
785.045047 87.809 133.2188
790.733808 87.767 133.2151
796.463791 87.727 133.2229
802.235296 87.688 133.2414
808.048623 87.652 133.2693
813.904077 87.619 133.3047
819.801961 87.590 133.3446
825.742584 87.566 133.3849
831.726255 87.547 133.4204
837.753287 87.533 133.4443
843.823992 87.526 133.4487
849.938689 87.524 133.4249
856.097695 87.527 133.3638
862.301332 87.534 133.2570
868.549922 87.543 133.0980
874.843793 87.552 132.8832
881.183272 87.559 132.6131
887.568689 87.562 132.2924
894.000378 87.559 131.9302
900.478673 87.549 131.5385
907.003913 87.531 131.1310
913.576437 87.504 130.7217
920.196588 87.470 130.3231
926.864712 87.429 129.9454
933.581156 87.383 129.5963
940.346270 87.334 129.2807
947.160407 87.281 129.0012
954.023921 87.228 128.7584
960.937172 87.174 128.5517
967.900519 87.121 128.3794
974.914325 87.071 128.2393
981.978956 87.022 128.1289
989.094780 86.975 128.0461
996.262169 86.932 127.9885
1003.481495 86.891 127.9544
1010.753136 86.853 127.9426
1018.077470 86.817 127.9522
1025.454879 86.784 127.9833
1032.885748 86.753 128.0367
1040.370463 86.724 128.1142
1047.909417 86.698 128.2184
1055.503000 86.673 128.3530
1063.151610 86.651 128.5226
1070.855645 86.631 128.7328
1078.615506 86.615 128.9897
1086.431599 86.603 129.2996
1094.304330 86.597 129.6681
1102.234110 86.599 130.0992
1110.221353 86.610 130.5943
1118.266475 86.635 131.1496
1126.369895 86.675 131.7556
1134.532035 86.733 132.3949
1142.753322 86.811 133.0420
1151.034184 86.909 133.6641
1159.375052 87.027 134.2236
1167.776361 87.162 134.6824
1176.238550 87.309 135.0073
1184.762060 87.463 135.1749
1193.347334 87.617 135.1756
1201.994821 87.766 135.0137
1210.704971 87.905 134.7061
1219.478238 88.030 134.2780
1228.315080 88.138 133.7588
1237.215957 88.229 133.1785
1246.181334 88.304 132.5646
1255.211678 88.364 131.9404
1264.307459 88.409 131.3250
1273.469152 88.443 130.7324
1282.697235 88.467 130.1724
1291.992188 88.483 129.6514
1301.354495 88.493 129.1726
1310.784647 88.498 128.7371
1320.283132 88.500 128.3441
1329.850448 88.500 127.9920
1339.487093 88.499 127.6784
1349.193569 88.497 127.4005
1358.970381 88.495 127.1551
1368.818041 88.494 126.9394
1378.737061 88.495 126.7502
1388.727958 88.497 126.5847
1398.791253 88.501 126.4400
1408.927471 88.507 126.3136
1419.137140 88.516 126.2031
1429.420793 88.528 126.1063
1439.778965 88.543 126.0214
1450.212197 88.560 125.9467
1460.721033 88.580 125.8808
1471.306019 88.603 125.8225
1481.967709 88.627 125.7709
1492.706658 88.654 125.7249
1503.523426 88.683 125.6840
1514.418576 88.712 125.6473
1525.392678 88.742 125.6144
1536.446302 88.773 125.5845
1547.580025 88.803 125.5573
1558.794428 88.832 125.5322
1570.090095 88.860 125.5089
1581.467615 88.886 125.4871
1592.927581 88.910 125.4665
1604.470591 88.931 125.4469
1616.097246 88.949 125.4281
1627.808153 88.965 125.4098
1639.603922 88.977 125.3919
1651.485168 88.986 125.3742
1663.452510 88.992 125.3564
1675.506573 88.995 125.3384
1687.647984 88.995 125.3200
1699.877377 88.992 125.3012
1712.195390 88.987 125.2818
1724.602663 88.978 125.2618
1737.099845 88.967 125.2413
1749.687587 88.954 125.2206
1762.366544 88.938 125.1997
1775.137379 88.920 125.1791
1788.000756 88.900 125.1593
1800.957346 88.877 125.1405
1814.007826 88.852 125.1234
1827.152874 88.824 125.1083
1840.393177 88.793 125.0961
1853.729425 88.760 125.0872
1867.162312 88.723 125.0823
1880.692540 88.683 125.0821
1894.320813 88.640 125.0874
1908.047843 88.593 125.0988
1921.874344 88.542 125.1172
1935.801038 88.488 125.1431
1949.828650 88.430 125.1772
1963.957912 88.369 125.2199
1978.189561 88.304 125.2715
1992.524338 88.236 125.3322
2006.962991 88.165 125.4016
2021.506272 88.091 125.4798
2036.154940 88.014 125.5665
2050.909758 87.935 125.6617
2065.771495 87.852 125.7658
2080.740927 87.768 125.8794
2095.818833 87.681 126.0037
2111.006001 87.592 126.1399
2126.303220 87.501 126.2897
2141.711290 87.410 126.4545
2157.231013 87.317 126.6357
2172.863198 87.223 126.8342
2188.608660 87.130 127.0507
2204.468221 87.037 127.2853
2220.442706 86.945 127.5379
2236.532950 86.854 127.8083
2252.739789 86.765 128.0961
2269.064070 86.677 128.4009
2285.506644 86.592 128.7225
2302.068367 86.509 129.0607
2318.750104 86.429 129.4152
2335.552723 86.352 129.7857
2352.477101 86.278 130.1721
2369.524119 86.208 130.5740
2386.694668 86.142 130.9908
2403.989641 86.080 131.4220
2421.409941 86.022 131.8668
2438.956476 85.970 132.3243
2456.630160 85.923 132.7934
2474.431915 85.882 133.2726
2492.362668 85.847 133.7607
2510.423356 85.818 134.2561
2528.614918 85.795 134.7571
2546.938304 85.779 135.2621
2565.394469 85.770 135.7697
2583.984375 85.767 136.2781
2602.708991 85.770 136.7862
2621.569293 85.780 137.2923
2640.566265 85.796 137.7951
2659.700897 85.818 138.2935
2678.974186 85.845 138.7865
2698.387137 85.877 139.2732
2717.940763 85.914 139.7533
2737.636082 85.954 140.2267
2757.474121 85.998 140.6937
2777.455915 86.045 141.1548
2797.582506 86.095 141.6109
2817.854942 86.147 142.0629
2838.274281 86.201 142.5120
2858.841586 86.256 142.9594
2879.557931 86.313 143.4065
2900.424394 86.370 143.8549
2921.442065 86.427 144.3064
2942.612039 86.483 144.7630
2963.935418 86.539 145.2267
2985.413316 86.594 145.6995
3007.046852 86.648 146.1834
3028.837153 86.700 146.6799
3050.785356 86.750 147.1901
3072.892604 86.798 147.7148
3095.160050 86.844 148.2543
3117.588856 86.887 148.8084
3140.180190 86.927 149.3765
3162.935230 86.965 149.9574
3185.855163 86.999 150.5498
3208.941182 87.031 151.1518
3232.194493 87.060 151.7615
3255.616307 87.085 152.3773
3279.207844 87.107 152.9979
3302.970336 87.126 153.6225
3326.905021 87.141 154.2510
3351.013146 87.154 154.8834
3375.295969 87.163 155.5200
3399.754755 87.170 156.1605
3424.390779 87.176 156.8046
3449.205326 87.181 157.4515
3474.199690 87.185 158.0997
3499.375173 87.189 158.7479
3524.733088 87.195 159.3944
3550.274757 87.202 160.0381
3576.001511 87.211 160.6781
3601.914692 87.222 161.3143
3628.015651 87.237 161.9468
3654.305748 87.255 162.5766
3680.786354 87.278 163.2043
