* Measurement data measured by REW V5.31.3
* Source: EXCL: Headset (USB-C to 3.5mm Headphone Jack Adapter), MICROPHONE (Master Volume), 0, volume: 0.260
* Format: 256k Log Swept Sine, 1 sweep at -12.0 dBFS with no timing reference
* Dated: Mar 5, 2025 11:00:43 AM
* REW Settings:
*  C-weighting compensation: Off
*  Target level: 75.0 dB
* Note: ; 
* Measurement: Ouroboros (glasses) L5
* Smoothing: 1/6 octave
* Frequency Step: 96 ppo
* Start Frequency: 20.0 Hz
*
* Freq(Hz) SPL(dB) Phase(degrees)
20.141602 89.597 -72.5440
20.287556 89.588 -72.7537
20.434568 89.576 -73.0322
20.582645 89.561 -73.3685
20.731796 89.545 -73.7513
20.882027 89.528 -74.1699
21.033346 89.510 -74.6152
21.185763 89.493 -75.0798
21.339284 89.477 -75.5581
21.493917 89.461 -76.0456
21.649671 89.446 -76.5391
21.806553 89.433 -77.0362
21.964572 89.421 -77.5349
22.123737 89.412 -78.0342
22.284054 89.404 -78.5335
22.445534 89.400 -79.0331
22.608183 89.398 -79.5343
22.772012 89.401 -80.0396
22.937027 89.408 -80.5526
23.103238 89.420 -81.0775
23.270654 89.436 -81.6190
23.439282 89.456 -82.1816
23.609133 89.480 -82.7684
23.780215 89.506 -83.3812
23.952536 89.533 -84.0195
24.126106 89.560 -84.6799
24.300934 89.585 -85.3566
24.477028 89.608 -86.0415
24.654399 89.628 -86.7245
24.833055 89.644 -87.3949
25.013005 89.657 -88.0417
25.194260 89.668 -88.6552
25.376828 89.678 -89.2278
25.560719 89.688 -89.7546
25.745942 89.702 -90.2341
25.932508 89.719 -90.6684
26.120426 89.743 -91.0629
26.309705 89.774 -91.4255
26.500356 89.813 -91.7661
26.692388 89.859 -92.0951
26.885812 89.913 -92.4228
27.080638 89.973 -92.7584
27.276876 90.038 -93.1094
27.474535 90.105 -93.4816
27.673627 90.174 -93.8791
27.874161 90.243 -94.3049
28.076149 90.308 -94.7611
28.279600 90.370 -95.2498
28.484526 90.426 -95.7733
28.690937 90.476 -96.3338
28.898843 90.517 -96.9340
29.108256 90.550 -97.5757
29.319186 90.574 -98.2599
29.531645 90.588 -98.9854
29.745644 90.591 -99.7486
29.961193 90.586 -100.5427
30.178304 90.571 -101.3581
30.396989 90.548 -102.1824
30.617258 90.520 -103.0015
30.839123 90.488 -103.8007
31.062596 90.453 -104.5662
31.287688 90.420 -105.2865
31.514412 90.390 -105.9533
31.742778 90.364 -106.5627
31.972800 90.345 -107.1148
32.204488 90.333 -107.6135
32.437855 90.327 -108.0657
32.672913 90.328 -108.4797
32.909674 90.335 -108.8646
33.148151 90.346 -109.2291
33.388356 90.361 -109.5806
33.630302 90.379 -109.9254
33.874001 90.398 -110.2683
34.119466 90.420 -110.6130
34.366710 90.443 -110.9621
34.615745 90.468 -111.3171
34.866585 90.495 -111.6789
35.119243 90.523 -112.0474
35.373731 90.550 -112.4217
35.630064 90.577 -112.8000
35.888254 90.602 -113.1801
36.148315 90.624 -113.5594
36.410261 90.641 -113.9354
36.674104 90.652 -114.3063
36.939860 90.657 -114.6710
37.207542 90.656 -115.0295
37.477163 90.649 -115.3829
37.748738 90.636 -115.7330
38.022281 90.619 -116.0820
38.297806 90.598 -116.4321
38.575327 90.576 -116.7846
38.854860 90.551 -117.1403
39.136419 90.527 -117.4986
39.420017 90.503 -117.8579
39.705671 90.481 -118.2160
39.993395 90.461 -118.5697
40.283203 90.443 -118.9155
40.575112 90.428 -119.2497
40.869136 90.415 -119.5685
41.165290 90.405 -119.8684
41.463591 90.398 -120.1462
41.764053 90.393 -120.3999
42.066693 90.392 -120.6281
42.371525 90.394 -120.8308
42.678567 90.401 -121.0092
42.987834 90.411 -121.1653
43.299341 90.426 -121.3016
43.613106 90.445 -121.4213
43.929145 90.468 -121.5282
44.247473 90.493 -121.6264
44.568109 90.520 -121.7204
44.891068 90.547 -121.8154
45.216367 90.573 -121.9162
45.544023 90.595 -122.0275
45.874054 90.615 -122.1537
46.206476 90.630 -122.2982
46.541307 90.642 -122.4640
46.878565 90.651 -122.6528
47.218266 90.659 -122.8652
47.560429 90.668 -123.1000
47.905072 90.680 -123.3542
48.252212 90.696 -123.6229
48.601867 90.718 -123.8999
48.954056 90.747 -124.1794
49.308798 90.782 -124.4561
49.666109 90.823 -124.7269
50.026010 90.868 -124.9906
50.388520 90.915 -125.2481
50.753656 90.963 -125.5018
51.121437 91.009 -125.7546
51.491884 91.052 -126.0093
51.865016 91.093 -126.2681
52.240851 91.130 -126.5318
52.619410 91.164 -126.7996
53.000712 91.197 -127.0692
53.384777 91.228 -127.3372
53.771625 91.259 -127.5999
54.161276 91.289 -127.8538
54.553751 91.319 -128.0969
54.949070 91.349 -128.3290
55.347254 91.378 -128.5524
55.748323 91.408 -128.7710
56.152298 91.438 -128.9898
56.559201 91.470 -129.2133
56.969052 91.505 -129.4442
57.381873 91.543 -129.6829
57.797686 91.586 -129.9272
58.216512 91.632 -130.1736
58.638373 91.680 -130.4176
59.063291 91.728 -130.6552
59.491288 91.774 -130.8833
59.922386 91.817 -131.1003
60.356608 91.854 -131.3062
60.793977 91.885 -131.5035
61.234515 91.910 -131.6963
61.678246 91.933 -131.8899
62.125192 91.952 -132.0888
62.575377 91.971 -132.2960
63.028824 91.990 -132.5126
63.485557 92.010 -132.7378
63.945599 92.030 -132.9701
64.408975 92.051 -133.2084
64.875709 92.074 -133.4520
65.345825 92.096 -133.7007
65.819348 92.119 -133.9550
66.296302 92.143 -134.2150
66.776713 92.167 -134.4809
67.260604 92.192 -134.7525
67.748002 92.218 -135.0299
68.238932 92.245 -135.3131
68.733420 92.272 -135.6025
69.231490 92.299 -135.8986
69.733170 92.328 -136.2014
70.238485 92.356 -136.5108
70.747463 92.385 -136.8264
71.260128 92.413 -137.1473
71.776508 92.442 -137.4732
72.296630 92.470 -137.8037
72.820521 92.499 -138.1382
73.348209 92.527 -138.4761
73.879720 92.555 -138.8167
74.415083 92.583 -139.1592
74.954326 92.610 -139.5027
75.497475 92.637 -139.8466
76.044561 92.664 -140.1904
76.595612 92.691 -140.5334
77.150655 92.716 -140.8752
77.709720 92.741 -141.2154
78.272837 92.764 -141.5535
78.840034 92.786 -141.8892
79.411342 92.807 -142.2222
79.986789 92.827 -142.5520
80.566406 92.845 -142.8787
81.150224 92.862 -143.2019
81.738272 92.877 -143.5215
82.330581 92.891 -143.8372
82.927182 92.905 -144.1489
83.528107 92.917 -144.4566
84.133386 92.929 -144.7604
84.743051 92.941 -145.0601
85.357134 92.954 -145.3553
85.975667 92.968 -145.6456
86.598682 92.982 -145.9309
87.226212 92.998 -146.2110
87.858289 93.014 -146.4863
88.494946 93.032 -146.7574
89.136217 93.050 -147.0255
89.782135 93.069 -147.2916
90.432733 93.089 -147.5570
91.088046 93.110 -147.8227
91.748108 93.132 -148.0895
92.412952 93.155 -148.3578
93.082615 93.178 -148.6279
93.757130 93.202 -148.9001
94.436533 93.226 -149.1746
95.120859 93.248 -149.4512
95.810144 93.270 -149.7297
96.504423 93.290 -150.0095
97.203734 93.309 -150.2901
97.908112 93.325 -150.5712
98.617595 93.340 -150.8527
99.332219 93.353 -151.1348
100.052021 93.365 -151.4178
100.777039 93.376 -151.7018
101.507311 93.385 -151.9868
102.242875 93.394 -152.2726
102.983769 93.403 -152.5586
103.730032 93.412 -152.8442
104.481702 93.422 -153.1289
105.238820 93.432 -153.4125
106.001424 93.444 -153.6949
106.769554 93.456 -153.9767
107.543250 93.468 -154.2586
108.322553 93.482 -154.5413
109.107503 93.496 -154.8256
109.898141 93.510 -155.1116
110.694508 93.525 -155.3994
111.496646 93.540 -155.6886
112.304596 93.554 -155.9786
113.118402 93.569 -156.2689
113.938104 93.583 -156.5589
114.763747 93.596 -156.8486
115.595372 93.608 -157.1379
116.433024 93.618 -157.4273
117.276746 93.627 -157.7175
118.126581 93.634 -158.0096
118.982575 93.639 -158.3053
119.844772 93.642 -158.6056
120.713217 93.644 -158.9113
121.587954 93.644 -159.2219
122.469031 93.644 -159.5366
123.356492 93.643 -159.8538
124.250384 93.642 -160.1720
125.150753 93.642 -160.4895
126.057647 93.643 -160.8053
126.971113 93.646 -161.1185
127.891198 93.650 -161.4285
128.817950 93.657 -161.7351
129.751418 93.666 -162.0382
130.691651 93.676 -162.3373
131.638696 93.687 -162.6322
132.592604 93.699 -162.9222
133.553425 93.712 -163.2072
134.521208 93.724 -163.4873
135.496004 93.736 -163.7629
136.477864 93.747 -164.0350
137.466839 93.757 -164.3046
138.462981 93.766 -164.5724
139.466340 93.772 -164.8390
140.476971 93.776 -165.1044
141.494925 93.777 -165.3686
142.520256 93.776 -165.6311
143.553016 93.772 -165.8920
144.593260 93.765 -166.1512
145.641043 93.757 -166.4094
146.696418 93.746 -166.6677
147.759441 93.735 -166.9275
148.830166 93.723 -167.1902
149.908651 93.711 -167.4572
150.994951 93.699 -167.7290
152.089123 93.687 -168.0047
153.191223 93.676 -168.2827
154.301310 93.666 -168.5605
155.419441 93.657 -168.8360
156.545674 93.649 -169.1076
157.680069 93.641 -169.3749
158.822683 93.634 -169.6380
159.973578 93.628 -169.8975
161.132813 93.622 -170.1538
162.300447 93.615 -170.4072
163.476543 93.609 -170.6577
164.661162 93.601 -170.9054
165.854364 93.594 -171.1503
167.056213 93.585 -171.3927
168.266772 93.575 -171.6330
169.486102 93.565 -171.8711
170.714268 93.553 -172.1068
171.951334 93.539 -172.3396
173.197364 93.525 -172.5691
174.452424 93.509 -172.7950
175.716578 93.491 -173.0170
176.989893 93.473 -173.2349
178.272434 93.453 -173.4484
179.564270 93.433 -173.6573
180.865467 93.411 -173.8617
182.176092 93.388 -174.0619
183.496216 93.364 -174.2585
184.825905 93.339 -174.4520
186.165229 93.312 -174.6431
187.514259 93.283 -174.8324
188.873065 93.253 -175.0204
190.241717 93.221 -175.2072
191.620287 93.187 -175.3926
193.008847 93.152 -175.5763
194.407468 93.113 -175.7579
195.816225 93.073 -175.9367
197.235190 93.031 -176.1120
198.664438 92.986 -176.2830
200.104042 92.940 -176.4489
201.554078 92.892 -176.6090
203.014622 92.843 -176.7629
204.485750 92.794 -176.9100
205.967538 92.745 -177.0502
207.460064 92.697 -177.1832
208.963405 92.651 -177.3092
210.477640 92.608 -177.4282
212.002848 92.568 -177.5406
213.539108 92.533 -177.6465
215.086500 92.501 -177.7462
216.645105 92.475 -177.8396
218.215005 92.454 -177.9270
219.796281 92.438 -178.0085
221.389015 92.426 -178.0848
222.993292 92.420 -178.1565
224.609193 92.417 -178.2241
226.236804 92.419 -178.2883
227.876209 92.423 -178.3495
229.527494 92.431 -178.4078
231.190745 92.440 -178.4630
232.866048 92.453 -178.5148
234.553491 92.467 -178.5626
236.253163 92.482 -178.6058
237.965150 92.498 -178.6441
239.689544 92.516 -178.6773
241.426433 92.534 -178.7053
243.175909 92.552 -178.7286
244.938062 92.569 -178.7478
246.712984 92.587 -178.7640
248.500768 92.604 -178.7786
250.301507 92.621 -178.7930
252.115295 92.638 -178.8084
253.942226 92.654 -178.8259
255.782396 92.670 -178.8459
257.635901 92.686 -178.8686
259.502837 92.701 -178.8942
261.383301 92.717 -178.9228
263.277392 92.732 -178.9544
265.185209 92.746 -178.9890
267.106850 92.760 -179.0263
269.042417 92.773 -179.0656
270.992009 92.783 -179.1057
272.955729 92.792 -179.1453
274.933678 92.798 -179.1832
276.925961 92.801 -179.2188
278.932681 92.801 -179.2518
280.953942 92.797 -179.2823
282.989850 92.788 -179.3103
285.040511 92.775 -179.3356
287.106032 92.758 -179.3579
289.186521 92.735 -179.3769
291.282086 92.709 -179.3925
293.392836 92.678 -179.4051
295.518881 92.643 -179.4156
297.660333 92.606 -179.4252
299.817302 92.566 -179.4348
301.989902 92.525 -179.4455
304.178245 92.482 -179.4580
306.382446 92.440 -179.4724
308.602620 92.398 -179.4892
310.838882 92.357 -179.5082
313.091348 92.318 -179.5297
315.360137 92.282 -179.5539
317.645367 92.249 -179.5809
319.947156 92.219 -179.6110
322.265625 92.194 -179.6442
324.600895 92.172 -179.6805
326.953086 92.156 -179.7197
329.322323 92.144 -179.7617
331.708729 92.138 -179.8060
334.112427 92.136 -179.8523
336.533543 92.140 -179.9000
338.972204 92.148 -179.9485
341.428536 92.162 -179.9973
343.902668 92.181 179.9543
346.394729 92.204 179.9067
348.904848 92.231 179.8601
351.433156 92.261 179.8147
353.979786 92.293 179.7705
356.544869 92.327 179.7279
359.128540 92.361 179.6869
361.730934 92.395 179.6476
364.352185 92.427 179.6100
366.992431 92.456 179.5742
369.651810 92.482 179.5400
372.330459 92.503 179.5076
375.028519 92.521 179.4771
377.746130 92.533 179.4491
380.483434 92.540 179.4242
383.240574 92.543 179.4028
386.017693 92.540 179.3852
388.814937 92.534 179.3714
391.632450 92.525 179.3614
394.470380 92.512 179.3550
397.328875 92.499 179.3521
400.208084 92.485 179.3525
403.108157 92.472 179.3561
406.029245 92.461 179.3630
408.971500 92.453 179.3730
411.935076 92.450 179.3860
414.920127 92.452 179.4014
417.926810 92.460 179.4185
420.955280 92.473 179.4360
424.005695 92.492 179.4529
427.078215 92.517 179.4677
430.173000 92.547 179.4790
433.290211 92.582 179.4852
436.430010 92.619 179.4847
439.592562 92.659 179.4762
442.778031 92.699 179.4582
445.986583 92.740 179.4294
449.218386 92.780 179.3883
452.473607 92.818 179.3337
455.752418 92.855 179.2644
459.054987 92.889 179.1794
462.381489 92.920 179.0780
465.732096 92.949 178.9600
469.106983 92.976 178.8256
472.506325 93.000 178.6751
475.930301 93.022 178.5094
479.379088 93.042 178.3293
482.852867 93.059 178.1363
486.351817 93.075 177.9314
489.876123 93.090 177.7163
493.425968 93.103 177.4922
497.001536 93.115 177.2604
500.603014 93.128 177.0222
504.230589 93.141 176.7784
507.884452 93.155 176.5302
511.564792 93.171 176.2784
515.271802 93.191 176.0239
519.005673 93.214 175.7677
522.766602 93.241 175.5108
526.554785 93.272 175.2542
530.370418 93.308 174.9986
534.213700 93.347 174.7450
538.084833 93.390 174.4940
541.984018 93.434 174.2462
545.911457 93.479 174.0023
549.867357 93.524 173.7632
553.851922 93.566 173.5297
557.865362 93.606 173.3023
561.907884 93.640 173.0819
565.979700 93.668 172.8689
570.081022 93.690 172.6638
574.212064 93.703 172.4670
578.373042 93.708 172.2787
582.564171 93.704 172.0991
586.785671 93.690 171.9282
591.037762 93.665 171.7661
595.320665 93.631 171.6124
599.634604 93.586 171.4672
603.979804 93.531 171.3300
608.356491 93.467 171.2006
612.764893 93.394 171.0787
617.205240 93.315 170.9642
621.677763 93.231 170.8570
626.182696 93.144 170.7572
630.720274 93.054 170.6649
635.290733 92.966 170.5803
639.894312 92.880 170.5035
644.531250 92.798 170.4342
649.201789 92.723 170.3721
653.906173 92.655 170.3162
658.644647 92.596 170.2653
663.417457 92.546 170.2175
668.224854 92.507 170.1704
673.067086 92.479 170.1215
677.944408 92.461 170.0682
682.857073 92.455 170.0082
687.805336 92.458 169.9395
692.789457 92.471 169.8607
697.809695 92.492 169.7706
702.866312 92.521 169.6688
707.959571 92.555 169.5552
713.089738 92.594 169.4298
718.257080 92.635 169.2934
723.461867 92.676 169.1466
728.704370 92.716 168.9904
733.984862 92.753 168.8259
739.303619 92.787 168.6539
744.660918 92.815 168.4758
750.057038 92.838 168.2928
755.492260 92.855 168.1060
760.966869 92.867 167.9169
766.481148 92.873 167.7272
772.035387 92.874 167.5387
777.629873 92.870 167.3535
783.264900 92.861 167.1736
788.940760 92.847 167.0014
794.657750 92.829 166.8391
800.416168 92.805 166.6890
806.216313 92.775 166.5530
812.058489 92.739 166.4325
817.943000 92.696 166.3284
823.870152 92.646 166.2408
829.840255 92.590 166.1691
835.853619 92.528 166.1113
841.910559 92.463 166.0642
848.011390 92.396 166.0231
854.156430 92.330 165.9819
860.346000 92.268 165.9326
866.580422 92.211 165.8664
872.860020 92.163 165.7740
879.185124 92.123 165.6468
885.556062 92.095 165.4777
891.973166 92.076 165.2624
898.436771 92.065 165.0005
904.947215 92.062 164.6956
911.504835 92.064 164.3552
918.109975 92.068 163.9897
924.762978 92.073 163.6113
931.464192 92.077 163.2322
938.213966 92.079 162.8635
945.012651 92.077 162.5145
951.860602 92.073 162.1920
958.758176 92.064 161.9004
965.705733 92.051 161.6422
972.703635 92.034 161.4179
979.752246 92.013 161.2272
986.851935 91.988 161.0690
994.003071 91.960 160.9418
1001.206027 91.929 160.8439
1008.461179 91.897 160.7741
1015.768904 91.864 160.7313
1023.129584 91.831 160.7148
1030.543603 91.799 160.7247
1038.011347 91.770 160.7616
1045.533205 91.745 160.8268
1053.109569 91.724 160.9225
1060.740836 91.709 161.0517
1068.427401 91.700 161.2183
1076.169666 91.697 161.4268
1083.968035 91.700 161.6820
1091.822915 91.711 161.9888
1099.734713 91.728 162.3513
1107.703844 91.753 162.7718
1115.730723 91.786 163.2500
1123.815768 91.828 163.7808
1131.959400 91.880 164.3535
1140.162045 91.945 164.9499
1148.424129 92.024 165.5443
1156.746083 92.117 166.1046
1165.128342 92.223 166.5948
1173.571343 92.342 166.9792
1182.075524 92.469 167.2279
1190.641331 92.602 167.3214
1199.269209 92.734 167.2532
1207.959608 92.862 167.0308
1216.712981 92.982 166.6729
1225.529785 93.091 166.2059
1234.410479 93.189 165.6596
1243.355526 93.274 165.0634
1252.365393 93.348 164.4434
1261.440549 93.412 163.8215
1270.581467 93.467 163.2145
1279.788624 93.516 162.6346
1289.062500 93.559 162.0893
1298.403578 93.597 161.5831
1307.812346 93.632 161.1176
1317.289293 93.664 160.6925
1326.834914 93.693 160.3063
1336.449707 93.719 159.9568
1346.134173 93.742 159.6412
1355.888816 93.762 159.3565
1365.714145 93.780 159.0998
1375.610673 93.794 158.8681
1385.578915 93.804 158.6588
1395.619391 93.812 158.4692
1405.732624 93.816 158.2969
1415.919142 93.817 158.1399
1426.179476 93.815 157.9960
1436.514160 93.810 157.8636
1446.923734 93.803 157.7410
1457.408740 93.794 157.6270
1467.969724 93.783 157.5201
1478.607238 93.771 157.4194
1489.321836 93.756 157.3242
1500.114076 93.740 157.2334
1510.984521 93.722 157.1467
1521.933737 93.701 157.0633
1532.962297 93.677 156.9828
1544.070773 93.651 156.9048
1555.259747 93.622 156.8290
1566.529800 93.589 156.7549
1577.881521 93.555 156.6823
1589.315501 93.518 156.6107
1600.832336 93.479 156.5399
1612.432627 93.439 156.4694
1624.116978 93.398 156.3989
1635.886000 93.357 156.3281
1647.740304 93.315 156.2570
1659.680509 93.274 156.1852
1671.707238 93.233 156.1127
1683.821118 93.192 156.0396
1696.022780 93.150 155.9657
1708.312860 93.108 155.8911
1720.692000 93.066 155.8157
1733.160843 93.023 155.7397
1745.720041 92.980 155.6631
1758.370248 92.938 155.5860
1771.112124 92.896 155.5085
1783.946332 92.856 155.4308
1796.873543 92.816 155.3531
1809.894429 92.779 155.2756
1823.009670 92.742 155.1989
1836.219950 92.707 155.1234
1849.525956 92.672 155.0495
1862.928384 92.637 154.9780
1876.427931 92.601 154.9094
1890.025301 92.563 154.8443
1903.721204 92.522 154.7835
1917.516352 92.478 154.7276
1931.411466 92.431 154.6775
1945.407270 92.379 154.6339
1959.504493 92.323 154.5974
1973.703870 92.263 154.5690
1988.006142 92.200 154.5490
2002.412054 92.134 154.5377
2016.922357 92.066 154.5352
2031.537808 91.996 154.5413
2046.259169 91.926 154.5554
2061.087206 91.856 154.5769
2076.022694 91.788 154.6051
2091.066410 91.722 154.6397
2106.219139 91.657 154.6807
2121.481671 91.596 154.7287
2136.854802 91.538 154.7847
2152.339333 91.484 154.8505
2167.936071 91.434 154.9276
2183.645829 91.389 155.0181
2199.469427 91.349 155.1232
2215.407689 91.315 155.2440
2231.461446 91.287 155.3810
2247.631536 91.266 155.5340
2263.918800 91.252 155.7028
2280.324089 91.246 155.8868
2296.848258 91.247 156.0856
2313.492167 91.255 156.2991
2330.256685 91.270 156.5271
2347.142685 91.292 156.7699
2364.151049 91.319 157.0276
2381.282662 91.352 157.3006
2398.538418 91.389 157.5890
2415.919216 91.430 157.8929
2433.425962 91.474 158.2123
2451.059570 91.520 158.5470
2468.820958 91.567 158.8964
2486.711052 91.615 159.2593
2504.730786 91.663 159.6344
2522.881098 91.710 160.0199
2541.162934 91.756 160.4136
2559.577248 91.799 160.8134
2578.125000 91.839 161.2171
2596.807157 91.876 161.6227
2615.624692 91.909 162.0285
2634.578586 91.937 162.4333
2653.669829 91.960 162.8359
2672.899414 91.978 163.2358
2692.268345 91.990 163.6324
2711.777632 91.997 164.0253
2731.428290 91.999 164.4142
2751.221345 91.995 164.7988
2771.157829 91.986 165.1787
2791.238781 91.972 165.5540
2811.465248 91.952 165.9246
2831.838284 91.928 166.2908
2852.358952 91.900 166.6530
2873.028321 91.866 167.0119
2893.847468 91.829 167.3683
2914.817480 91.787 167.7235
2935.939449 91.741 168.0789
2957.214476 91.691 168.4365
2978.643672 91.638 168.7983
3000.228152 91.582 169.1669
3021.969041 91.523 169.5447
3043.867475 91.461 169.9342
3065.924593 91.398 170.3373
3088.141547 91.334 170.7557
3110.519493 91.271 171.1906
3133.059600 91.207 171.6425
3155.763041 91.145 172.1116
3178.631001 91.085 172.5977
3201.664672 91.028 173.1001
3224.865254 90.974 173.6175
3248.233957 90.924 174.1484
3271.771999 90.879 174.6908
3295.480608 90.839 175.2428
3319.361019 90.805 175.8024
3343.414477 90.777 176.3680
3367.642236 90.756 176.9383
3392.045560 90.743 177.5125
