* Measurement data measured by REW V5.31.3
* Source: EXCL: Headset (USB-C to 3.5mm Headphone Jack Adapter), MICROPHONE (Master Volume), 0, volume: 0.260
* Format: 256k Log Swept Sine, 1 sweep at -12.0 dBFS with no timing reference
* Dated: Mar 5, 2025 10:56:26 AM
* REW Settings:
*  C-weighting compensation: Off
*  Target level: 75.0 dB
* Note: ; 
* Measurement: Ouroboros Reprint R4
* Smoothing: 1/6 octave
* Frequency Step: 96 ppo
* Start Frequency: 20.0 Hz
*
* Freq(Hz) SPL(dB) Phase(degrees)
20.141602 98.817 -119.3346
20.287556 98.794 -119.5304
20.434568 98.762 -119.7908
20.582645 98.724 -120.1053
20.731796 98.681 -120.4625
20.882027 98.634 -120.8516
21.033346 98.585 -121.2627
21.185763 98.536 -121.6882
21.339284 98.489 -122.1225
21.493917 98.443 -122.5622
21.649671 98.402 -123.0064
21.806553 98.364 -123.4561
21.964572 98.332 -123.9138
22.123737 98.304 -124.3829
22.284054 98.280 -124.8672
22.445534 98.259 -125.3698
22.608183 98.240 -125.8931
22.772012 98.221 -126.4375
22.937027 98.201 -127.0018
23.103238 98.179 -127.5826
23.270654 98.154 -128.1745
23.439282 98.124 -128.7706
23.609133 98.089 -129.3631
23.780215 98.050 -129.9441
23.952536 98.007 -130.5068
24.126106 97.962 -131.0459
24.300934 97.916 -131.5589
24.477028 97.872 -132.0460
24.654399 97.830 -132.5111
24.833055 97.792 -132.9606
25.013005 97.759 -133.4028
25.194260 97.732 -133.8472
25.376828 97.709 -134.3021
25.560719 97.690 -134.7742
25.745942 97.674 -135.2668
25.932508 97.657 -135.7798
26.120426 97.639 -136.3087
26.309705 97.618 -136.8459
26.500356 97.593 -137.3810
26.692388 97.564 -137.9027
26.885812 97.530 -138.3997
27.080638 97.494 -138.8625
27.276876 97.456 -139.2851
27.474535 97.419 -139.6657
27.673627 97.385 -140.0075
27.874161 97.356 -140.3185
28.076149 97.333 -140.6107
28.279600 97.316 -140.8990
28.484526 97.307 -141.1992
28.690937 97.302 -141.5262
28.898843 97.301 -141.8920
29.108256 97.301 -142.3046
29.319186 97.300 -142.7673
29.531645 97.294 -143.2785
29.745644 97.281 -143.8324
29.961193 97.260 -144.4194
30.178304 97.229 -145.0279
30.396989 97.188 -145.6452
30.617258 97.136 -146.2587
30.839123 97.075 -146.8568
31.062596 97.006 -147.4298
31.287688 96.930 -147.9706
31.514412 96.850 -148.4742
31.742778 96.768 -148.9384
31.972800 96.687 -149.3627
32.204488 96.608 -149.7481
32.437855 96.534 -150.0964
32.672913 96.466 -150.4092
32.909674 96.407 -150.6880
33.148151 96.356 -150.9333
33.388356 96.314 -151.1451
33.630302 96.282 -151.3225
33.874001 96.258 -151.4648
34.119466 96.242 -151.5713
34.366710 96.234 -151.6423
34.615745 96.231 -151.6791
34.866585 96.232 -151.6842
35.119243 96.235 -151.6615
35.373731 96.239 -151.6156
35.630064 96.241 -151.5520
35.888254 96.242 -151.4764
36.148315 96.239 -151.3942
36.410261 96.232 -151.3105
36.674104 96.220 -151.2295
36.939860 96.203 -151.1543
37.207542 96.182 -151.0871
37.477163 96.157 -151.0290
37.748738 96.128 -150.9799
38.022281 96.096 -150.9394
38.297806 96.063 -150.9062
38.575327 96.028 -150.8787
38.854860 95.993 -150.8553
39.136419 95.958 -150.8343
39.420017 95.922 -150.8145
39.705671 95.888 -150.7946
39.993395 95.855 -150.7744
40.283203 95.822 -150.7540
40.575112 95.792 -150.7340
40.869136 95.763 -150.7155
41.165290 95.736 -150.6997
41.463591 95.712 -150.6877
41.764053 95.690 -150.6800
42.066693 95.670 -150.6772
42.371525 95.654 -150.6798
42.678567 95.641 -150.6886
42.987834 95.632 -150.7053
43.299341 95.628 -150.7323
43.613106 95.629 -150.7728
43.929145 95.635 -150.8306
44.247473 95.646 -150.9090
44.568109 95.662 -151.0111
44.891068 95.683 -151.1387
45.216367 95.709 -151.2924
45.544023 95.739 -151.4714
45.874054 95.774 -151.6740
46.206476 95.812 -151.8974
46.541307 95.855 -152.1382
46.878565 95.902 -152.3926
47.218266 95.953 -152.6564
47.560429 96.008 -152.9255
47.905072 96.067 -153.1957
48.252212 96.129 -153.4635
48.601867 96.193 -153.7257
48.954056 96.259 -153.9799
49.308798 96.326 -154.2246
49.666109 96.394 -154.4589
50.026010 96.460 -154.6826
50.388520 96.524 -154.8966
50.753656 96.585 -155.1025
51.121437 96.643 -155.3030
51.491884 96.697 -155.5023
51.865016 96.748 -155.7055
52.240851 96.794 -155.9184
52.619410 96.837 -156.1467
53.000712 96.876 -156.3945
53.384777 96.912 -156.6640
53.771625 96.945 -156.9547
54.161276 96.976 -157.2640
54.553751 97.005 -157.5882
54.949070 97.033 -157.9227
55.347254 97.059 -158.2639
55.748323 97.083 -158.6089
56.152298 97.105 -158.9562
56.559201 97.125 -159.3054
56.969052 97.143 -159.6570
57.381873 97.158 -160.0121
57.797686 97.172 -160.3720
58.216512 97.186 -160.7370
58.638373 97.199 -161.1062
59.063291 97.213 -161.4766
59.491288 97.229 -161.8441
59.922386 97.248 -162.2040
60.356608 97.269 -162.5530
60.793977 97.294 -162.8900
61.234515 97.322 -163.2169
61.678246 97.352 -163.5375
62.125192 97.384 -163.8566
62.575377 97.416 -164.1790
63.028824 97.447 -164.5083
63.485557 97.478 -164.8469
63.945599 97.507 -165.1960
64.408975 97.533 -165.5561
64.875709 97.558 -165.9273
65.345825 97.580 -166.3092
65.819348 97.599 -166.7014
66.296302 97.617 -167.1034
66.776713 97.632 -167.5143
67.260604 97.646 -167.9335
67.748002 97.658 -168.3600
68.238932 97.670 -168.7928
68.733420 97.680 -169.2312
69.231490 97.689 -169.6747
69.733170 97.697 -170.1228
70.238485 97.704 -170.5754
70.747463 97.710 -171.0323
71.260128 97.715 -171.4932
71.776508 97.719 -171.9579
72.296630 97.721 -172.4263
72.820521 97.723 -172.8981
73.348209 97.722 -173.3728
73.879720 97.720 -173.8496
74.415083 97.717 -174.3276
74.954326 97.711 -174.8056
75.497475 97.704 -175.2824
76.044561 97.695 -175.7567
76.595612 97.685 -176.2272
77.150655 97.673 -176.6926
77.709720 97.660 -177.1515
78.272837 97.646 -177.6028
78.840034 97.630 -178.0456
79.411342 97.614 -178.4794
79.986789 97.597 -178.9036
80.566406 97.579 -179.3185
81.150224 97.560 -179.7242
81.738272 97.540 179.8788
82.330581 97.520 179.4897
82.927182 97.498 179.1078
83.528107 97.476 178.7327
84.133386 97.454 178.3636
84.743051 97.432 178.0003
85.357134 97.410 177.6426
85.975667 97.390 177.2903
86.598682 97.370 176.9429
87.226212 97.351 176.5997
87.858289 97.334 176.2599
88.494946 97.318 175.9225
89.136217 97.303 175.5866
89.782135 97.290 175.2514
90.432733 97.278 174.9165
91.088046 97.267 174.5815
91.748108 97.257 174.2462
92.412952 97.248 173.9107
93.082615 97.239 173.5746
93.757130 97.229 173.2379
94.436533 97.219 172.9003
95.120859 97.208 172.5612
95.810144 97.195 172.2204
96.504423 97.180 171.8771
97.203734 97.162 171.5309
97.908112 97.143 171.1812
98.617595 97.121 170.8277
99.332219 97.096 170.4703
100.052021 97.069 170.1088
100.777039 97.040 169.7435
101.507311 97.009 169.3747
102.242875 96.976 169.0026
102.983769 96.942 168.6271
103.730032 96.907 168.2483
104.481702 96.872 167.8662
105.238820 96.836 167.4811
106.001424 96.801 167.0935
106.769554 96.765 166.7043
107.543250 96.731 166.3151
108.322553 96.696 165.9272
109.107503 96.663 165.5424
109.898141 96.629 165.1624
110.694508 96.596 164.7883
111.496646 96.563 164.4214
112.304596 96.530 164.0626
113.118402 96.496 163.7127
113.938104 96.461 163.3717
114.763747 96.425 163.0391
115.595372 96.387 162.7140
116.433024 96.347 162.3951
117.276746 96.305 162.0812
118.126581 96.260 161.7710
118.982575 96.214 161.4631
119.844772 96.165 161.1565
120.713217 96.114 160.8506
121.587954 96.061 160.5459
122.469031 96.006 160.2430
123.356492 95.950 159.9432
124.250384 95.894 159.6477
125.150753 95.837 159.3572
126.057647 95.780 159.0721
126.971113 95.724 158.7928
127.891198 95.668 158.5192
128.817950 95.613 158.2515
129.751418 95.559 157.9897
130.691651 95.505 157.7344
131.638696 95.452 157.4860
132.592604 95.400 157.2448
133.553425 95.348 157.0111
134.521208 95.295 156.7851
135.496004 95.242 156.5669
136.477864 95.188 156.3571
137.466839 95.133 156.1562
138.462981 95.076 155.9651
139.466340 95.016 155.7844
140.476971 94.955 155.6144
141.494925 94.890 155.4552
142.520256 94.823 155.3069
143.553016 94.754 155.1694
144.593260 94.682 155.0428
145.641043 94.608 154.9269
146.696418 94.532 154.8220
147.759441 94.455 154.7278
148.830166 94.377 154.6443
149.908651 94.300 154.5712
150.994951 94.222 154.5082
152.089123 94.145 154.4552
153.191223 94.070 154.4120
154.301310 93.995 154.3785
155.419441 93.922 154.3542
156.545674 93.849 154.3391
157.680069 93.778 154.3331
158.822683 93.708 154.3365
159.973578 93.639 154.3495
161.132813 93.571 154.3723
162.300447 93.504 154.4055
163.476543 93.438 154.4492
164.661162 93.372 154.5041
165.854364 93.307 154.5704
167.056213 93.243 154.6487
168.266772 93.180 154.7393
169.486102 93.117 154.8423
170.714268 93.055 154.9577
171.951334 92.993 155.0852
173.197364 92.932 155.2243
174.452424 92.872 155.3745
175.716578 92.812 155.5350
176.989893 92.752 155.7054
178.272434 92.692 155.8848
179.564270 92.632 156.0729
180.865467 92.573 156.2690
182.176092 92.513 156.4728
183.496216 92.454 156.6837
184.825905 92.394 156.9016
186.165229 92.334 157.1264
187.514259 92.274 157.3580
188.873065 92.213 157.5965
190.241717 92.153 157.8420
191.620287 92.092 158.0941
193.008847 92.031 158.3522
194.407468 91.969 158.6158
195.816225 91.908 158.8840
197.235190 91.846 159.1561
198.664438 91.785 159.4314
200.104042 91.723 159.7092
201.554078 91.663 159.9890
203.014622 91.603 160.2703
204.485750 91.545 160.5526
205.967538 91.489 160.8353
207.460064 91.436 161.1179
208.963405 91.386 161.3999
210.477640 91.340 161.6808
212.002848 91.299 161.9603
213.539108 91.264 162.2375
215.086500 91.234 162.5117
216.645105 91.211 162.7823
218.215005 91.194 163.0485
219.796281 91.184 163.3098
221.389015 91.179 163.5659
222.993292 91.181 163.8167
224.609193 91.188 164.0620
226.236804 91.199 164.3024
227.876209 91.215 164.5381
229.527494 91.234 164.7697
231.190745 91.257 164.9973
232.866048 91.282 165.2208
234.553491 91.309 165.4399
236.253163 91.338 165.6540
237.965150 91.369 165.8622
239.689544 91.401 166.0640
241.426433 91.433 166.2589
243.175909 91.466 166.4471
244.938062 91.498 166.6292
246.712984 91.530 166.8062
248.500768 91.561 166.9791
250.301507 91.591 167.1491
252.115295 91.620 167.3172
253.942226 91.648 167.4839
255.782396 91.675 167.6494
257.635901 91.701 167.8138
259.502837 91.726 167.9772
261.383301 91.751 168.1395
263.277392 91.774 168.3008
265.185209 91.797 168.4614
267.106850 91.818 168.6215
269.042417 91.838 168.7815
270.992009 91.857 168.9417
272.955729 91.873 169.1022
274.933678 91.886 169.2626
276.925961 91.897 169.4230
278.932681 91.905 169.5829
280.953942 91.910 169.7419
282.989850 91.911 169.8995
285.040511 91.909 170.0548
287.106032 91.904 170.2074
289.186521 91.895 170.3566
291.282086 91.883 170.5020
293.392836 91.869 170.6432
295.518881 91.852 170.7800
297.660333 91.834 170.9114
299.817302 91.814 171.0367
301.989902 91.794 171.1548
304.178245 91.774 171.2643
306.382446 91.755 171.3641
308.602620 91.737 171.4528
310.838882 91.720 171.5294
313.091348 91.705 171.5929
315.360137 91.693 171.6429
317.645367 91.684 171.6793
319.947156 91.678 171.7021
322.265625 91.675 171.7118
324.600895 91.676 171.7092
326.953086 91.681 171.6949
329.322323 91.690 171.6699
331.708729 91.702 171.6351
334.112427 91.719 171.5914
336.533543 91.740 171.5399
338.972204 91.765 171.4816
341.428536 91.794 171.4174
343.902668 91.826 171.3483
346.394729 91.862 171.2753
348.904848 91.899 171.1994
351.433156 91.939 171.1213
353.979786 91.980 171.0420
356.544869 92.021 170.9621
359.128540 92.061 170.8824
361.730934 92.101 170.8035
364.352185 92.138 170.7256
366.992431 92.172 170.6491
369.651810 92.203 170.5738
372.330459 92.229 170.4995
375.028519 92.251 170.4255
377.746130 92.268 170.3514
380.483434 92.280 170.2763
383.240574 92.287 170.1995
386.017693 92.288 170.1201
388.814937 92.285 170.0374
391.632450 92.278 169.9511
394.470380 92.268 169.8607
397.328875 92.255 169.7661
400.208084 92.241 169.6673
403.108157 92.226 169.5643
406.029245 92.211 169.4572
408.971500 92.198 169.3462
411.935076 92.188 169.2316
414.920127 92.181 169.1137
417.926810 92.176 168.9929
420.955280 92.176 168.8697
424.005695 92.178 168.7445
427.078215 92.184 168.6180
430.173000 92.191 168.4907
433.290211 92.200 168.3634
436.430010 92.210 168.2370
439.592562 92.219 168.1124
442.778031 92.226 167.9904
445.986583 92.231 167.8720
449.218386 92.234 167.7581
452.473607 92.232 167.6491
455.752418 92.227 167.5456
459.054987 92.219 167.4478
462.381489 92.207 167.3555
465.732096 92.192 167.2689
469.106983 92.174 167.1878
472.506325 92.154 167.1122
475.930301 92.132 167.0419
479.379088 92.108 166.9769
482.852867 92.083 166.9170
486.351817 92.057 166.8620
489.876123 92.031 166.8118
493.425968 92.005 166.7662
497.001536 91.980 166.7248
500.603014 91.956 166.6875
504.230589 91.935 166.6542
507.884452 91.917 166.6247
511.564792 91.903 166.5992
515.271802 91.894 166.5779
519.005673 91.890 166.5612
522.766602 91.893 166.5494
526.554785 91.901 166.5430
530.370418 91.916 166.5421
534.213700 91.936 166.5471
538.084833 91.961 166.5582
541.984018 91.990 166.5754
545.911457 92.022 166.5986
549.867357 92.055 166.6276
553.851922 92.087 166.6618
557.865362 92.119 166.7008
561.907884 92.147 166.7440
565.979700 92.170 166.7908
570.081022 92.189 166.8408
574.212064 92.200 166.8935
578.373042 92.205 166.9485
582.564171 92.201 167.0053
586.785671 92.188 167.0634
591.037762 92.166 167.1222
595.320665 92.135 167.1813
599.634604 92.094 167.2404
603.979804 92.044 167.2992
608.356491 91.986 167.3579
612.764893 91.919 167.4167
617.205240 91.846 167.4761
621.677763 91.768 167.5363
626.182696 91.687 167.5976
630.720274 91.604 167.6603
635.290733 91.522 167.7242
639.894312 91.442 167.7894
644.531250 91.366 167.8556
649.201789 91.295 167.9224
653.906173 91.231 167.9894
658.644647 91.175 168.0559
663.417457 91.127 168.1214
668.224854 91.088 168.1852
673.067086 91.059 168.2469
677.944408 91.039 168.3060
682.857073 91.028 168.3622
687.805336 91.026 168.4155
692.789457 91.032 168.4660
697.809695 91.047 168.5138
702.866312 91.068 168.5593
707.959571 91.094 168.6030
713.089738 91.125 168.6453
718.257080 91.158 168.6870
723.461867 91.192 168.7290
728.704370 91.225 168.7720
733.984862 91.258 168.8169
739.303619 91.287 168.8643
744.660918 91.313 168.9148
750.057038 91.335 168.9689
755.492260 91.354 169.0270
760.966869 91.370 169.0890
766.481148 91.382 169.1548
772.035387 91.392 169.2239
777.629873 91.400 169.2956
783.264900 91.406 169.3688
788.940760 91.410 169.4423
794.657750 91.412 169.5147
800.416168 91.412 169.5840
806.216313 91.408 169.6480
812.058489 91.399 169.7038
817.943000 91.386 169.7482
823.870152 91.366 169.7776
829.840255 91.341 169.7880
835.853619 91.311 169.7754
841.910559 91.274 169.7360
848.011390 91.233 169.6667
854.156430 91.188 169.5658
860.346000 91.140 169.4333
866.580422 91.090 169.2715
872.860020 91.040 169.0854
879.185124 90.990 168.8825
885.556062 90.942 168.6722
891.973166 90.897 168.4651
898.436771 90.855 168.2715
904.947215 90.819 168.1008
911.504835 90.788 167.9603
918.109975 90.763 167.8552
924.762978 90.745 167.7882
931.464192 90.733 167.7595
938.213966 90.727 167.7679
945.012651 90.725 167.8107
951.860602 90.727 167.8841
958.758176 90.732 167.9842
965.705733 90.740 168.1069
972.703635 90.748 168.2480
979.752246 90.757 168.4039
986.851935 90.766 168.5709
994.003071 90.776 168.7460
1001.206027 90.785 168.9265
1008.461179 90.796 169.1100
1015.768904 90.807 169.2949
1023.129584 90.821 169.4798
1030.543603 90.838 169.6638
1038.011347 90.859 169.8463
1045.533205 90.885 170.0275
1053.109569 90.916 170.2078
1060.740836 90.952 170.3881
1068.427401 90.994 170.5696
1076.169666 91.040 170.7542
1083.968035 91.091 170.9441
1091.822915 91.144 171.1421
1099.734713 91.199 171.3511
1107.703844 91.255 171.5746
1115.730723 91.310 171.8161
1123.815768 91.364 172.0790
1131.959400 91.416 172.3664
1140.162045 91.468 172.6805
1148.424129 91.519 173.0222
1156.746083 91.571 173.3896
1165.128342 91.628 173.7784
1173.571343 91.690 174.1801
1182.075524 91.761 174.5820
1190.641331 91.844 174.9673
1199.269209 91.938 175.3154
1207.959608 92.046 175.6037
1216.712981 92.165 175.8099
1225.529785 92.294 175.9156
1234.410479 92.428 175.9092
1243.355526 92.564 175.7886
1252.365393 92.696 175.5620
1261.440549 92.823 175.2468
1270.581467 92.939 174.8668
1279.788624 93.046 174.4482
1289.062500 93.141 174.0161
1298.403578 93.227 173.5925
1307.812346 93.303 173.1942
1317.289293 93.373 172.8326
1326.834914 93.436 172.5141
1336.449707 93.494 172.2408
1346.134173 93.549 172.0116
1355.888816 93.601 171.8228
1365.714145 93.650 171.6694
1375.610673 93.698 171.5458
1385.578915 93.744 171.4465
1395.619391 93.789 171.3659
1405.732624 93.831 171.2993
1415.919142 93.873 171.2424
1426.179476 93.912 171.1915
1436.514160 93.951 171.1435
1446.923734 93.988 171.0959
1457.408740 94.025 171.0466
1467.969724 94.060 170.9938
1478.607238 94.094 170.9360
1489.321836 94.127 170.8720
1500.114076 94.158 170.8010
1510.984521 94.187 170.7223
1521.933737 94.213 170.6355
1532.962297 94.237 170.5403
1544.070773 94.258 170.4367
1555.259747 94.275 170.3248
1566.529800 94.289 170.2048
1577.881521 94.301 170.0768
1589.315501 94.309 169.9411
1600.832336 94.316 169.7980
1612.432627 94.320 169.6478
1624.116978 94.324 169.4905
1635.886000 94.327 169.3264
1647.740304 94.329 169.1555
1659.680509 94.331 168.9779
1671.707238 94.333 168.7938
1683.821118 94.334 168.6034
1696.022780 94.334 168.4067
1708.312860 94.334 168.2040
1720.692000 94.333 167.9955
1733.160843 94.331 167.7813
1745.720041 94.330 167.5617
1758.370248 94.328 167.3369
1771.112124 94.328 167.1070
1783.946332 94.328 166.8722
1796.873543 94.329 166.6326
1809.894429 94.331 166.3883
1823.009670 94.335 166.1394
1836.219950 94.339 165.8859
1849.525956 94.344 165.6278
1862.928384 94.348 165.3652
1876.427931 94.351 165.0980
1890.025301 94.351 164.8262
1903.721204 94.349 164.5498
1917.516352 94.343 164.2688
1931.411466 94.332 163.9834
1945.407270 94.318 163.6938
1959.504493 94.298 163.4002
1973.703870 94.274 163.1033
1988.006142 94.246 162.8036
2002.412054 94.214 162.5020
2016.922357 94.179 162.1996
2031.537808 94.142 161.8977
2046.259169 94.103 161.5975
2061.087206 94.063 161.3004
2076.022694 94.023 161.0079
2091.066410 93.984 160.7212
2106.219139 93.947 160.4413
2121.481671 93.913 160.1686
2136.854802 93.882 159.9033
2152.339333 93.855 159.6448
2167.936071 93.833 159.3923
2183.645829 93.817 159.1442
2199.469427 93.806 158.8987
2215.407689 93.801 158.6538
2231.461446 93.803 158.4074
2247.631536 93.811 158.1576
2263.918800 93.826 157.9026
2280.324089 93.846 157.6412
2296.848258 93.872 157.3727
2313.492167 93.902 157.0970
2330.256685 93.937 156.8146
2347.142685 93.974 156.5266
2364.151049 94.014 156.2346
2381.282662 94.055 155.9406
2398.538418 94.096 155.6467
2415.919216 94.136 155.3555
2433.425962 94.175 155.0692
2451.059570 94.211 154.7899
2468.820958 94.244 154.5195
2486.711052 94.273 154.2592
2504.730786 94.298 154.0099
2522.881098 94.317 153.7717
2541.162934 94.330 153.5450
2559.577248 94.337 153.3294
2578.125000 94.337 153.1249
2596.807157 94.329 152.9313
2615.624692 94.313 152.7489
2634.578586 94.288 152.5781
2653.669829 94.255 152.4200
2672.899414 94.212 152.2761
2692.268345 94.160 152.1479
2711.777632 94.099 152.0375
2731.428290 94.029 151.9464
2751.221345 93.950 151.8758
2771.157829 93.864 151.8267
2791.238781 93.770 151.7994
2811.465248 93.669 151.7939
2831.838284 93.562 151.8099
2852.358952 93.449 151.8470
2873.028321 93.331 151.9047
2893.847468 93.207 151.9826
2914.817480 93.079 152.0802
2935.939449 92.946 152.1971
2957.214476 92.810 152.3329
2978.643672 92.669 152.4875
3000.228152 92.525 152.6609
3021.969041 92.377 152.8534
3043.867475 92.227 153.0654
3065.924593 92.073 153.2980
3088.141547 91.917 153.5524
3110.519493 91.758 153.8304
3133.059600 91.597 154.1341
3155.763041 91.433 154.4664
3178.631001 91.268 154.8303
3201.664672 91.101 155.2296
3224.865254 90.933 155.6684
3248.233957 90.764 156.1512
3271.771999 90.595 156.6826
3295.480608 90.426 157.2675
3319.361019 90.259 157.9105
3343.414477 90.095 158.6160
3367.642236 89.935 159.3882
3392.045560 89.780 160.2308
3416.625721 89.632 161.1472
3441.383999 89.492 162.1408
3466.321686 89.362 163.2143
3491.440082 89.243 164.3704
3516.740496 89.137 165.6111
