* Measurement data measured by REW V5.31.3
* Source: EXCL: Headset (USB-C to 3.5mm Headphone Jack Adapter), MICROPHONE (Master Volume), 0, volume: 0.750
* Format: 256k Log Swept Sine, 1 sweep at -12.0 dBFS with no timing reference
* Dated: Apr 1, 2025 11:00:56 PM
* REW Settings:
*  C-weighting compensation: Off
*  Target level: 75.0 dB
* Note: ; 
* Measurement: Satyr 3 (Stock) R7
* Smoothing: 1/6 octave
* Frequency Step: 96 ppo
* Start Frequency: 20.0 Hz
*
* Freq(Hz) SPL(dB) Phase(degrees)
20.187378 81.766 -89.9115
20.333664 81.804 -90.0452
20.481010 81.857 -90.2220
20.629424 81.922 -90.4343
20.778913 81.998 -90.6743
20.929486 82.086 -90.9347
21.081150 82.183 -91.2101
21.233912 82.290 -91.4965
21.387782 82.404 -91.7921
21.542767 82.525 -92.0969
21.698874 82.652 -92.4126
21.856113 82.783 -92.7417
22.014492 82.918 -93.0875
22.174018 83.053 -93.4532
22.334700 83.189 -93.8416
22.496546 83.322 -94.2540
22.659566 83.451 -94.6905
22.823766 83.575 -95.1494
22.989157 83.691 -95.6272
23.155745 83.800 -96.1188
23.323542 83.899 -96.6175
23.492554 83.989 -97.1161
23.662790 84.070 -97.6066
23.834261 84.141 -98.0816
24.006973 84.203 -98.5344
24.180938 84.258 -98.9599
24.356163 84.307 -99.3549
24.532658 84.350 -99.7185
24.710431 84.390 -100.0522
24.889493 84.428 -100.3599
25.069853 84.465 -100.6476
25.251519 84.502 -100.9229
25.434502 84.539 -101.1940
25.618811 84.577 -101.4697
25.804456 84.617 -101.7577
25.991445 84.657 -102.0646
26.179790 84.699 -102.3951
26.369500 84.740 -102.7513
26.560584 84.781 -103.1332
26.753053 84.822 -103.5387
26.946917 84.863 -103.9633
27.142185 84.903 -104.4018
27.338869 84.942 -104.8481
27.536977 84.981 -105.2963
27.736522 85.020 -105.7414
27.937512 85.060 -106.1798
28.139959 85.101 -106.6097
28.343872 85.143 -107.0312
28.549264 85.187 -107.4462
28.756143 85.232 -107.8579
28.964522 85.278 -108.2704
29.174411 85.326 -108.6877
29.385821 85.374 -109.1138
29.598763 85.422 -109.5518
29.813248 85.470 -110.0035
30.029287 85.519 -110.4699
30.246891 85.569 -110.9508
30.466073 85.621 -111.4449
30.686842 85.675 -111.9506
30.909212 85.732 -112.4657
31.133193 85.793 -112.9875
31.358797 85.859 -113.5133
31.586035 85.930 -114.0402
31.814921 86.006 -114.5652
32.045465 86.087 -115.0854
32.277680 86.172 -115.5983
32.511577 86.261 -116.1018
32.747169 86.352 -116.5948
32.984469 86.447 -117.0770
33.223488 86.542 -117.5494
33.464239 86.639 -118.0138
33.706735 86.735 -118.4729
33.950987 86.832 -118.9298
34.197010 86.928 -119.3876
34.444816 87.023 -119.8489
34.694417 87.116 -120.3152
34.945827 87.209 -120.7874
35.199059 87.300 -121.2648
35.454126 87.391 -121.7461
35.711041 87.480 -122.2291
35.969818 87.568 -122.7109
36.230470 87.656 -123.1886
36.493011 87.743 -123.6596
36.757455 87.828 -124.1214
37.023814 87.912 -124.5719
37.292104 87.995 -125.0102
37.562338 88.076 -125.4357
37.834530 88.155 -125.8490
38.108695 88.233 -126.2514
38.384846 88.308 -126.6450
38.662999 88.382 -127.0324
38.943167 88.453 -127.4162
39.225365 88.523 -127.7991
39.509608 88.590 -128.1831
39.795911 88.655 -128.5697
40.084289 88.719 -128.9596
40.374756 88.780 -129.3532
40.667328 88.840 -129.7503
40.962020 88.898 -130.1505
41.258848 88.955 -130.5539
41.557827 89.011 -130.9606
41.858972 89.065 -131.3714
42.162299 89.119 -131.7867
42.467824 89.171 -132.2074
42.775564 89.223 -132.6337
43.085533 89.273 -133.0652
43.397749 89.323 -133.5012
43.712227 89.372 -133.9401
44.028983 89.420 -134.3804
44.348036 89.467 -134.8206
44.669400 89.514 -135.2595
44.993093 89.560 -135.6970
45.319131 89.606 -136.1335
45.647532 89.651 -136.5705
45.978313 89.696 -137.0101
46.311491 89.740 -137.4545
46.647083 89.782 -137.9060
46.985107 89.824 -138.3661
47.325581 89.865 -138.8351
47.668521 89.903 -139.3121
48.013947 89.940 -139.7946
48.361876 89.975 -140.2796
48.712326 90.008 -140.7640
49.065315 90.039 -141.2452
49.420863 90.069 -141.7215
49.778987 90.096 -142.1925
50.139706 90.122 -142.6585
50.503039 90.146 -143.1201
50.869005 90.167 -143.5783
51.237623 90.185 -144.0340
51.608912 90.202 -144.4883
51.982891 90.216 -144.9429
52.359580 90.229 -145.3996
52.739000 90.239 -145.8605
53.121168 90.248 -146.3274
53.506106 90.255 -146.8012
53.893833 90.260 -147.2819
54.284370 90.264 -147.7684
54.677737 90.266 -148.2589
55.073955 90.266 -148.7516
55.473043 90.265 -149.2451
55.875024 90.262 -149.7384
56.279917 90.258 -150.2317
56.687745 90.253 -150.7259
57.098527 90.248 -151.2222
57.512287 90.242 -151.7214
57.929045 90.237 -152.2234
58.348822 90.233 -152.7271
58.771642 90.231 -153.2298
59.197525 90.234 -153.7285
59.626495 90.242 -154.2206
60.058573 90.254 -154.7044
60.493782 90.273 -155.1797
60.932145 90.296 -155.6468
61.373685 90.324 -156.1069
61.818424 90.354 -156.5607
62.266386 90.386 -157.0089
62.717593 90.419 -157.4523
63.172071 90.452 -157.8911
63.629842 90.485 -158.3259
64.090930 90.518 -158.7570
64.555359 90.550 -159.1851
65.023154 90.580 -159.6109
65.494339 90.610 -160.0358
65.968938 90.639 -160.4609
66.446976 90.668 -160.8873
66.928478 90.695 -161.3155
67.413469 90.721 -161.7455
67.901975 90.747 -162.1764
68.394021 90.771 -162.6070
68.889632 90.793 -163.0358
69.388835 90.814 -163.4615
69.891655 90.833 -163.8833
70.398118 90.850 -164.3010
70.908252 90.864 -164.7148
71.422083 90.875 -165.1253
71.939636 90.884 -165.5332
72.460941 90.890 -165.9392
72.986023 90.893 -166.3439
73.514909 90.893 -166.7475
74.047629 90.890 -167.1502
74.584208 90.884 -167.5514
75.124676 90.876 -167.9504
75.669061 90.865 -168.3458
76.217390 90.853 -168.7364
76.769692 90.839 -169.1210
77.325997 90.823 -169.4991
77.886333 90.805 -169.8704
78.450730 90.785 -170.2352
79.019216 90.764 -170.5942
79.591822 90.742 -170.9482
80.168577 90.718 -171.2979
80.749512 90.693 -171.6441
81.334656 90.667 -171.9874
81.924040 90.640 -172.3282
82.517696 90.613 -172.6670
83.115653 90.586 -173.0042
83.717943 90.558 -173.3400
84.324598 90.530 -173.6747
84.935649 90.502 -174.0080
85.551128 90.474 -174.3395
86.171066 90.445 -174.6689
86.795497 90.416 -174.9957
87.424453 90.387 -175.3193
88.057967 90.357 -175.6395
88.696071 90.327 -175.9557
89.338800 90.297 -176.2678
89.986185 90.266 -176.5758
90.638262 90.235 -176.8794
91.295065 90.203 -177.1788
91.956626 90.171 -177.4737
92.622982 90.139 -177.7639
93.294166 90.106 -178.0493
93.970214 90.074 -178.3295
94.651161 90.040 -178.6040
95.337042 90.007 -178.8728
96.027894 89.974 -179.1356
96.723752 89.941 -179.3923
97.424652 89.909 -179.6431
98.130631 89.877 -179.8880
98.841726 89.846 179.8727
99.557974 89.815 179.6385
100.279412 89.785 179.4089
101.006078 89.755 179.1833
101.738010 89.726 178.9606
102.475245 89.699 178.7400
103.217823 89.672 178.5208
103.965782 89.646 178.3024
104.719161 89.622 178.0844
105.477999 89.598 177.8669
106.242336 89.577 177.6501
107.012212 89.556 177.4346
107.787666 89.537 177.2214
108.568740 89.518 177.0110
109.355474 89.501 176.8039
110.147909 89.485 176.6002
110.946086 89.470 176.3996
111.750047 89.455 176.2017
112.559834 89.441 176.0059
113.375489 89.427 175.8117
114.197055 89.414 175.6191
115.024574 89.401 175.4277
115.858089 89.388 175.2377
116.697645 89.375 175.0490
117.543284 89.362 174.8614
118.395051 89.349 174.6747
119.252990 89.335 174.4890
120.117147 89.322 174.3041
120.987565 89.308 174.1203
121.864291 89.294 173.9374
122.747370 89.279 173.7555
123.636848 89.264 173.5743
124.532771 89.249 173.3940
125.435187 89.233 173.2142
126.344142 89.216 173.0352
127.259684 89.199 172.8571
128.181860 89.180 172.6802
129.110718 89.161 172.5053
130.046308 89.140 172.3335
130.988677 89.118 172.1660
131.937875 89.094 172.0040
132.893951 89.068 171.8485
133.856956 89.041 171.7002
134.826938 89.012 171.5593
135.803950 88.981 171.4250
136.788041 88.947 171.2966
137.779264 88.912 171.1725
138.777669 88.875 171.0519
139.783309 88.837 170.9341
140.796237 88.796 170.8190
141.816504 88.754 170.7067
142.844165 88.711 170.5981
143.879273 88.666 170.4940
144.921881 88.620 170.3954
145.972045 88.574 170.3036
147.029819 88.526 170.2193
148.095257 88.477 170.1435
149.168417 88.428 170.0767
150.249353 88.378 170.0197
151.338121 88.327 169.9730
152.434780 88.277 169.9372
153.539385 88.226 169.9128
154.651995 88.176 169.9002
155.772667 88.126 169.8999
156.901460 88.076 169.9120
158.038432 88.027 169.9368
159.183644 87.978 169.9745
160.337154 87.930 170.0255
161.499023 87.883 170.0896
162.669312 87.837 170.1667
163.848081 87.793 170.2561
165.035392 87.749 170.3570
166.231306 87.707 170.4687
167.435887 87.667 170.5904
168.649196 87.629 170.7217
169.871298 87.593 170.8622
171.102255 87.559 171.0113
172.342133 87.528 171.1687
173.590995 87.500 171.3340
174.848907 87.474 171.5070
176.115934 87.452 171.6873
177.392143 87.433 171.8739
178.677599 87.418 172.0651
179.972371 87.406 172.2582
181.276525 87.397 172.4503
182.590129 87.391 172.6379
183.913252 87.387 172.8179
185.245964 87.386 172.9872
186.588332 87.387 173.1439
187.940428 87.389 173.2861
189.302322 87.391 173.4130
190.674085 87.395 173.5241
192.055788 87.399 173.6193
193.447503 87.402 173.6984
194.849303 87.406 173.7615
196.261262 87.409 173.8083
197.683452 87.411 173.8383
199.115948 87.413 173.8510
200.558824 87.416 173.8461
202.012156 87.418 173.8239
203.476019 87.420 173.7858
204.950490 87.423 173.7339
206.435646 87.426 173.6710
207.931564 87.430 173.5997
209.438322 87.433 173.5221
210.955998 87.436 173.4396
212.484672 87.438 173.3531
214.024424 87.440 173.2629
215.575333 87.440 173.1693
217.137481 87.439 173.0724
218.710948 87.438 172.9728
220.295818 87.436 172.8711
221.892172 87.433 172.7681
223.500094 87.430 172.6649
225.119668 87.428 172.5620
226.750978 87.425 172.4603
228.394109 87.423 172.3602
230.049147 87.422 172.2619
231.716178 87.421 172.1657
233.395289 87.421 172.0720
235.086567 87.421 171.9806
236.790102 87.422 171.8917
238.505980 87.423 171.8049
240.234293 87.425 171.7202
241.975130 87.426 171.6374
243.728581 87.428 171.5565
245.494739 87.430 171.4779
247.273695 87.432 171.4023
249.065542 87.434 171.3305
250.870374 87.436 171.2631
252.688284 87.438 171.2001
254.519367 87.440 171.1417
256.363720 87.442 171.0873
258.221437 87.444 171.0366
260.092616 87.446 170.9889
261.977354 87.448 170.9437
263.875750 87.450 170.9000
265.787903 87.451 170.8571
267.713911 87.452 170.8143
269.653877 87.453 170.7711
271.607900 87.453 170.7272
273.576083 87.454 170.6829
275.558528 87.454 170.6389
277.555338 87.454 170.5956
279.566619 87.454 170.5541
281.592474 87.455 170.5148
283.633009 87.456 170.4785
285.688331 87.458 170.4456
287.758546 87.460 170.4164
289.843763 87.463 170.3911
291.944090 87.467 170.3695
294.059638 87.471 170.3513
296.190515 87.476 170.3363
298.336833 87.481 170.3246
300.498705 87.487 170.3160
302.676243 87.492 170.3104
304.869559 87.499 170.3073
307.078770 87.505 170.3063
309.303989 87.512 170.3070
311.545334 87.519 170.3088
313.802919 87.527 170.3112
316.076865 87.534 170.3137
318.367288 87.542 170.3163
320.674309 87.550 170.3187
322.998047 87.558 170.3209
325.338624 87.565 170.3226
327.696162 87.573 170.3240
330.070783 87.581 170.3248
332.462612 87.588 170.3251
334.871773 87.595 170.3248
337.298392 87.602 170.3239
339.742595 87.608 170.3224
342.204510 87.613 170.3202
344.684265 87.618 170.3171
347.181989 87.621 170.3133
349.697813 87.624 170.3088
352.231868 87.625 170.3036
354.784285 87.625 170.2981
357.355198 87.624 170.2921
359.944741 87.622 170.2858
362.553049 87.619 170.2793
365.180258 87.615 170.2726
367.826505 87.610 170.2658
370.491927 87.605 170.2586
373.176665 87.600 170.2509
375.880856 87.595 170.2424
378.604644 87.589 170.2329
381.348169 87.584 170.2220
384.111575 87.578 170.2094
386.895006 87.572 170.1946
389.698607 87.565 170.1772
392.522524 87.559 170.1567
395.366904 87.552 170.1328
398.231895 87.544 170.1052
401.117648 87.535 170.0740
404.024312 87.525 170.0395
406.952038 87.514 170.0021
409.900981 87.500 169.9628
412.871292 87.485 169.9226
415.863128 87.467 169.8832
418.876643 87.446 169.8470
421.911996 87.422 169.8169
424.969344 87.396 169.7962
428.048847 87.367 169.7886
431.150666 87.336 169.7969
434.274961 87.303 169.8229
437.421897 87.269 169.8665
440.591636 87.236 169.9254
443.784345 87.202 169.9955
447.000189 87.171 170.0722
450.239337 87.140 170.1510
453.501956 87.111 170.2282
456.788219 87.083 170.3013
460.098294 87.057 170.3686
463.432356 87.031 170.4294
466.790578 87.006 170.4837
470.173135 86.982 170.5315
473.580203 86.958 170.5734
477.011961 86.935 170.6099
480.468586 86.913 170.6419
483.950259 86.891 170.6702
487.457163 86.870 170.6959
490.989478 86.849 170.7201
494.547390 86.830 170.7439
498.131084 86.811 170.7683
501.740748 86.793 170.7940
505.376568 86.777 170.8213
509.038735 86.762 170.8504
512.727439 86.749 170.8812
516.442874 86.738 170.9135
520.185232 86.728 170.9467
523.954708 86.721 170.9807
527.751500 86.716 171.0151
531.575805 86.714 171.0497
535.427822 86.714 171.0841
539.307753 86.716 171.1180
543.215800 86.721 171.1508
547.152165 86.729 171.1820
551.117055 86.740 171.2107
555.110677 86.752 171.2363
559.133237 86.767 171.2582
563.184947 86.783 171.2763
567.266018 86.801 171.2905
571.376661 86.820 171.3013
575.517092 86.840 171.3094
579.687526 86.860 171.3156
583.888181 86.881 171.3210
588.119275 86.901 171.3263
592.381030 86.922 171.3322
596.673667 86.942 171.3389
600.997410 86.962 171.3462
605.352485 86.982 171.3532
609.739119 87.000 171.3593
614.157540 87.019 171.3634
618.607979 87.036 171.3650
623.090667 87.052 171.3635
627.605839 87.067 171.3588
632.153730 87.080 171.3510
636.734576 87.092 171.3401
641.348617 87.103 171.3262
645.996094 87.112 171.3093
650.677248 87.119 171.2892
655.392323 87.125 171.2660
660.141566 87.130 171.2394
664.925224 87.132 171.2099
669.743546 87.133 171.1786
674.596784 87.131 171.1474
679.485191 87.128 171.1189
684.409020 87.122 171.0963
689.368530 87.115 171.0824
694.363979 87.106 171.0793
699.395626 87.097 171.0877
704.463736 87.088 171.1060
709.568570 87.079 171.1309
714.710396 87.070 171.1582
719.889483 87.062 171.1838
725.106099 87.055 171.2041
730.360516 87.047 171.2166
735.653010 87.040 171.2197
740.983855 87.031 171.2130
746.353329 87.022 171.1967
751.761713 87.011 171.1714
757.209288 86.999 171.1378
762.696339 86.985 171.0969
768.223151 86.969 171.0498
773.790013 86.952 170.9975
779.397214 86.933 170.9413
785.045047 86.912 170.8824
790.733808 86.891 170.8219
796.463791 86.868 170.7609
802.235296 86.844 170.7001
808.048623 86.819 170.6405
813.904077 86.795 170.5823
819.801961 86.771 170.5254
825.742584 86.747 170.4692
831.726255 86.724 170.4128
837.753287 86.702 170.3552
843.823992 86.680 170.2952
849.938689 86.660 170.2324
856.097695 86.641 170.1666
862.301332 86.623 170.0980
868.549922 86.605 170.0269
874.843793 86.589 169.9533
881.183272 86.573 169.8771
887.568689 86.559 169.7979
894.000378 86.546 169.7151
900.478673 86.533 169.6285
907.003913 86.522 169.5379
913.576437 86.511 169.4433
920.196588 86.502 169.3453
926.864712 86.493 169.2445
933.581156 86.485 169.1416
940.346270 86.479 169.0372
947.160407 86.473 168.9315
954.023921 86.470 168.8245
960.937172 86.468 168.7158
967.900519 86.468 168.6053
974.914325 86.469 168.4929
981.978956 86.473 168.3785
989.094780 86.479 168.2618
996.262169 86.487 168.1425
1003.481495 86.497 168.0197
1010.753136 86.509 167.8929
1018.077470 86.524 167.7614
1025.454879 86.540 167.6248
1032.885748 86.558 167.4826
1040.370463 86.577 167.3350
1047.909417 86.597 167.1822
1055.503000 86.618 167.0242
1063.151610 86.640 166.8614
1070.855645 86.662 166.6940
1078.615506 86.683 166.5222
1086.431599 86.704 166.3461
1094.304330 86.725 166.1659
1102.234110 86.744 165.9816
1110.221353 86.762 165.7935
1118.266475 86.779 165.6020
1126.369895 86.793 165.4074
1134.532035 86.805 165.2108
1142.753322 86.815 165.0132
1151.034184 86.822 164.8166
1159.375052 86.827 164.6232
1167.776361 86.828 164.4356
1176.238550 86.826 164.2569
1184.762060 86.822 164.0897
1193.347334 86.815 163.9368
1201.994821 86.806 163.8003
1210.704971 86.795 163.6819
1219.478238 86.784 163.5825
1228.315080 86.771 163.5022
1237.215957 86.758 163.4405
1246.181334 86.746 163.3961
1255.211678 86.734 163.3677
1264.307459 86.723 163.3533
1273.469152 86.713 163.3512
1282.697235 86.703 163.3599
1291.992188 86.694 163.3783
1301.354495 86.685 163.4061
1310.784647 86.677 163.4432
1320.283132 86.669 163.4896
1329.850448 86.661 163.5451
1339.487093 86.654 163.6098
1349.193569 86.646 163.6839
1358.970381 86.639 163.7679
1368.818041 86.632 163.8621
1378.737061 86.625 163.9669
1388.727958 86.619 164.0828
1398.791253 86.614 164.2102
1408.927471 86.610 164.3504
1419.137140 86.607 164.5049
1429.420793 86.605 164.6755
1439.778965 86.605 164.8643
1450.212197 86.607 165.0730
1460.721033 86.612 165.3027
1471.306019 86.619 165.5538
1481.967709 86.629 165.8256
1492.706658 86.643 166.1171
1503.523426 86.659 166.4268
1514.418576 86.678 166.7534
1525.392678 86.699 167.0957
1536.446302 86.722 167.4530
1547.580025 86.747 167.8249
1558.794428 86.774 168.2107
1570.090095 86.802 168.6095
1581.467615 86.830 169.0197
1592.927581 86.860 169.4394
1604.470591 86.891 169.8665
1616.097246 86.923 170.2990
1627.808153 86.954 170.7351
1639.603922 86.987 171.1733
1651.485168 87.020 171.6114
1663.452510 87.054 172.0465
1675.506573 87.090 172.4749
1687.647984 87.126 172.8927
1699.877377 87.164 173.2958
1712.195390 87.203 173.6807
1724.602663 87.242 174.0449
1737.099845 87.282 174.3870
1749.687587 87.321 174.7068
1762.366544 87.361 175.0053
1775.137379 87.399 175.2840
1788.000756 87.437 175.5443
1800.957346 87.475 175.7869
1814.007826 87.512 176.0121
1827.152874 87.547 176.2194
1840.393177 87.582 176.4081
1853.729425 87.615 176.5775
1867.162312 87.646 176.7268
1880.692540 87.675 176.8560
1894.320813 87.701 176.9651
1908.047843 87.724 177.0546
1921.874344 87.743 177.1253
1935.801038 87.759 177.1785
1949.828650 87.770 177.2160
1963.957912 87.776 177.2405
1978.189561 87.777 177.2550
1992.524338 87.774 177.2628
2006.962991 87.766 177.2670
2021.506272 87.754 177.2702
2036.154940 87.738 177.2747
2050.909758 87.719 177.2818
2065.771495 87.698 177.2928
2080.740927 87.674 177.3083
2095.818833 87.649 177.3282
2111.006001 87.623 177.3517
2126.303220 87.598 177.3770
2141.711290 87.573 177.4017
2157.231013 87.549 177.4227
2172.863198 87.527 177.4366
2188.608660 87.506 177.4401
2204.468221 87.486 177.4302
2220.442706 87.468 177.4051
2236.532950 87.451 177.3636
2252.739789 87.435 177.3062
2269.064070 87.418 177.2343
2285.506644 87.402 177.1504
2302.068367 87.386 177.0569
2318.750104 87.371 176.9561
2335.552723 87.357 176.8485
2352.477101 87.344 176.7340
2369.524119 87.333 176.6106
2386.694668 87.325 176.4753
2403.989641 87.319 176.3242
2421.409941 87.316 176.1527
2438.956476 87.315 175.9562
2456.630160 87.316 175.7308
2474.431915 87.318 175.4746
2492.362668 87.320 175.1876
2510.423356 87.321 174.8720
2528.614918 87.319 174.5322
2546.938304 87.316 174.1738
2565.394469 87.309 173.8031
2583.984375 87.298 173.4268
2602.708991 87.285 173.0512
2621.569293 87.268 172.6826
2640.566265 87.248 172.3265
2659.700897 87.225 171.9874
2678.974186 87.200 171.6689
2698.387137 87.173 171.3734
2717.940763 87.145 171.1028
2737.636082 87.115 170.8582
2757.474121 87.084 170.6410
2777.455915 87.052 170.4523
2797.582506 87.018 170.2939
2817.854942 86.983 170.1684
2838.274281 86.946 170.0790
2858.841586 86.907 170.0302
2879.557931 86.867 170.0267
2900.424394 86.825 170.0740
2921.442065 86.782 170.1769
2942.612039 86.738 170.3401
2963.935418 86.695 170.5670
2985.413316 86.653 170.8594
3007.046852 86.613 171.2178
3028.837153 86.575 171.6406
3050.785356 86.541 172.1247
3072.892604 86.512 172.6649
3095.160050 86.487 173.2548
3117.588856 86.468 173.8865
3140.180190 86.455 174.5508
3162.935230 86.448 175.2376
3185.855163 86.447 175.9354
3208.941182 86.452 176.6318
3232.194493 86.463 177.3135
3255.616307 86.480 177.9670
3279.207844 86.500 178.5794
3302.970336 86.523 179.1396
3326.905021 86.548 179.6395
3351.013146 86.572 -179.9253
3375.295969 86.593 -179.5543
3399.754755 86.611 -179.2432
3424.390779 86.625 -178.9841
3449.205326 86.632 -178.7675
3474.199690 86.635 -178.5837
3499.375173 86.634 -178.4250
3524.733088 86.630 -178.2869
