* Measurement data measured by REW V5.31.3
* Source: EXCL: Headset (USB-C to 3.5mm Headphone Jack Adapter), MICROPHONE (Master Volume), 0, volume: 0.260
* Format: 256k Log Swept Sine, 1 sweep at -12.0 dBFS with no timing reference
* Dated: Mar 7, 2025 11:54:17 AM
* REW Settings:
*  C-weighting compensation: Off
*  Target level: 75.0 dB
* Note: ; 
* Measurement: Massive Mod V1 L7
* Smoothing: 1/6 octave
* Frequency Step: 96 ppo
* Start Frequency: 20.0 Hz
*
* Freq(Hz) SPL(dB) Phase(degrees)
20.141602 93.100 -31.7686
20.287556 93.122 -32.1031
20.434568 93.151 -32.5500
20.582645 93.185 -33.0961
20.731796 93.222 -33.7258
20.882027 93.259 -34.4225
21.033346 93.295 -35.1689
21.185763 93.329 -35.9476
21.339284 93.361 -36.7424
21.493917 93.391 -37.5382
21.649671 93.419 -38.3224
21.806553 93.448 -39.0849
21.964572 93.477 -39.8188
22.123737 93.510 -40.5207
22.284054 93.548 -41.1907
22.445534 93.592 -41.8324
22.608183 93.643 -42.4518
22.772012 93.702 -43.0571
22.937027 93.768 -43.6576
23.103238 93.842 -44.2621
23.270654 93.920 -44.8787
23.439282 94.002 -45.5133
23.609133 94.085 -46.1697
23.780215 94.168 -46.8492
23.952536 94.249 -47.5507
24.126106 94.327 -48.2712
24.300934 94.400 -49.0064
24.477028 94.468 -49.7510
24.654399 94.531 -50.4997
24.833055 94.590 -51.2471
25.013005 94.646 -51.9886
25.194260 94.699 -52.7207
25.376828 94.752 -53.4405
25.560719 94.805 -54.1465
25.745942 94.860 -54.8383
25.932508 94.918 -55.5166
26.120426 94.981 -56.1829
26.309705 95.049 -56.8395
26.500356 95.122 -57.4891
26.692388 95.200 -58.1344
26.885812 95.283 -58.7776
27.080638 95.370 -59.4202
27.276876 95.459 -60.0622
27.474535 95.550 -60.7024
27.673627 95.642 -61.3387
27.874161 95.733 -61.9681
28.076149 95.825 -62.5882
28.279600 95.917 -63.1977
28.484526 96.011 -63.7978
28.690937 96.107 -64.3926
28.898843 96.207 -64.9891
29.108256 96.311 -65.5966
29.319186 96.419 -66.2253
29.531645 96.529 -66.8839
29.745644 96.640 -67.5779
29.961193 96.750 -68.3076
30.178304 96.854 -69.0675
30.396989 96.950 -69.8467
30.617258 97.036 -70.6301
30.839123 97.110 -71.4010
31.062596 97.172 -72.1442
31.287688 97.220 -72.8481
31.514412 97.258 -73.5072
31.742778 97.285 -74.1230
31.972800 97.305 -74.7039
32.204488 97.318 -75.2636
32.437855 97.327 -75.8184
32.672913 97.333 -76.3848
32.909674 97.337 -76.9767
33.148151 97.341 -77.6035
33.388356 97.347 -78.2696
33.630302 97.357 -78.9748
33.874001 97.374 -79.7154
34.119466 97.402 -80.4857
34.366710 97.441 -81.2790
34.615745 97.493 -82.0887
34.866585 97.557 -82.9076
35.119243 97.632 -83.7282
35.373731 97.714 -84.5417
35.630064 97.801 -85.3386
35.888254 97.889 -86.1090
36.148315 97.973 -86.8442
36.410261 98.053 -87.5380
36.674104 98.127 -88.1886
36.939860 98.194 -88.7988
37.207542 98.254 -89.3763
37.477163 98.307 -89.9320
37.748738 98.354 -90.4782
38.022281 98.395 -91.0272
38.297806 98.431 -91.5888
38.575327 98.462 -92.1698
38.854860 98.488 -92.7737
39.136419 98.511 -93.4008
39.420017 98.531 -94.0495
39.705671 98.549 -94.7165
39.993395 98.565 -95.3984
40.283203 98.580 -96.0913
40.575112 98.594 -96.7920
40.869136 98.607 -97.4975
41.165290 98.621 -98.2058
41.463591 98.635 -98.9156
41.764053 98.649 -99.6267
42.066693 98.664 -100.3396
42.371525 98.681 -101.0554
42.678567 98.699 -101.7749
42.987834 98.719 -102.4989
43.299341 98.742 -103.2274
43.613106 98.768 -103.9600
43.929145 98.796 -104.6967
44.247473 98.829 -105.4377
44.568109 98.865 -106.1844
44.891068 98.905 -106.9386
45.216367 98.949 -107.7023
45.544023 98.996 -108.4773
45.874054 99.046 -109.2638
46.206476 99.098 -110.0607
46.541307 99.151 -110.8657
46.878565 99.205 -111.6753
47.218266 99.259 -112.4864
47.560429 99.313 -113.2960
47.905072 99.367 -114.1020
48.252212 99.419 -114.9031
48.601867 99.471 -115.6985
48.954056 99.520 -116.4882
49.308798 99.568 -117.2723
49.666109 99.613 -118.0510
50.026010 99.655 -118.8246
50.388520 99.695 -119.5932
50.753656 99.732 -120.3568
51.121437 99.767 -121.1154
51.491884 99.799 -121.8688
51.865016 99.828 -122.6171
52.240851 99.855 -123.3606
52.619410 99.880 -124.1001
53.000712 99.902 -124.8362
53.384777 99.922 -125.5699
53.771625 99.939 -126.3019
54.161276 99.954 -127.0329
54.553751 99.967 -127.7634
54.949070 99.976 -128.4944
55.347254 99.984 -129.2268
55.748323 99.988 -129.9616
56.152298 99.991 -130.7002
56.559201 99.991 -131.4431
56.969052 99.989 -132.1903
57.381873 99.986 -132.9407
57.797686 99.982 -133.6918
58.216512 99.978 -134.4395
58.638373 99.974 -135.1785
59.063291 99.970 -135.9025
59.491288 99.967 -136.6053
59.922386 99.963 -137.2824
60.356608 99.960 -137.9321
60.793977 99.957 -138.5565
61.234515 99.955 -139.1611
61.678246 99.953 -139.7528
62.125192 99.951 -140.3387
62.575377 99.950 -140.9244
63.028824 99.947 -141.5132
63.485557 99.944 -142.1069
63.945599 99.940 -142.7057
64.408975 99.933 -143.3090
64.875709 99.925 -143.9159
65.345825 99.915 -144.5253
65.819348 99.903 -145.1359
66.296302 99.889 -145.7464
66.776713 99.873 -146.3554
67.260604 99.856 -146.9619
67.748002 99.839 -147.5648
68.238932 99.820 -148.1634
68.733420 99.802 -148.7571
69.231490 99.783 -149.3456
69.733170 99.763 -149.9283
70.238485 99.743 -150.5052
70.747463 99.723 -151.0760
71.260128 99.703 -151.6409
71.776508 99.683 -152.1998
72.296630 99.662 -152.7527
72.820521 99.641 -153.2998
73.348209 99.620 -153.8412
73.879720 99.599 -154.3772
74.415083 99.577 -154.9084
74.954326 99.555 -155.4353
75.497475 99.533 -155.9586
76.044561 99.511 -156.4789
76.595612 99.489 -156.9962
77.150655 99.466 -157.5108
77.709720 99.444 -158.0220
78.272837 99.420 -158.5296
78.840034 99.397 -159.0326
79.411342 99.373 -159.5305
79.986789 99.349 -160.0227
80.566406 99.324 -160.5083
81.150224 99.298 -160.9868
81.738272 99.272 -161.4577
82.330581 99.244 -161.9206
82.927182 99.216 -162.3757
83.528107 99.188 -162.8233
84.133386 99.158 -163.2643
84.743051 99.129 -163.7000
85.357134 99.099 -164.1312
85.975667 99.069 -164.5588
86.598682 99.039 -164.9832
87.226212 99.010 -165.4047
87.858289 98.982 -165.8231
88.494946 98.955 -166.2383
89.136217 98.929 -166.6501
89.782135 98.904 -167.0582
90.432733 98.880 -167.4624
91.088046 98.857 -167.8624
91.748108 98.835 -168.2581
92.412952 98.814 -168.6494
93.082615 98.793 -169.0364
93.757130 98.771 -169.4193
94.436533 98.750 -169.7982
95.120859 98.727 -170.1732
95.810144 98.703 -170.5441
96.504423 98.677 -170.9105
97.203734 98.648 -171.2720
97.908112 98.618 -171.6281
98.617595 98.585 -171.9782
99.332219 98.550 -172.3223
100.052021 98.513 -172.6603
100.777039 98.474 -172.9924
101.507311 98.434 -173.3188
102.242875 98.393 -173.6399
102.983769 98.351 -173.9560
103.730032 98.310 -174.2676
104.481702 98.269 -174.5751
105.238820 98.228 -174.8792
106.001424 98.189 -175.1799
106.769554 98.151 -175.4770
107.543250 98.114 -175.7699
108.322553 98.079 -176.0578
109.107503 98.045 -176.3402
109.898141 98.013 -176.6170
110.694508 97.982 -176.8878
111.496646 97.952 -177.1528
112.304596 97.924 -177.4119
113.118402 97.896 -177.6653
113.938104 97.868 -177.9131
114.763747 97.840 -178.1559
115.595372 97.812 -178.3941
116.433024 97.783 -178.6286
117.276746 97.753 -178.8604
118.126581 97.721 -179.0907
118.982575 97.689 -179.3210
119.844772 97.655 -179.5523
120.713217 97.620 -179.7853
121.587954 97.584 179.9799
122.469031 97.547 179.7433
123.356492 97.510 179.5057
124.250384 97.473 179.2678
125.150753 97.436 179.0309
126.057647 97.399 178.7965
126.971113 97.364 178.5660
127.891198 97.329 178.3405
128.817950 97.296 178.1204
129.751418 97.264 177.9056
130.691651 97.233 177.6957
131.638696 97.203 177.4905
132.592604 97.174 177.2897
133.553425 97.145 177.0938
134.521208 97.117 176.9033
135.496004 97.089 176.7191
136.477864 97.060 176.5421
137.466839 97.029 176.3735
138.462981 96.998 176.2144
139.466340 96.964 176.0657
140.476971 96.929 175.9282
141.494925 96.892 175.8020
142.520256 96.853 175.6865
143.553016 96.813 175.5806
144.593260 96.771 175.4825
145.641043 96.728 175.3903
146.696418 96.685 175.3021
147.759441 96.640 175.2164
148.830166 96.596 175.1324
149.908651 96.551 175.0497
150.994951 96.507 174.9685
152.089123 96.463 174.8896
153.191223 96.420 174.8136
154.301310 96.378 174.7418
155.419441 96.337 174.6753
156.545674 96.297 174.6157
157.680069 96.257 174.5648
158.822683 96.220 174.5242
159.973578 96.183 174.4957
161.132813 96.148 174.4805
162.300447 96.114 174.4794
163.476543 96.081 174.4928
164.661162 96.051 174.5207
165.854364 96.023 174.5624
167.056213 95.996 174.6169
168.266772 95.972 174.6824
169.486102 95.951 174.7562
170.714268 95.932 174.8354
171.951334 95.916 174.9169
173.197364 95.901 174.9973
174.452424 95.889 175.0733
175.716578 95.879 175.1418
176.989893 95.869 175.2001
178.272434 95.861 175.2460
179.564270 95.854 175.2778
180.865467 95.847 175.2948
182.176092 95.840 175.2966
183.496216 95.833 175.2836
184.825905 95.824 175.2563
186.165229 95.815 175.2154
187.514259 95.804 175.1617
188.873065 95.791 175.0958
190.241717 95.775 175.0183
191.620287 95.758 174.9301
193.008847 95.737 174.8317
194.407468 95.714 174.7241
195.816225 95.688 174.6080
197.235190 95.659 174.4843
198.664438 95.628 174.3540
200.104042 95.594 174.2184
201.554078 95.559 174.0792
203.014622 95.522 173.9387
204.485750 95.483 173.7996
205.967538 95.445 173.6642
207.460064 95.406 173.5341
208.963405 95.369 173.4104
210.477640 95.332 173.2931
212.002848 95.298 173.1817
213.539108 95.267 173.0754
215.086500 95.239 172.9731
216.645105 95.215 172.8741
218.215005 95.195 172.7781
219.796281 95.179 172.6851
221.389015 95.168 172.5954
222.993292 95.160 172.5091
224.609193 95.156 172.4264
226.236804 95.156 172.3471
227.876209 95.158 172.2712
229.527494 95.164 172.1983
231.190745 95.171 172.1281
232.866048 95.181 172.0605
234.553491 95.192 171.9951
236.253163 95.205 171.9318
237.965150 95.219 171.8703
239.689544 95.233 171.8104
241.426433 95.247 171.7521
243.175909 95.261 171.6953
244.938062 95.275 171.6401
246.712984 95.287 171.5866
248.500768 95.298 171.5346
250.301507 95.308 171.4837
252.115295 95.316 171.4338
253.942226 95.323 171.3847
255.782396 95.329 171.3364
257.635901 95.334 171.2888
259.502837 95.338 171.2426
261.383301 95.342 171.1982
263.277392 95.345 171.1568
265.185209 95.347 171.1195
267.106850 95.349 171.0876
269.042417 95.350 171.0619
270.992009 95.349 171.0420
272.955729 95.347 171.0270
274.933678 95.342 171.0153
276.925961 95.335 171.0054
278.932681 95.323 170.9965
280.953942 95.308 170.9875
282.989850 95.289 170.9783
285.040511 95.264 170.9684
287.106032 95.236 170.9576
289.186521 95.202 170.9457
291.282086 95.165 170.9324
293.392836 95.123 170.9177
295.518881 95.079 170.9017
297.660333 95.031 170.8849
299.817302 94.980 170.8682
301.989902 94.928 170.8524
304.178245 94.875 170.8389
306.382446 94.821 170.8286
308.602620 94.767 170.8221
310.838882 94.714 170.8196
313.091348 94.662 170.8212
315.360137 94.613 170.8263
317.645367 94.566 170.8344
319.947156 94.523 170.8451
322.265625 94.484 170.8576
324.600895 94.449 170.8713
326.953086 94.420 170.8855
329.322323 94.395 170.8993
331.708729 94.376 170.9120
334.112427 94.362 170.9229
336.533543 94.354 170.9316
338.972204 94.352 170.9377
341.428536 94.355 170.9412
343.902668 94.364 170.9424
346.394729 94.377 170.9414
348.904848 94.394 170.9388
351.433156 94.414 170.9350
353.979786 94.437 170.9307
356.544869 94.461 170.9263
359.128540 94.485 170.9225
361.730934 94.508 170.9194
364.352185 94.530 170.9170
366.992431 94.550 170.9148
369.651810 94.566 170.9124
372.330459 94.579 170.9091
375.028519 94.587 170.9050
377.746130 94.590 170.9005
380.483434 94.589 170.8961
383.240574 94.582 170.8928
386.017693 94.570 170.8915
388.814937 94.554 170.8928
391.632450 94.533 170.8973
394.470380 94.510 170.9050
397.328875 94.484 170.9158
400.208084 94.457 170.9292
403.108157 94.431 170.9445
406.029245 94.406 170.9612
408.971500 94.383 170.9790
411.935076 94.364 170.9977
414.920127 94.349 171.0173
417.926810 94.338 171.0378
420.955280 94.332 171.0593
424.005695 94.331 171.0815
427.078215 94.335 171.1046
430.173000 94.342 171.1285
433.290211 94.352 171.1533
436.430010 94.364 171.1791
439.592562 94.377 171.2061
442.778031 94.390 171.2345
445.986583 94.403 171.2641
449.218386 94.414 171.2949
452.473607 94.423 171.3268
455.752418 94.430 171.3596
459.054987 94.435 171.3936
462.381489 94.438 171.4290
465.732096 94.439 171.4660
469.106983 94.438 171.5045
472.506325 94.435 171.5442
475.930301 94.432 171.5847
479.379088 94.428 171.6252
482.852867 94.424 171.6649
486.351817 94.420 171.7029
489.876123 94.417 171.7387
493.425968 94.414 171.7717
497.001536 94.413 171.8012
500.603014 94.413 171.8270
504.230589 94.417 171.8486
507.884452 94.424 171.8660
511.564792 94.436 171.8792
515.271802 94.453 171.8882
519.005673 94.476 171.8933
522.766602 94.505 171.8945
526.554785 94.541 171.8920
530.370418 94.582 171.8861
534.213700 94.629 171.8771
538.084833 94.681 171.8657
541.984018 94.736 171.8524
545.911457 94.793 171.8383
549.867357 94.850 171.8243
553.851922 94.907 171.8112
557.865362 94.961 171.7998
561.907884 95.011 171.7901
565.979700 95.056 171.7820
570.081022 95.094 171.7751
574.212064 95.125 171.7686
578.373042 95.149 171.7618
582.564171 95.163 171.7539
586.785671 95.169 171.7443
591.037762 95.165 171.7325
595.320665 95.151 171.7186
599.634604 95.128 171.7028
603.979804 95.096 171.6853
608.356491 95.055 171.6665
612.764893 95.007 171.6466
617.205240 94.953 171.6257
621.677763 94.894 171.6036
626.182696 94.832 171.5801
630.720274 94.768 171.5547
635.290733 94.705 171.5267
639.894312 94.644 171.4958
644.531250 94.587 171.4615
649.201789 94.535 171.4238
653.906173 94.490 171.3827
658.644647 94.452 171.3384
663.417457 94.421 171.2911
668.224854 94.400 171.2410
673.067086 94.387 171.1880
677.944408 94.384 171.1320
682.857073 94.390 171.0726
687.805336 94.404 171.0092
692.789457 94.427 170.9410
697.809695 94.458 170.8674
702.866312 94.496 170.7877
707.959571 94.540 170.7019
713.089738 94.587 170.6100
718.257080 94.637 170.5128
723.461867 94.688 170.4111
728.704370 94.738 170.3063
733.984862 94.787 170.2000
739.303619 94.832 170.0933
744.660918 94.875 169.9872
750.057038 94.913 169.8816
755.492260 94.948 169.7758
760.966869 94.979 169.6682
766.481148 95.008 169.5570
772.035387 95.033 169.4401
777.629873 95.055 169.3160
783.264900 95.075 169.1837
788.940760 95.091 169.0426
794.657750 95.103 168.8929
800.416168 95.110 168.7350
806.216313 95.111 168.5694
812.058489 95.106 168.3967
817.943000 95.093 168.2175
823.870152 95.072 168.0323
829.840255 95.043 167.8416
835.853619 95.006 167.6458
841.910559 94.962 167.4453
848.011390 94.912 167.2403
854.156430 94.859 167.0308
860.346000 94.804 166.8167
866.580422 94.750 166.5977
872.860020 94.699 166.3739
879.185124 94.654 166.1456
885.556062 94.616 165.9132
891.973166 94.586 165.6772
898.436771 94.567 165.4383
904.947215 94.557 165.1969
911.504835 94.558 164.9536
918.109975 94.567 164.7089
924.762978 94.585 164.4633
931.464192 94.609 164.2172
938.213966 94.637 163.9707
945.012651 94.669 163.7238
951.860602 94.703 163.4757
958.758176 94.737 163.2256
965.705733 94.769 162.9728
972.703635 94.800 162.7164
979.752246 94.827 162.4559
986.851935 94.850 162.1915
994.003071 94.869 161.9235
1001.206027 94.885 161.6528
1008.461179 94.898 161.3803
1015.768904 94.909 161.1071
1023.129584 94.918 160.8336
1030.543603 94.928 160.5602
1038.011347 94.940 160.2869
1045.533205 94.953 160.0133
1053.109569 94.970 159.7393
1060.740836 94.990 159.4652
1068.427401 95.013 159.1915
1076.169666 95.039 158.9195
1083.968035 95.067 158.6507
1091.822915 95.096 158.3862
1099.734713 95.125 158.1268
1107.703844 95.153 157.8724
1115.730723 95.178 157.6226
1123.815768 95.198 157.3771
1131.959400 95.214 157.1362
1140.162045 95.223 156.9003
1148.424129 95.226 156.6708
1156.746083 95.222 156.4490
1165.128342 95.212 156.2361
1173.571343 95.198 156.0325
1182.075524 95.180 155.8384
1190.641331 95.161 155.6534
1199.269209 95.142 155.4766
1207.959608 95.124 155.3065
1216.712981 95.109 155.1417
1225.529785 95.099 154.9804
1234.410479 95.092 154.8211
1243.355526 95.091 154.6624
1252.365393 95.095 154.5036
1261.440549 95.103 154.3444
1270.581467 95.115 154.1849
1279.788624 95.131 154.0259
1289.062500 95.148 153.8690
1298.403578 95.167 153.7159
1307.812346 95.186 153.5682
1317.289293 95.205 153.4275
1326.834914 95.222 153.2947
1336.449707 95.237 153.1712
1346.134173 95.249 153.0580
1355.888816 95.257 152.9567
1365.714145 95.262 152.8680
1375.610673 95.262 152.7927
1385.578915 95.258 152.7309
1395.619391 95.250 152.6825
1405.732624 95.238 152.6473
1415.919142 95.222 152.6248
1426.179476 95.202 152.6144
1436.514160 95.179 152.6155
1446.923734 95.153 152.6272
1457.408740 95.125 152.6490
1467.969724 95.094 152.6808
1478.607238 95.060 152.7225
1489.321836 95.024 152.7744
1500.114076 94.986 152.8368
1510.984521 94.944 152.9101
1521.933737 94.900 152.9950
1532.962297 94.852 153.0922
1544.070773 94.802 153.2023
1555.259747 94.748 153.3254
1566.529800 94.691 153.4607
1577.881521 94.632 153.6061
1589.315501 94.571 153.7596
1600.832336 94.508 153.9199
1612.432627 94.444 154.0876
1624.116978 94.377 154.2654
1635.886000 94.310 154.4582
1647.740304 94.241 154.6712
1659.680509 94.172 154.9099
1671.707238 94.104 155.1781
1683.821118 94.037 155.4779
1696.022780 93.972 155.8094
1708.312860 93.910 156.1711
1720.692000 93.851 156.5601
1733.160843 93.798 156.9716
1745.720041 93.751 157.3990
1758.370248 93.710 157.8347
1771.112124 93.677 158.2710
1783.946332 93.650 158.7022
1796.873543 93.630 159.1249
1809.894429 93.615 159.5380
1823.009670 93.606 159.9423
1836.219950 93.602 160.3395
1849.525956 93.601 160.7315
1862.928384 93.604 161.1202
1876.427931 93.610 161.5070
1890.025301 93.617 161.8923
1903.721204 93.627 162.2752
1917.516352 93.638 162.6525
1931.411466 93.651 163.0192
1945.407270 93.665 163.3688
1959.504493 93.680 163.6955
1973.703870 93.696 163.9949
1988.006142 93.712 164.2642
2002.412054 93.728 164.5018
2016.922357 93.745 164.7068
2031.537808 93.762 164.8793
2046.259169 93.780 165.0202
2061.087206 93.800 165.1314
2076.022694 93.820 165.2148
2091.066410 93.843 165.2715
2106.219139 93.868 165.3028
2121.481671 93.895 165.3102
2136.854802 93.925 165.2965
2152.339333 93.957 165.2645
2167.936071 93.993 165.2166
2183.645829 94.031 165.1548
2199.469427 94.073 165.0811
2215.407689 94.118 164.9976
2231.461446 94.167 164.9069
2247.631536 94.220 164.8109
2263.918800 94.277 164.7115
2280.324089 94.339 164.6098
2296.848258 94.405 164.5071
2313.492167 94.475 164.4045
2330.256685 94.549 164.3027
2347.142685 94.627 164.2031
2364.151049 94.707 164.1066
2381.282662 94.790 164.0147
2398.538418 94.874 163.9282
2415.919216 94.960 163.8478
2433.425962 95.046 163.7731
2451.059570 95.131 163.7031
2468.820958 95.217 163.6354
2486.711052 95.300 163.5673
2504.730786 95.381 163.4952
2522.881098 95.459 163.4158
2541.162934 95.532 163.3257
2559.577248 95.600 163.2222
2578.125000 95.660 163.1028
2596.807157 95.713 162.9663
2615.624692 95.756 162.8128
2634.578586 95.789 162.6446
2653.669829 95.810 162.4658
2672.899414 95.818 162.2825
2692.268345 95.813 162.1026
2711.777632 95.795 161.9349
2731.428290 95.764 161.7884
2751.221345 95.721 161.6714
2771.157829 95.666 161.5914
2791.238781 95.601 161.5542
2811.465248 95.527 161.5643
2831.838284 95.444 161.6246
2852.358952 95.355 161.7371
2873.028321 95.260 161.9028
2893.847468 95.161 162.1227
2914.817480 95.058 162.3976
2935.939449 94.953 162.7282
2957.214476 94.847 163.1153
2978.643672 94.741 163.5593
3000.228152 94.637 164.0593
3021.969041 94.536 164.6127
3043.867475 94.441 165.2147
3065.924593 94.353 165.8576
3088.141547 94.274 166.5312
3110.519493 94.205 167.2235
3133.059600 94.146 167.9210
3155.763041 94.099 168.6106
3178.631001 94.062 169.2803
3201.664672 94.036 169.9203
3224.865254 94.020 170.5241
3248.233957 94.011 171.0884
3271.771999 94.011 171.6129
3295.480608 94.017 172.1002
3319.361019 94.030 172.5552
3343.414477 94.049 172.9845
3367.642236 94.075 173.3952
3392.045560 94.109 173.7944
3416.625721 94.152 174.1873
3441.383999 94.206 174.5756
3466.321686 94.273 174.9561
3491.440082 94.356 175.3203
3516.740496 94.454 175.6536
3542.224247 94.569 175.9370
3567.892664 94.699 176.1481
