* Measurement data measured by REW V5.31.3
* Source: EXCL: Headset (USB-C to 3.5mm Headphone Jack Adapter), MICROPHONE (Master Volume), 0, volume: 0.260
* Format: 256k Log Swept Sine, 1 sweep at -12.0 dBFS with no timing reference
* Dated: Feb 19, 2025 7:50:45 PM
* REW Settings:
*  C-weighting compensation: Off
*  Target level: 75.0 dB
* Note: ; 
* Measurement: Satyr 3 R9
* Smoothing: 1/6 octave
* Frequency Step: 96 ppo
* Start Frequency: 20.0 Hz
*
* Freq(Hz) SPL(dB) Phase(degrees)
20.141602 93.617 -32.7333
20.287556 93.629 -32.9531
20.434568 93.644 -33.2455
20.582645 93.664 -33.6000
20.731796 93.687 -34.0056
20.882027 93.713 -34.4515
21.033346 93.744 -34.9279
21.185763 93.778 -35.4265
21.339284 93.815 -35.9409
21.493917 93.857 -36.4664
21.649671 93.902 -36.9997
21.806553 93.952 -37.5392
21.964572 94.005 -38.0840
22.123737 94.061 -38.6342
22.284054 94.120 -39.1902
22.445534 94.181 -39.7523
22.608183 94.244 -40.3210
22.772012 94.308 -40.8967
22.937027 94.372 -41.4792
23.103238 94.436 -42.0685
23.270654 94.499 -42.6642
23.439282 94.561 -43.2661
23.609133 94.623 -43.8741
23.780215 94.683 -44.4881
23.952536 94.743 -45.1083
24.126106 94.803 -45.7351
24.300934 94.863 -46.3689
24.477028 94.923 -47.0100
24.654399 94.984 -47.6584
24.833055 95.045 -48.3139
25.013005 95.108 -48.9759
25.194260 95.173 -49.6431
25.376828 95.239 -50.3139
25.560719 95.306 -50.9868
25.745942 95.377 -51.6596
25.932508 95.449 -52.3306
26.120426 95.524 -52.9984
26.309705 95.602 -53.6622
26.500356 95.682 -54.3215
26.692388 95.766 -54.9768
26.885812 95.852 -55.6288
27.080638 95.942 -56.2790
27.276876 96.033 -56.9286
27.474535 96.127 -57.5792
27.673627 96.222 -58.2318
27.874161 96.317 -58.8871
28.076149 96.413 -59.5451
28.279600 96.507 -60.2054
28.484526 96.598 -60.8667
28.690937 96.687 -61.5277
28.898843 96.773 -62.1867
29.108256 96.854 -62.8420
29.319186 96.931 -63.4923
29.531645 97.004 -64.1366
29.745644 97.072 -64.7742
29.961193 97.136 -65.4053
30.178304 97.196 -66.0301
30.396989 97.253 -66.6494
30.617258 97.307 -67.2640
30.839123 97.359 -67.8747
31.062596 97.410 -68.4824
31.287688 97.462 -69.0874
31.514412 97.514 -69.6903
31.742778 97.568 -70.2913
31.972800 97.624 -70.8904
32.204488 97.685 -71.4877
32.437855 97.750 -72.0833
32.672913 97.820 -72.6772
32.909674 97.895 -73.2695
33.148151 97.976 -73.8601
33.388356 98.062 -74.4491
33.630302 98.153 -75.0362
33.874001 98.248 -75.6214
34.119466 98.345 -76.2043
34.366710 98.444 -76.7849
34.615745 98.544 -77.3632
34.866585 98.643 -77.9393
35.119243 98.740 -78.5137
35.373731 98.834 -79.0871
35.630064 98.924 -79.6604
35.888254 99.010 -80.2348
36.148315 99.091 -80.8116
36.410261 99.166 -81.3924
36.674104 99.236 -81.9788
36.939860 99.301 -82.5724
37.207542 99.362 -83.1747
37.477163 99.418 -83.7872
37.748738 99.471 -84.4110
38.022281 99.521 -85.0466
38.297806 99.568 -85.6943
38.575327 99.613 -86.3538
38.854860 99.656 -87.0242
39.136419 99.698 -87.7046
39.420017 99.739 -88.3937
39.705671 99.778 -89.0905
39.993395 99.817 -89.7940
40.283203 99.855 -90.5037
40.575112 99.892 -91.2192
40.869136 99.930 -91.9404
41.165290 99.967 -92.6672
41.463591 100.004 -93.3995
41.764053 100.042 -94.1373
42.066693 100.081 -94.8800
42.371525 100.121 -95.6271
42.678567 100.162 -96.3778
42.987834 100.204 -97.1311
43.299341 100.247 -97.8858
43.613106 100.291 -98.6408
43.929145 100.337 -99.3947
44.247473 100.383 -100.1467
44.568109 100.431 -100.8963
44.891068 100.480 -101.6438
45.216367 100.531 -102.3898
45.544023 100.583 -103.1360
45.874054 100.637 -103.8841
46.206476 100.692 -104.6358
46.541307 100.749 -105.3925
46.878565 100.806 -106.1550
47.218266 100.865 -106.9235
47.560429 100.924 -107.6973
47.905072 100.983 -108.4755
48.252212 101.041 -109.2571
48.601867 101.099 -110.0412
48.954056 101.155 -110.8271
49.308798 101.209 -111.6148
49.666109 101.262 -112.4045
50.026010 101.313 -113.1968
50.388520 101.362 -113.9922
50.753656 101.409 -114.7910
51.121437 101.454 -115.5934
51.491884 101.497 -116.3995
51.865016 101.538 -117.2087
52.240851 101.578 -118.0207
52.619410 101.615 -118.8348
53.000712 101.651 -119.6504
53.384777 101.684 -120.4671
53.771625 101.715 -121.2841
54.161276 101.743 -122.1011
54.553751 101.769 -122.9177
54.949070 101.791 -123.7338
55.347254 101.810 -124.5492
55.748323 101.826 -125.3643
56.152298 101.839 -126.1795
56.559201 101.849 -126.9953
56.969052 101.856 -127.8121
57.381873 101.862 -128.6299
57.797686 101.866 -129.4482
58.216512 101.869 -130.2654
58.638373 101.873 -131.0788
59.063291 101.877 -131.8848
59.491288 101.883 -132.6801
59.922386 101.890 -133.4621
60.356608 101.899 -134.2298
60.793977 101.909 -134.9841
61.234515 101.921 -135.7274
61.678246 101.933 -136.4627
62.125192 101.944 -137.1931
62.575377 101.954 -137.9209
63.028824 101.961 -138.6474
63.485557 101.966 -139.3732
63.945599 101.968 -140.0980
64.408975 101.967 -140.8211
64.875709 101.962 -141.5415
65.345825 101.955 -142.2581
65.819348 101.945 -142.9701
66.296302 101.932 -143.6770
66.776713 101.918 -144.3786
67.260604 101.902 -145.0750
67.748002 101.885 -145.7664
68.238932 101.868 -146.4533
68.733420 101.850 -147.1360
69.231490 101.832 -147.8148
69.733170 101.813 -148.4900
70.238485 101.794 -149.1618
70.747463 101.775 -149.8301
71.260128 101.755 -150.4948
71.776508 101.736 -151.1555
72.296630 101.715 -151.8117
72.820521 101.694 -152.4624
73.348209 101.672 -153.1071
73.879720 101.650 -153.7449
74.415083 101.626 -154.3755
74.954326 101.602 -154.9988
75.497475 101.576 -155.6147
76.044561 101.549 -156.2235
76.595612 101.521 -156.8254
77.150655 101.492 -157.4204
77.709720 101.461 -158.0086
78.272837 101.431 -158.5900
78.840034 101.399 -159.1646
79.411342 101.366 -159.7326
79.986789 101.333 -160.2941
80.566406 101.299 -160.8494
81.150224 101.265 -161.3986
81.738272 101.230 -161.9417
82.330581 101.194 -162.4789
82.927182 101.158 -163.0101
83.528107 101.121 -163.5356
84.133386 101.084 -164.0554
84.743051 101.046 -164.5696
85.357134 101.009 -165.0780
85.975667 100.971 -165.5804
86.598682 100.933 -166.0765
87.226212 100.896 -166.5659
87.858289 100.860 -167.0485
88.494946 100.825 -167.5244
89.136217 100.791 -167.9938
89.782135 100.759 -168.4568
90.432733 100.728 -168.9138
91.088046 100.698 -169.3647
91.748108 100.668 -169.8095
92.412952 100.640 -170.2480
93.082615 100.611 -170.6799
93.757130 100.582 -171.1049
94.436533 100.553 -171.5228
95.120859 100.522 -171.9336
95.810144 100.490 -172.3376
96.504423 100.456 -172.7351
97.203734 100.420 -173.1266
97.908112 100.381 -173.5126
98.617595 100.341 -173.8934
99.332219 100.298 -174.2692
100.052021 100.253 -174.6402
100.777039 100.206 -175.0065
101.507311 100.158 -175.3682
102.242875 100.110 -175.7254
102.983769 100.061 -176.0781
103.730032 100.012 -176.4262
104.481702 99.964 -176.7695
105.238820 99.916 -177.1075
106.001424 99.870 -177.4399
106.769554 99.825 -177.7663
107.543250 99.781 -178.0866
108.322553 99.740 -178.4006
109.107503 99.700 -178.7083
109.898141 99.661 -179.0097
110.694508 99.624 -179.3054
111.496646 99.588 -179.5958
112.304596 99.553 -179.8815
113.118402 99.518 179.8367
113.938104 99.483 179.5585
114.763747 99.447 179.2834
115.595372 99.411 179.0115
116.433024 99.374 178.7429
117.276746 99.336 178.4780
118.126581 99.298 178.2173
118.982575 99.258 177.9617
119.844772 99.217 177.7116
120.713217 99.175 177.4675
121.587954 99.132 177.2296
122.469031 99.089 176.9977
123.356492 99.046 176.7717
124.250384 99.003 176.5510
125.150753 98.961 176.3349
126.057647 98.920 176.1228
126.971113 98.880 175.9142
127.891198 98.841 175.7087
128.817950 98.804 175.5062
129.751418 98.769 175.3066
130.691651 98.735 175.1104
131.638696 98.702 174.9175
132.592604 98.671 174.7285
133.553425 98.641 174.5435
134.521208 98.611 174.3628
135.496004 98.582 174.1864
136.477864 98.552 174.0142
137.466839 98.521 173.8458
138.462981 98.489 173.6807
139.466340 98.456 173.5182
140.476971 98.420 173.3575
141.494925 98.382 173.1978
142.520256 98.342 173.0383
143.553016 98.300 172.8785
144.593260 98.255 172.7184
145.641043 98.208 172.5587
146.696418 98.159 172.4001
147.759441 98.108 172.2440
148.830166 98.056 172.0912
149.908651 98.003 171.9432
150.994951 97.950 171.8007
152.089123 97.897 171.6646
153.191223 97.844 171.5352
154.301310 97.793 171.4129
155.419441 97.742 171.2978
156.545674 97.692 171.1898
157.680069 97.644 171.0890
158.822683 97.595 170.9952
159.973578 97.547 170.9091
161.132813 97.500 170.8310
162.300447 97.452 170.7617
163.476543 97.403 170.7017
164.661162 97.354 170.6519
165.854364 97.304 170.6127
167.056213 97.253 170.5849
168.266772 97.202 170.5688
169.486102 97.149 170.5651
170.714268 97.096 170.5744
171.951334 97.043 170.5978
173.197364 96.989 170.6363
174.452424 96.934 170.6909
175.716578 96.879 170.7629
176.989893 96.824 170.8532
178.272434 96.768 170.9628
179.564270 96.713 171.0923
180.865467 96.658 171.2425
182.176092 96.603 171.4135
183.496216 96.549 171.6054
184.825905 96.496 171.8178
186.165229 96.443 172.0502
187.514259 96.392 172.3012
188.873065 96.342 172.5694
190.241717 96.294 172.8528
191.620287 96.248 173.1487
193.008847 96.205 173.4544
194.407468 96.164 173.7666
195.816225 96.125 174.0822
197.235190 96.090 174.3979
198.664438 96.058 174.7109
200.104042 96.030 175.0180
201.554078 96.005 175.3161
203.014622 95.984 175.6017
204.485750 95.967 175.8711
205.967538 95.955 176.1208
207.460064 95.947 176.3475
208.963405 95.943 176.5486
210.477640 95.945 176.7222
212.002848 95.952 176.8669
213.539108 95.964 176.9824
215.086500 95.981 177.0685
216.645105 96.002 177.1258
218.215005 96.029 177.1553
219.796281 96.060 177.1588
221.389015 96.094 177.1385
222.993292 96.131 177.0967
224.609193 96.171 177.0363
226.236804 96.212 176.9598
227.876209 96.254 176.8699
229.527494 96.296 176.7689
231.190745 96.339 176.6587
232.866048 96.381 176.5409
234.553491 96.422 176.4171
236.253163 96.462 176.2888
237.965150 96.501 176.1573
239.689544 96.539 176.0240
241.426433 96.575 175.8901
243.175909 96.609 175.7565
244.938062 96.642 175.6241
246.712984 96.672 175.4933
248.500768 96.699 175.3649
250.301507 96.725 175.2391
252.115295 96.748 175.1163
253.942226 96.768 174.9968
255.782396 96.786 174.8809
257.635901 96.802 174.7687
259.502837 96.816 174.6602
261.383301 96.828 174.5557
263.277392 96.839 174.4552
265.185209 96.847 174.3589
267.106850 96.853 174.2669
269.042417 96.857 174.1794
270.992009 96.859 174.0963
272.955729 96.858 174.0177
274.933678 96.854 173.9433
276.925961 96.847 173.8729
278.932681 96.836 173.8064
280.953942 96.821 173.7436
282.989850 96.802 173.6846
285.040511 96.778 173.6294
287.106032 96.750 173.5780
289.186521 96.718 173.5306
291.282086 96.681 173.4872
293.392836 96.640 173.4477
295.518881 96.596 173.4122
297.660333 96.549 173.3806
299.817302 96.499 173.3527
301.989902 96.447 173.3278
304.178245 96.394 173.3054
306.382446 96.340 173.2851
308.602620 96.286 173.2664
310.838882 96.233 173.2488
313.091348 96.182 173.2325
315.360137 96.133 173.2173
317.645367 96.087 173.2034
319.947156 96.044 173.1908
322.265625 96.005 173.1795
324.600895 95.970 173.1693
326.953086 95.940 173.1599
329.322323 95.915 173.1510
331.708729 95.895 173.1421
334.112427 95.880 173.1331
336.533543 95.871 173.1238
338.972204 95.867 173.1147
341.428536 95.868 173.1056
343.902668 95.874 173.0969
346.394729 95.885 173.0887
348.904848 95.899 173.0809
351.433156 95.916 173.0736
353.979786 95.936 173.0670
356.544869 95.956 173.0614
359.128540 95.977 173.0572
361.730934 95.997 173.0549
364.352185 96.015 173.0553
366.992431 96.030 173.0590
369.651810 96.041 173.0668
372.330459 96.049 173.0793
375.028519 96.052 173.0969
377.746130 96.050 173.1198
380.483434 96.043 173.1479
383.240574 96.032 173.1805
386.017693 96.016 173.2170
388.814937 95.997 173.2562
391.632450 95.974 173.2969
394.470380 95.948 173.3382
397.328875 95.922 173.3790
400.208084 95.895 173.4189
403.108157 95.868 173.4574
406.029245 95.844 173.4947
408.971500 95.822 173.5310
411.935076 95.803 173.5667
414.920127 95.788 173.6022
417.926810 95.778 173.6378
420.955280 95.773 173.6740
424.005695 95.772 173.7109
427.078215 95.775 173.7487
430.173000 95.781 173.7873
433.290211 95.791 173.8264
436.430010 95.802 173.8659
439.592562 95.814 173.9055
442.778031 95.826 173.9451
445.986583 95.837 173.9845
449.218386 95.846 174.0240
452.473607 95.853 174.0637
455.752418 95.857 174.1037
459.054987 95.859 174.1444
462.381489 95.858 174.1859
465.732096 95.854 174.2281
469.106983 95.849 174.2713
472.506325 95.842 174.3153
475.930301 95.834 174.3601
479.379088 95.825 174.4056
482.852867 95.816 174.4519
486.351817 95.806 174.4990
489.876123 95.797 174.5471
493.425968 95.788 174.5960
497.001536 95.780 174.6457
500.603014 95.775 174.6960
504.230589 95.772 174.7466
507.884452 95.773 174.7971
511.564792 95.778 174.8475
515.271802 95.789 174.8976
519.005673 95.805 174.9478
522.766602 95.827 174.9980
526.554785 95.856 175.0487
530.370418 95.890 175.1000
534.213700 95.931 175.1520
538.084833 95.977 175.2047
541.984018 96.026 175.2578
545.911457 96.078 175.3110
549.867357 96.132 175.3640
553.851922 96.185 175.4162
557.865362 96.236 175.4674
561.907884 96.283 175.5174
565.979700 96.325 175.5659
570.081022 96.362 175.6132
574.212064 96.390 175.6594
578.373042 96.411 175.7050
582.564171 96.422 175.7509
586.785671 96.423 175.7985
591.037762 96.413 175.8498
595.320665 96.393 175.9067
599.634604 96.363 175.9715
603.979804 96.323 176.0453
608.356491 96.275 176.1284
612.764893 96.220 176.2195
617.205240 96.160 176.3159
621.677763 96.097 176.4139
626.182696 96.032 176.5099
630.720274 95.968 176.6006
635.290733 95.907 176.6838
639.894312 95.848 176.7582
644.531250 95.795 176.8235
649.201789 95.747 176.8800
653.906173 95.707 176.9285
658.644647 95.673 176.9696
663.417457 95.648 177.0042
668.224854 95.632 177.0332
673.067086 95.624 177.0570
677.944408 95.625 177.0761
682.857073 95.635 177.0907
687.805336 95.653 177.1008
692.789457 95.679 177.1064
697.809695 95.713 177.1080
702.866312 95.752 177.1058
707.959571 95.797 177.1005
713.089738 95.846 177.0930
718.257080 95.897 177.0840
723.461867 95.949 177.0741
728.704370 96.001 177.0634
733.984862 96.051 177.0519
739.303619 96.099 177.0392
744.660918 96.143 177.0249
750.057038 96.183 177.0087
755.492260 96.220 176.9903
760.966869 96.252 176.9698
766.481148 96.281 176.9472
772.035387 96.307 176.9227
777.629873 96.330 176.8961
783.264900 96.350 176.8671
788.940760 96.368 176.8351
794.657750 96.382 176.7994
800.416168 96.391 176.7593
806.216313 96.396 176.7141
812.058489 96.394 176.6635
817.943000 96.386 176.6071
823.870152 96.370 176.5447
829.840255 96.346 176.4765
835.853619 96.315 176.4028
841.910559 96.277 176.3239
848.011390 96.234 176.2403
854.156430 96.188 176.1522
860.346000 96.141 176.0599
866.580422 96.095 175.9633
872.860020 96.054 175.8625
879.185124 96.018 175.7573
885.556062 95.991 175.6476
891.973166 95.973 175.5332
898.436771 95.965 175.4144
904.947215 95.969 175.2912
911.504835 95.982 175.1637
918.109975 96.005 175.0319
924.762978 96.036 174.8956
931.464192 96.074 174.7549
938.213966 96.116 174.6097
945.012651 96.160 174.4606
951.860602 96.206 174.3085
958.758176 96.250 174.1548
965.705733 96.293 174.0011
972.703635 96.333 173.8492
979.752246 96.369 173.7004
986.851935 96.403 173.5554
994.003071 96.433 173.4144
1001.206027 96.461 173.2770
1008.461179 96.486 173.1426
1015.768904 96.512 173.0105
1023.129584 96.537 172.8798
1030.543603 96.565 172.7497
1038.011347 96.595 172.6190
1045.533205 96.630 172.4860
1053.109569 96.669 172.3491
1060.740836 96.713 172.2063
1068.427401 96.761 172.0556
1076.169666 96.814 171.8956
1083.968035 96.870 171.7253
1091.822915 96.927 171.5447
1099.734713 96.984 171.3543
1107.703844 97.038 171.1557
1115.730723 97.089 170.9509
1123.815768 97.133 170.7423
1131.959400 97.171 170.5325
1140.162045 97.201 170.3246
1148.424129 97.223 170.1212
1156.746083 97.238 169.9255
1165.128342 97.245 169.7397
1173.571343 97.247 169.5656
1182.075524 97.245 169.4042
1190.641331 97.240 169.2560
1199.269209 97.235 169.1208
1207.959608 97.230 168.9985
1216.712981 97.228 168.8888
1225.529785 97.230 168.7911
1234.410479 97.237 168.7046
1243.355526 97.249 168.6288
1252.365393 97.266 168.5630
1261.440549 97.289 168.5066
1270.581467 97.318 168.4590
1279.788624 97.351 168.4196
1289.062500 97.388 168.3881
1298.403578 97.427 168.3643
1307.812346 97.469 168.3484
1317.289293 97.513 168.3401
1326.834914 97.556 168.3392
1336.449707 97.599 168.3449
1346.134173 97.641 168.3563
1355.888816 97.680 168.3725
1365.714145 97.717 168.3931
1375.610673 97.751 168.4183
1385.578915 97.781 168.4491
1395.619391 97.807 168.4861
1405.732624 97.830 168.5300
1415.919142 97.849 168.5806
1426.179476 97.865 168.6375
1436.514160 97.879 168.7002
1446.923734 97.891 168.7678
1457.408740 97.901 168.8393
1467.969724 97.909 168.9138
1478.607238 97.916 168.9903
1489.321836 97.921 169.0676
1500.114076 97.925 169.1450
1510.984521 97.926 169.2219
1521.933737 97.925 169.2977
1532.962297 97.922 169.3719
1544.070773 97.915 169.4437
1555.259747 97.905 169.5131
1566.529800 97.891 169.5805
1577.881521 97.874 169.6472
1589.315501 97.853 169.7159
1600.832336 97.829 169.7900
1612.432627 97.803 169.8737
1624.116978 97.775 169.9713
1635.886000 97.747 170.0863
1647.740304 97.719 170.2203
1659.680509 97.693 170.3724
1671.707238 97.669 170.5389
1683.821118 97.649 170.7143
1696.022780 97.632 170.8921
1708.312860 97.617 171.0662
1720.692000 97.605 171.2319
1733.160843 97.595 171.3870
1745.720041 97.587 171.5319
1758.370248 97.579 171.6694
1771.112124 97.573 171.8041
1783.946332 97.569 171.9416
1796.873543 97.566 172.0862
1809.894429 97.566 172.2411
1823.009670 97.570 172.4072
1836.219950 97.578 172.5840
1849.525956 97.589 172.7689
1862.928384 97.605 172.9570
1876.427931 97.623 173.1420
1890.025301 97.644 173.3172
1903.721204 97.667 173.4776
1917.516352 97.689 173.6203
1931.411466 97.709 173.7440
1945.407270 97.728 173.8486
1959.504493 97.744 173.9354
1973.703870 97.757 174.0073
1988.006142 97.767 174.0685
2002.412054 97.775 174.1233
2016.922357 97.782 174.1744
2031.537808 97.789 174.2229
2046.259169 97.798 174.2678
2061.087206 97.810 174.3067
2076.022694 97.827 174.3355
2091.066410 97.849 174.3489
2106.219139 97.876 174.3410
2121.481671 97.908 174.3069
2136.854802 97.946 174.2439
2152.339333 97.988 174.1519
2167.936071 98.033 174.0336
2183.645829 98.083 173.8930
2199.469427 98.136 173.7348
2215.407689 98.192 173.5631
2231.461446 98.254 173.3809
2247.631536 98.320 173.1897
2263.918800 98.392 172.9895
2280.324089 98.468 172.7791
2296.848258 98.550 172.5568
2313.492167 98.637 172.3211
2330.256685 98.727 172.0710
2347.142685 98.821 171.8063
2364.151049 98.916 171.5273
2381.282662 99.012 171.2349
2398.538418 99.107 170.9306
2415.919216 99.201 170.6168
2433.425962 99.291 170.2960
2451.059570 99.378 169.9708
2468.820958 99.461 169.6435
2486.711052 99.538 169.3163
2504.730786 99.609 168.9906
2522.881098 99.674 168.6670
2541.162934 99.732 168.3453
2559.577248 99.781 168.0248
2578.125000 99.823 167.7046
2596.807157 99.855 167.3843
2615.624692 99.876 167.0644
2634.578586 99.887 166.7462
2653.669829 99.887 166.4322
2672.899414 99.875 166.1261
2692.268345 99.850 165.8324
2711.777632 99.814 165.5562
2731.428290 99.765 165.3026
2751.221345 99.704 165.0772
2771.157829 99.632 164.8848
2791.238781 99.548 164.7300
2811.465248 99.455 164.6174
2831.838284 99.352 164.5511
2852.358952 99.240 164.5356
2873.028321 99.120 164.5758
2893.847468 98.993 164.6764
2914.817480 98.860 164.8425
2935.939449 98.721 165.0786
2957.214476 98.579 165.3887
2978.643672 98.434 165.7756
3000.228152 98.290 166.2408
3021.969041 98.146 166.7843
3043.867475 98.006 167.4046
3065.924593 97.872 168.0981
3088.141547 97.745 168.8593
3110.519493 97.628 169.6808
3133.059600 97.523 170.5528
3155.763041 97.431 171.4633
3178.631001 97.354 172.3983
3201.664672 97.293 173.3417
3224.865254 97.250 174.2758
3248.233957 97.223 175.1821
3271.771999 97.213 176.0428
3295.480608 97.219 176.8419
3319.361019 97.239 177.5665
3343.414477 97.272 178.2079
3367.642236 97.315 178.7618
3392.045560 97.367 179.2284
3416.625721 97.424 179.6120
3441.383999 97.485 179.9205
3466.321686 97.549 -179.8359
