* Measurement data measured by REW V5.31.3
* Source: EXCL: Headset (USB-C to 3.5mm Headphone Jack Adapter), MICROPHONE (Master Volume), 0, volume: 0.260
* Format: 256k Log Swept Sine, 1 sweep at -12.0 dBFS with no timing reference
* Dated: Feb 14, 2025 1:50:59 PM
* REW Settings:
*  C-weighting compensation: Off
*  Target level: 75.0 dB
* Note: ; 
* Measurement: Satyr 3 R3
* Smoothing: 1/6 octave
* Frequency Step: 96 ppo
* Start Frequency: 20.0 Hz
*
* Freq(Hz) SPL(dB) Phase(degrees)
20.141602 95.734 -32.8216
20.287556 95.751 -33.0460
20.434568 95.772 -33.3458
20.582645 95.795 -33.7122
20.731796 95.816 -34.1357
20.882027 95.833 -34.6068
21.033346 95.844 -35.1172
21.185763 95.847 -35.6592
21.339284 95.843 -36.2264
21.493917 95.831 -36.8133
21.649671 95.813 -37.4153
21.806553 95.788 -38.0283
21.964572 95.758 -38.6490
22.123737 95.727 -39.2746
22.284054 95.694 -39.9028
22.445534 95.663 -40.5317
22.608183 95.634 -41.1601
22.772012 95.611 -41.7874
22.937027 95.594 -42.4135
23.103238 95.585 -43.0390
23.270654 95.584 -43.6648
23.439282 95.594 -44.2925
23.609133 95.614 -44.9235
23.780215 95.645 -45.5594
23.952536 95.687 -46.2015
24.126106 95.739 -46.8505
24.300934 95.802 -47.5067
24.477028 95.875 -48.1695
24.654399 95.955 -48.8378
24.833055 96.042 -49.5099
25.013005 96.135 -50.1836
25.194260 96.232 -50.8566
25.376828 96.331 -51.5270
25.560719 96.432 -52.1930
25.745942 96.532 -52.8535
25.932508 96.632 -53.5085
26.120426 96.729 -54.1584
26.309705 96.823 -54.8047
26.500356 96.914 -55.4493
26.692388 97.001 -56.0945
26.885812 97.084 -56.7423
27.080638 97.162 -57.3947
27.276876 97.235 -58.0532
27.474535 97.304 -58.7184
27.673627 97.370 -59.3905
27.874161 97.434 -60.0690
28.076149 97.498 -60.7530
28.279600 97.565 -61.4416
28.484526 97.638 -62.1334
28.690937 97.719 -62.8273
28.898843 97.812 -63.5223
29.108256 97.917 -64.2174
29.319186 98.038 -64.9116
29.531645 98.173 -65.6042
29.745644 98.323 -66.2940
29.961193 98.486 -66.9802
30.178304 98.657 -67.6619
30.396989 98.834 -68.3383
30.617258 99.012 -69.0091
30.839123 99.186 -69.6743
31.062596 99.350 -70.3346
31.287688 99.501 -70.9908
31.514412 99.633 -71.6441
31.742778 99.743 -72.2959
31.972800 99.827 -72.9469
32.204488 99.884 -73.5979
32.437855 99.913 -74.2488
32.672913 99.912 -74.8992
32.909674 99.883 -75.5480
33.148151 99.827 -76.1940
33.388356 99.747 -76.8359
33.630302 99.645 -77.4722
33.874001 99.526 -78.1021
34.119466 99.393 -78.7247
34.366710 99.251 -79.3396
34.615745 99.104 -79.9468
34.866585 98.957 -80.5465
35.119243 98.814 -81.1394
35.373731 98.679 -81.7261
35.630064 98.556 -82.3079
35.888254 98.447 -82.8859
36.148315 98.357 -83.4615
36.410261 98.286 -84.0355
36.674104 98.237 -84.6089
36.939860 98.212 -85.1819
37.207542 98.210 -85.7544
37.477163 98.231 -86.3261
37.748738 98.277 -86.8963
38.022281 98.346 -87.4645
38.297806 98.438 -88.0303
38.575327 98.552 -88.5936
38.854860 98.686 -89.1546
39.136419 98.840 -89.7137
39.420017 99.012 -90.2718
39.705671 99.201 -90.8296
39.993395 99.407 -91.3882
40.283203 99.628 -91.9489
40.575112 99.863 -92.5128
40.869136 100.110 -93.0815
41.165290 100.369 -93.6562
41.463591 100.638 -94.2383
41.764053 100.913 -94.8287
42.066693 101.194 -95.4279
42.371525 101.477 -96.0363
42.678567 101.760 -96.6537
42.987834 102.040 -97.2798
43.299341 102.315 -97.9140
43.613106 102.581 -98.5561
43.929145 102.838 -99.2056
44.247473 103.082 -99.8623
44.568109 103.312 -100.5261
44.891068 103.527 -101.1966
45.216367 103.725 -101.8736
45.544023 103.905 -102.5565
45.874054 104.068 -103.2447
46.206476 104.212 -103.9373
46.541307 104.337 -104.6337
46.878565 104.445 -105.3333
47.218266 104.536 -106.0358
47.560429 104.610 -106.7409
47.905072 104.668 -107.4485
48.252212 104.712 -108.1584
48.601867 104.743 -108.8707
48.954056 104.762 -109.5856
49.308798 104.771 -110.3032
49.666109 104.771 -111.0240
50.026010 104.765 -111.7486
50.388520 104.754 -112.4774
50.753656 104.741 -113.2104
51.121437 104.726 -113.9474
51.491884 104.710 -114.6879
51.865016 104.697 -115.4314
52.240851 104.685 -116.1773
52.619410 104.676 -116.9252
53.000712 104.671 -117.6748
53.384777 104.668 -118.4259
53.771625 104.668 -119.1785
54.161276 104.669 -119.9324
54.553751 104.671 -120.6875
54.949070 104.674 -121.4436
55.347254 104.676 -122.2007
55.748323 104.676 -122.9585
56.152298 104.673 -123.7168
56.559201 104.668 -124.4752
56.969052 104.660 -125.2330
57.381873 104.648 -125.9897
57.797686 104.633 -126.7445
58.216512 104.614 -127.4966
58.638373 104.592 -128.2449
59.063291 104.567 -128.9888
59.491288 104.539 -129.7273
59.922386 104.508 -130.4603
60.356608 104.474 -131.1881
60.793977 104.439 -131.9117
61.234515 104.401 -132.6326
61.678246 104.362 -133.3524
62.125192 104.321 -134.0723
62.575377 104.280 -134.7934
63.028824 104.239 -135.5157
63.485557 104.198 -136.2391
63.945599 104.159 -136.9626
64.408975 104.121 -137.6853
64.875709 104.085 -138.4059
65.345825 104.051 -139.1233
65.819348 104.019 -139.8365
66.296302 103.989 -140.5450
66.776713 103.961 -141.2484
67.260604 103.936 -141.9465
67.748002 103.912 -142.6394
68.238932 103.890 -143.3273
68.733420 103.869 -144.0103
69.231490 103.850 -144.6887
69.733170 103.831 -145.3624
70.238485 103.814 -146.0316
70.747463 103.798 -146.6960
71.260128 103.782 -147.3558
71.776508 103.767 -148.0108
72.296630 103.752 -148.6611
72.820521 103.738 -149.3066
73.348209 103.724 -149.9473
73.879720 103.711 -150.5832
74.415083 103.698 -151.2138
74.954326 103.685 -151.8389
75.497475 103.672 -152.4578
76.044561 103.658 -153.0700
76.595612 103.643 -153.6750
77.150655 103.626 -154.2729
77.709720 103.607 -154.8636
78.272837 103.586 -155.4475
78.840034 103.561 -156.0249
79.411342 103.533 -156.5963
79.986789 103.501 -157.1620
80.566406 103.466 -157.7223
81.150224 103.426 -158.2777
81.738272 103.383 -158.8282
82.330581 103.337 -159.3740
82.927182 103.288 -159.9148
83.528107 103.239 -160.4501
84.133386 103.190 -160.9796
84.743051 103.144 -161.5028
85.357134 103.103 -162.0195
85.975667 103.070 -162.5297
86.598682 103.049 -163.0338
87.226212 103.043 -163.5321
87.858289 103.056 -164.0249
88.494946 103.089 -164.5121
89.136217 103.145 -164.9939
89.782135 103.226 -165.4700
90.432733 103.329 -165.9403
91.088046 103.454 -166.4046
91.748108 103.597 -166.8630
92.412952 103.754 -167.3151
93.082615 103.920 -167.7610
93.757130 104.088 -168.2007
94.436533 104.254 -168.6343
95.120859 104.413 -169.0622
95.810144 104.560 -169.4847
96.504423 104.693 -169.9023
97.203734 104.809 -170.3150
97.908112 104.907 -170.7233
98.617595 104.988 -171.1272
99.332219 105.052 -171.5265
100.052021 105.102 -171.9210
100.777039 105.138 -172.3106
101.507311 105.164 -172.6951
102.242875 105.181 -173.0742
102.983769 105.192 -173.4477
103.730032 105.197 -173.8154
104.481702 105.198 -174.1769
105.238820 105.194 -174.5324
106.001424 105.184 -174.8817
106.769554 105.168 -175.2251
107.543250 105.145 -175.5628
108.322553 105.111 -175.8952
109.107503 105.067 -176.2226
109.898141 105.010 -176.5454
110.694508 104.939 -176.8640
111.496646 104.855 -177.1787
112.304596 104.758 -177.4895
113.118402 104.649 -177.7965
113.938104 104.529 -178.0996
114.763747 104.400 -178.3984
115.595372 104.265 -178.6926
116.433024 104.126 -178.9820
117.276746 103.984 -179.2664
118.126581 103.843 -179.5459
118.982575 103.702 -179.8208
119.844772 103.564 179.9086
120.713217 103.428 179.6422
121.587954 103.295 179.3799
122.469031 103.163 179.1218
123.356492 103.033 178.8681
124.250384 102.903 178.6190
125.150753 102.771 178.3749
126.057647 102.636 178.1359
126.971113 102.497 177.9023
127.891198 102.353 177.6741
128.817950 102.202 177.4514
129.751418 102.046 177.2339
130.691651 101.882 177.0217
131.638696 101.714 176.8145
132.592604 101.541 176.6122
133.553425 101.365 176.4148
134.521208 101.190 176.2227
135.496004 101.019 176.0359
136.477864 100.854 175.8551
137.466839 100.700 175.6805
138.462981 100.559 175.5127
139.466340 100.435 175.3521
140.476971 100.329 175.1989
141.494925 100.242 175.0535
142.520256 100.174 174.9159
143.553016 100.123 174.7860
144.593260 100.086 174.6634
145.641043 100.060 174.5476
146.696418 100.042 174.4382
147.759441 100.026 174.3345
148.830166 100.009 174.2363
149.908651 99.989 174.1432
150.994951 99.963 174.0553
152.089123 99.930 173.9730
153.191223 99.889 173.8969
154.301310 99.840 173.8276
155.419441 99.786 173.7664
156.545674 99.728 173.7144
157.680069 99.666 173.6727
158.822683 99.604 173.6427
159.973578 99.543 173.6254
161.132813 99.484 173.6220
162.300447 99.429 173.6331
163.476543 99.377 173.6593
164.661162 99.330 173.7010
165.854364 99.288 173.7581
167.056213 99.252 173.8302
168.266772 99.222 173.9167
169.486102 99.197 174.0168
170.714268 99.180 174.1293
171.951334 99.170 174.2531
173.197364 99.167 174.3865
174.452424 99.171 174.5283
175.716578 99.183 174.6764
176.989893 99.201 174.8290
178.272434 99.226 174.9841
179.564270 99.255 175.1393
180.865467 99.288 175.2926
182.176092 99.323 175.4416
183.496216 99.360 175.5841
184.825905 99.398 175.7181
186.165229 99.435 175.8415
187.514259 99.471 175.9525
188.873065 99.507 176.0495
190.241717 99.542 176.1313
191.620287 99.577 176.1971
193.008847 99.612 176.2460
194.407468 99.647 176.2779
195.816225 99.682 176.2926
197.235190 99.718 176.2903
198.664438 99.753 176.2713
200.104042 99.787 176.2361
201.554078 99.819 176.1852
203.014622 99.849 176.1194
204.485750 99.876 176.0397
205.967538 99.899 175.9470
207.460064 99.917 175.8427
208.963405 99.931 175.7279
210.477640 99.940 175.6043
212.002848 99.945 175.4733
213.539108 99.946 175.3364
215.086500 99.943 175.1950
216.645105 99.937 175.0504
218.215005 99.928 174.9033
219.796281 99.916 174.7545
221.389015 99.901 174.6046
222.993292 99.882 174.4542
224.609193 99.859 174.3038
226.236804 99.832 174.1539
227.876209 99.800 174.0051
229.527494 99.761 173.8578
231.190745 99.717 173.7125
232.866048 99.667 173.5693
234.553491 99.610 173.4283
236.253163 99.549 173.2899
237.965150 99.483 173.1538
239.689544 99.413 173.0201
241.426433 99.341 172.8886
243.175909 99.267 172.7593
244.938062 99.193 172.6321
246.712984 99.119 172.5067
248.500768 99.047 172.3828
250.301507 98.977 172.2605
252.115295 98.910 172.1395
253.942226 98.848 172.0197
255.782396 98.790 171.9016
257.635901 98.738 171.7855
259.502837 98.691 171.6718
261.383301 98.650 171.5610
263.277392 98.616 171.4534
265.185209 98.587 171.3489
267.106850 98.566 171.2475
269.042417 98.550 171.1489
270.992009 98.541 171.0531
272.955729 98.536 170.9597
274.933678 98.536 170.8685
276.925961 98.540 170.7794
278.932681 98.547 170.6922
280.953942 98.557 170.6066
282.989850 98.568 170.5225
285.040511 98.583 170.4398
287.106032 98.600 170.3582
289.186521 98.620 170.2777
291.282086 98.644 170.1986
293.392836 98.673 170.1209
295.518881 98.708 170.0448
297.660333 98.748 169.9704
299.817302 98.794 169.8977
301.989902 98.845 169.8268
304.178245 98.899 169.7577
306.382446 98.956 169.6905
308.602620 99.012 169.6253
310.838882 99.067 169.5623
313.091348 99.119 169.5014
315.360137 99.165 169.4428
317.645367 99.206 169.3865
319.947156 99.239 169.3323
322.265625 99.264 169.2801
324.600895 99.280 169.2294
326.953086 99.287 169.1799
329.322323 99.283 169.1310
331.708729 99.269 169.0827
334.112427 99.245 169.0345
336.533543 99.211 168.9862
338.972204 99.166 168.9379
341.428536 99.112 168.8895
343.902668 99.050 168.8412
346.394729 98.981 168.7934
348.904848 98.906 168.7464
351.433156 98.827 168.7006
353.979786 98.747 168.6562
356.544869 98.668 168.6135
359.128540 98.593 168.5726
361.730934 98.525 168.5336
364.352185 98.467 168.4963
366.992431 98.422 168.4604
369.651810 98.391 168.4259
372.330459 98.377 168.3924
375.028519 98.381 168.3597
377.746130 98.403 168.3276
380.483434 98.442 168.2958
383.240574 98.497 168.2643
386.017693 98.565 168.2328
388.814937 98.645 168.2012
391.632450 98.732 168.1696
394.470380 98.825 168.1378
397.328875 98.921 168.1060
400.208084 99.018 168.0742
403.108157 99.113 168.0425
406.029245 99.206 168.0110
408.971500 99.296 167.9797
411.935076 99.382 167.9489
414.920127 99.466 167.9188
417.926810 99.546 167.8898
420.955280 99.626 167.8623
424.005695 99.704 167.8368
427.078215 99.781 167.8137
430.173000 99.859 167.7934
433.290211 99.938 167.7760
436.430010 100.016 167.7615
439.592562 100.095 167.7498
442.778031 100.173 167.7403
445.986583 100.248 167.7324
449.218386 100.319 167.7254
452.473607 100.385 167.7186
455.752418 100.444 167.7114
459.054987 100.495 167.7035
462.381489 100.536 167.6948
465.732096 100.567 167.6852
469.106983 100.587 167.6747
472.506325 100.598 167.6635
475.930301 100.598 167.6514
479.379088 100.590 167.6387
482.852867 100.574 167.6255
486.351817 100.551 167.6123
489.876123 100.522 167.5994
493.425968 100.488 167.5873
497.001536 100.450 167.5764
500.603014 100.409 167.5670
504.230589 100.364 167.5591
507.884452 100.317 167.5527
511.564792 100.267 167.5478
515.271802 100.214 167.5441
519.005673 100.160 167.5417
522.766602 100.104 167.5405
526.554785 100.049 167.5405
530.370418 99.995 167.5416
534.213700 99.946 167.5433
538.084833 99.902 167.5450
541.984018 99.866 167.5460
545.911457 99.839 167.5455
549.867357 99.821 167.5431
553.851922 99.813 167.5384
557.865362 99.814 167.5311
561.907884 99.823 167.5212
565.979700 99.838 167.5087
570.081022 99.857 167.4936
574.212064 99.878 167.4759
578.373042 99.898 167.4557
582.564171 99.915 167.4334
586.785671 99.929 167.4092
591.037762 99.937 167.3833
595.320665 99.939 167.3561
599.634604 99.934 167.3280
603.979804 99.922 167.2997
608.356491 99.903 167.2719
612.764893 99.878 167.2454
617.205240 99.847 167.2208
621.677763 99.812 167.1981
626.182696 99.774 167.1772
630.720274 99.736 167.1570
635.290733 99.699 167.1363
639.894312 99.665 167.1135
644.531250 99.635 167.0871
649.201789 99.613 167.0557
653.906173 99.597 167.0179
658.644647 99.590 166.9730
663.417457 99.590 166.9200
668.224854 99.597 166.8585
673.067086 99.610 166.7881
677.944408 99.627 166.7093
682.857073 99.646 166.6223
687.805336 99.666 166.5278
692.789457 99.685 166.4264
697.809695 99.701 166.3187
702.866312 99.714 166.2051
707.959571 99.722 166.0857
713.089738 99.726 165.9607
718.257080 99.724 165.8302
723.461867 99.716 165.6945
728.704370 99.704 165.5541
733.984862 99.687 165.4094
739.303619 99.666 165.2611
744.660918 99.642 165.1102
750.057038 99.615 164.9578
755.492260 99.586 164.8051
760.966869 99.555 164.6535
766.481148 99.523 164.5040
772.035387 99.488 164.3576
777.629873 99.451 164.2144
783.264900 99.412 164.0739
788.940760 99.370 163.9349
794.657750 99.324 163.7960
800.416168 99.273 163.6553
806.216313 99.217 163.5110
812.058489 99.155 163.3616
817.943000 99.087 163.2055
823.870152 99.012 163.0421
829.840255 98.932 162.8709
835.853619 98.845 162.6920
841.910559 98.753 162.5056
848.011390 98.657 162.3124
854.156430 98.557 162.1129
860.346000 98.455 161.9079
866.580422 98.351 161.6986
872.860020 98.246 161.4861
879.185124 98.142 161.2720
885.556062 98.040 161.0580
891.973166 97.940 160.8456
898.436771 97.843 160.6367
904.947215 97.752 160.4328
911.504835 97.667 160.2357
918.109975 97.588 160.0464
924.762978 97.518 159.8663
931.464192 97.457 159.6960
938.213966 97.405 159.5357
945.012651 97.362 159.3850
951.860602 97.330 159.2430
958.758176 97.307 159.1084
965.705733 97.293 158.9799
972.703635 97.287 158.8559
979.752246 97.289 158.7351
986.851935 97.297 158.6156
994.003071 97.312 158.4954
1001.206027 97.332 158.3725
1008.461179 97.357 158.2453
1015.768904 97.388 158.1123
1023.129584 97.424 157.9725
1030.543603 97.466 157.8253
1038.011347 97.514 157.6705
1045.533205 97.568 157.5084
1053.109569 97.628 157.3395
1060.740836 97.696 157.1642
1068.427401 97.769 156.9824
1076.169666 97.848 156.7940
1083.968035 97.932 156.5983
1091.822915 98.018 156.3947
1099.734713 98.105 156.1824
1107.703844 98.191 155.9611
1115.730723 98.272 155.7310
1123.815768 98.348 155.4933
1131.959400 98.416 155.2499
1140.162045 98.475 155.0042
1148.424129 98.524 154.7604
1156.746083 98.564 154.5233
1165.128342 98.594 154.2980
1173.571343 98.615 154.0892
1182.075524 98.631 153.9006
1190.641331 98.641 153.7342
1199.269209 98.649 153.5905
1207.959608 98.656 153.4683
1216.712981 98.662 153.3656
1225.529785 98.669 153.2798
1234.410479 98.677 153.2085
1243.355526 98.686 153.1498
1252.365393 98.694 153.1022
1261.440549 98.700 153.0653
1270.581467 98.705 153.0397
1279.788624 98.707 153.0271
1289.062500 98.706 153.0296
1298.403578 98.701 153.0498
1307.812346 98.693 153.0900
1317.289293 98.683 153.1515
1326.834914 98.671 153.2346
1336.449707 98.657 153.3380
1346.134173 98.644 153.4588
1355.888816 98.631 153.5928
1365.714145 98.619 153.7344
1375.610673 98.609 153.8773
1385.578915 98.599 154.0150
1395.619391 98.589 154.1424
1405.732624 98.578 154.2559
1415.919142 98.566 154.3545
1426.179476 98.552 154.4396
1436.514160 98.535 154.5149
1446.923734 98.517 154.5854
1457.408740 98.496 154.6573
1467.969724 98.474 154.7364
1478.607238 98.452 154.8283
1489.321836 98.432 154.9376
1500.114076 98.414 155.0669
1510.984521 98.399 155.2174
1521.933737 98.390 155.3885
1532.962297 98.385 155.5777
1544.070773 98.386 155.7813
1555.259747 98.392 155.9952
1566.529800 98.402 156.2154
1577.881521 98.417 156.4388
1589.315501 98.435 156.6635
1600.832336 98.455 156.8885
1612.432627 98.477 157.1130
1624.116978 98.500 157.3367
1635.886000 98.525 157.5592
1647.740304 98.550 157.7803
1659.680509 98.577 157.9997
1671.707238 98.604 158.2172
1683.821118 98.632 158.4326
1696.022780 98.662 158.6456
1708.312860 98.694 158.8568
1720.692000 98.726 159.0675
1733.160843 98.761 159.2794
1745.720041 98.797 159.4941
1758.370248 98.836 159.7124
1771.112124 98.877 159.9332
1783.946332 98.920 160.1536
1796.873543 98.965 160.3694
1809.894429 99.012 160.5761
1823.009670 99.059 160.7694
1836.219950 99.106 160.9464
1849.525956 99.152 161.1055
1862.928384 99.197 161.2471
1876.427931 99.240 161.3729
1890.025301 99.281 161.4859
1903.721204 99.321 161.5893
1917.516352 99.358 161.6863
1931.411466 99.394 161.7790
1945.407270 99.429 161.8680
1959.504493 99.462 161.9530
1973.703870 99.493 162.0331
1988.006142 99.520 162.1071
2002.412054 99.544 162.1740
2016.922357 99.563 162.2329
2031.537808 99.576 162.2829
2046.259169 99.582 162.3229
2061.087206 99.582 162.3510
2076.022694 99.574 162.3649
2091.066410 99.559 162.3621
2106.219139 99.536 162.3408
2121.481671 99.507 162.3010
2136.854802 99.470 162.2440
2152.339333 99.428 162.1719
2167.936071 99.381 162.0873
2183.645829 99.331 161.9921
2199.469427 99.278 161.8872
2215.407689 99.225 161.7726
2231.461446 99.173 161.6481
2247.631536 99.121 161.5131
2263.918800 99.071 161.3679
2280.324089 99.023 161.2128
2296.848258 98.977 161.0487
2313.492167 98.933 160.8759
2330.256685 98.890 160.6941
2347.142685 98.849 160.5019
2364.151049 98.810 160.2974
2381.282662 98.771 160.0788
2398.538418 98.731 159.8448
2415.919216 98.692 159.5955
2433.425962 98.650 159.3321
2451.059570 98.607 159.0568
2468.820958 98.562 158.7722
2486.711052 98.514 158.4812
2504.730786 98.464 158.1875
2522.881098 98.412 157.8951
2541.162934 98.359 157.6087
2559.577248 98.304 157.3334
2578.125000 98.249 157.0737
2596.807157 98.196 156.8332
2615.624692 98.145 156.6144
2634.578586 98.098 156.4183
2653.669829 98.057 156.2448
2672.899414 98.023 156.0932
2692.268345 97.996 155.9625
2711.777632 97.975 155.8524
2731.428290 97.962 155.7633
2751.221345 97.955 155.6968
2771.157829 97.952 155.6554
2791.238781 97.953 155.6425
2811.465248 97.956 155.6620
2831.838284 97.960 155.7184
2852.358952 97.962 155.8162
2873.028321 97.961 155.9604
2893.847468 97.956 156.1560
2914.817480 97.945 156.4082
2935.939449 97.928 156.7226
2957.214476 97.904 157.1043
2978.643672 97.873 157.5575
3000.228152 97.837 158.0850
3021.969041 97.795 158.6874
3043.867475 97.751 159.3629
3065.924593 97.705 160.1072
3088.141547 97.659 160.9142
3110.519493 97.615 161.7759
3133.059600 97.576 162.6830
3155.763041 97.543 163.6239
3178.631001 97.518 164.5854
3201.664672 97.503 165.5518
3224.865254 97.500 166.5057
3248.233957 97.508 167.4290
3271.771999 97.528 168.3041
3295.480608 97.558 169.1162
3319.361019 97.598 169.8542
3343.414477 97.645 170.5115
3367.642236 97.698 171.0866
3392.045560 97.755 171.5822
