* Measurement data measured by REW V5.31.3
* Source: EXCL: Headset (USB-C to 3.5mm Headphone Jack Adapter), MICROPHONE (Master Volume), 0, volume: 0.260
* Format: 256k Log Swept Sine, 1 sweep at -12.0 dBFS with no timing reference
* Dated: Feb 14, 2025 1:44:49 PM
* REW Settings:
*  C-weighting compensation: Off
*  Target level: 75.0 dB
* Note: ; 
* Measurement: Satyr 3 L3
* Smoothing: 1/6 octave
* Frequency Step: 96 ppo
* Start Frequency: 20.0 Hz
*
* Freq(Hz) SPL(dB) Phase(degrees)
20.141602 92.511 -24.7255
20.287556 92.531 -24.9560
20.434568 92.556 -25.2648
20.582645 92.582 -25.6434
20.731796 92.607 -26.0828
20.882027 92.629 -26.5738
21.033346 92.644 -27.1075
21.185763 92.652 -27.6755
21.339284 92.651 -28.2701
21.493917 92.643 -28.8838
21.649671 92.626 -29.5101
21.806553 92.603 -30.1429
21.964572 92.576 -30.7768
22.123737 92.546 -31.4073
22.284054 92.515 -32.0310
22.445534 92.486 -32.6455
22.608183 92.461 -33.2496
22.772012 92.442 -33.8434
22.937027 92.431 -34.4279
23.103238 92.428 -35.0051
23.270654 92.436 -35.5779
23.439282 92.454 -36.1491
23.609133 92.484 -36.7220
23.780215 92.524 -37.2994
23.952536 92.576 -37.8835
24.126106 92.639 -38.4760
24.300934 92.712 -39.0776
24.477028 92.793 -39.6882
24.654399 92.882 -40.3071
24.833055 92.977 -40.9329
25.013005 93.077 -41.5639
25.194260 93.180 -42.1980
25.376828 93.286 -42.8335
25.560719 93.392 -43.4690
25.745942 93.498 -44.1033
25.932508 93.602 -44.7360
26.120426 93.704 -45.3672
26.309705 93.803 -45.9975
26.500356 93.899 -46.6278
26.692388 93.991 -47.2590
26.885812 94.079 -47.8921
27.080638 94.162 -48.5278
27.276876 94.242 -49.1663
27.474535 94.318 -49.8074
27.673627 94.391 -50.4503
27.874161 94.463 -51.0942
28.076149 94.536 -51.7379
28.279600 94.612 -52.3807
28.484526 94.695 -53.0219
28.690937 94.787 -53.6617
28.898843 94.891 -54.3008
29.108256 95.010 -54.9403
29.319186 95.144 -55.5820
29.531645 95.293 -56.2275
29.745644 95.458 -56.8785
29.961193 95.636 -57.5362
30.178304 95.823 -58.2012
30.396989 96.015 -58.8730
30.617258 96.209 -59.5510
30.839123 96.397 -60.2335
31.062596 96.577 -60.9189
31.287688 96.743 -61.6052
31.514412 96.890 -62.2910
31.742778 97.016 -62.9752
31.972800 97.116 -63.6573
32.204488 97.190 -64.3373
32.437855 97.237 -65.0159
32.672913 97.254 -65.6941
32.909674 97.244 -66.3731
33.148151 97.208 -67.0540
33.388356 97.148 -67.7381
33.630302 97.067 -68.4260
33.874001 96.967 -69.1184
34.119466 96.855 -69.8151
34.366710 96.732 -70.5159
34.615745 96.605 -71.2200
34.866585 96.477 -71.9267
35.119243 96.353 -72.6349
35.373731 96.237 -73.3436
35.630064 96.132 -74.0520
35.888254 96.041 -74.7596
36.148315 95.968 -75.4659
36.410261 95.914 -76.1708
36.674104 95.880 -76.8743
36.939860 95.868 -77.5763
37.207542 95.878 -78.2769
37.477163 95.910 -78.9760
37.748738 95.964 -79.6734
38.022281 96.039 -80.3689
38.297806 96.134 -81.0623
38.575327 96.249 -81.7534
38.854860 96.382 -82.4419
39.136419 96.534 -83.1277
39.420017 96.702 -83.8104
39.705671 96.886 -84.4898
39.993395 97.085 -85.1654
40.283203 97.298 -85.8371
40.575112 97.523 -86.5050
40.869136 97.759 -87.1694
41.165290 98.004 -87.8308
41.463591 98.258 -88.4902
41.764053 98.518 -89.1485
42.066693 98.783 -89.8069
42.371525 99.050 -90.4662
42.678567 99.316 -91.1272
42.987834 99.581 -91.7905
43.299341 99.840 -92.4561
43.613106 100.093 -93.1242
43.929145 100.338 -93.7944
44.247473 100.571 -94.4664
44.568109 100.791 -95.1398
44.891068 100.998 -95.8140
45.216367 101.189 -96.4884
45.544023 101.364 -97.1622
45.874054 101.522 -97.8347
46.206476 101.663 -98.5050
46.541307 101.787 -99.1729
46.878565 101.893 -99.8382
47.218266 101.982 -100.5015
47.560429 102.056 -101.1635
47.905072 102.114 -101.8251
48.252212 102.157 -102.4874
48.601867 102.188 -103.1513
48.954056 102.207 -103.8175
49.308798 102.216 -104.4865
49.666109 102.217 -105.1589
50.026010 102.212 -105.8353
50.388520 102.202 -106.5162
50.753656 102.190 -107.2022
51.121437 102.176 -107.8935
51.491884 102.163 -108.5901
51.865016 102.151 -109.2918
52.240851 102.142 -109.9978
52.619410 102.136 -110.7074
53.000712 102.134 -111.4197
53.384777 102.134 -112.1341
53.771625 102.137 -112.8500
54.161276 102.141 -113.5668
54.553751 102.147 -114.2845
54.949070 102.153 -115.0030
55.347254 102.157 -115.7219
55.748323 102.160 -116.4412
56.152298 102.160 -117.1603
56.559201 102.156 -117.8790
56.969052 102.149 -118.5967
57.381873 102.138 -119.3133
57.797686 102.123 -120.0286
58.216512 102.104 -120.7430
58.638373 102.082 -121.4572
59.063291 102.058 -122.1718
59.491288 102.031 -122.8878
59.922386 102.002 -123.6056
60.356608 101.972 -124.3254
60.793977 101.941 -125.0470
61.234515 101.909 -125.7694
61.678246 101.877 -126.4921
62.125192 101.844 -127.2140
62.575377 101.812 -127.9347
63.028824 101.780 -128.6538
63.485557 101.748 -129.3712
63.945599 101.717 -130.0866
64.408975 101.687 -130.8000
64.875709 101.658 -131.5111
65.345825 101.630 -132.2197
65.819348 101.604 -132.9254
66.296302 101.580 -133.6279
66.776713 101.558 -134.3267
67.260604 101.538 -135.0215
67.748002 101.520 -135.7115
68.238932 101.503 -136.3963
68.733420 101.489 -137.0756
69.231490 101.475 -137.7489
69.733170 101.463 -138.4161
70.238485 101.453 -139.0773
70.747463 101.443 -139.7323
71.260128 101.435 -140.3812
71.776508 101.427 -141.0244
72.296630 101.421 -141.6621
72.820521 101.415 -142.2948
73.348209 101.410 -142.9231
73.879720 101.405 -143.5475
74.415083 101.401 -144.1684
74.954326 101.397 -144.7860
75.497475 101.393 -145.4004
76.044561 101.387 -146.0112
76.595612 101.381 -146.6183
77.150655 101.372 -147.2214
77.709720 101.362 -147.8202
78.272837 101.348 -148.4145
78.840034 101.331 -149.0040
79.411342 101.310 -149.5887
79.986789 101.285 -150.1685
80.566406 101.256 -150.7431
81.150224 101.223 -151.3125
81.738272 101.185 -151.8766
82.330581 101.144 -152.4351
82.927182 101.101 -152.9878
83.528107 101.056 -153.5345
84.133386 101.012 -154.0751
84.743051 100.971 -154.6095
85.357134 100.935 -155.1379
85.975667 100.908 -155.6605
86.598682 100.892 -156.1780
87.226212 100.893 -156.6906
87.858289 100.912 -157.1989
88.494946 100.953 -157.7028
89.136217 101.018 -158.2023
89.782135 101.107 -158.6971
90.432733 101.220 -159.1869
91.088046 101.354 -159.6715
91.748108 101.507 -160.1505
92.412952 101.673 -160.6240
93.082615 101.847 -161.0919
93.757130 102.025 -161.5542
94.436533 102.199 -162.0111
95.120859 102.366 -162.4625
95.810144 102.522 -162.9087
96.504423 102.662 -163.3498
97.203734 102.786 -163.7858
97.908112 102.893 -164.2167
98.617595 102.982 -164.6423
99.332219 103.054 -165.0622
100.052021 103.112 -165.4759
100.777039 103.157 -165.8830
101.507311 103.191 -166.2832
102.242875 103.217 -166.6765
102.983769 103.236 -167.0629
103.730032 103.250 -167.4429
104.481702 103.258 -167.8171
105.238820 103.262 -168.1860
106.001424 103.261 -168.5502
106.769554 103.253 -168.9105
107.543250 103.236 -169.2672
108.322553 103.211 -169.6210
109.107503 103.174 -169.9721
109.898141 103.124 -170.3210
110.694508 103.061 -170.6677
111.496646 102.984 -171.0122
112.304596 102.895 -171.3545
113.118402 102.792 -171.6945
113.938104 102.680 -172.0320
114.763747 102.558 -172.3669
115.595372 102.431 -172.6987
116.433024 102.299 -173.0274
117.276746 102.165 -173.3526
118.126581 102.031 -173.6742
118.982575 101.899 -173.9923
119.844772 101.769 -174.3072
120.713217 101.642 -174.6193
121.587954 101.517 -174.9291
122.469031 101.395 -175.2372
123.356492 101.273 -175.5442
124.250384 101.152 -175.8505
125.150753 101.028 -176.1564
126.057647 100.902 -176.4620
126.971113 100.771 -176.7673
127.891198 100.634 -177.0723
128.817950 100.490 -177.3771
129.751418 100.339 -177.6817
130.691651 100.182 -177.9863
131.638696 100.018 -178.2905
132.592604 99.849 -178.5939
133.553425 99.678 -178.8956
134.521208 99.505 -179.1940
135.496004 99.334 -179.4874
136.477864 99.169 -179.7734
137.466839 99.012 179.9503
138.462981 98.866 179.6866
139.466340 98.734 179.4382
140.476971 98.619 179.2078
141.494925 98.520 178.9978
142.520256 98.439 178.8099
143.553016 98.374 178.6453
144.593260 98.322 178.5043
145.641043 98.282 178.3865
146.696418 98.249 178.2906
147.759441 98.220 178.2153
148.830166 98.192 178.1587
149.908651 98.161 178.1190
150.994951 98.126 178.0948
152.089123 98.086 178.0848
153.191223 98.040 178.0883
154.301310 97.988 178.1048
155.419441 97.933 178.1345
156.545674 97.875 178.1777
157.680069 97.816 178.2349
158.822683 97.758 178.3063
159.973578 97.704 178.3920
161.132813 97.653 178.4915
162.300447 97.609 178.6041
163.476543 97.571 178.7281
164.661162 97.540 178.8616
165.854364 97.517 179.0022
167.056213 97.501 179.1467
168.266772 97.495 179.2916
169.486102 97.497 179.4334
170.714268 97.507 179.5682
171.951334 97.526 179.6924
173.197364 97.553 179.8027
174.452424 97.588 179.8961
175.716578 97.630 179.9704
176.989893 97.677 -179.9761
178.272434 97.729 -179.9444
179.564270 97.783 -179.9346
180.865467 97.837 -179.9467
182.176092 97.892 -179.9798
183.496216 97.944 179.9672
184.825905 97.992 179.8959
186.165229 98.037 179.8079
187.514259 98.077 179.7053
188.873065 98.113 179.5899
190.241717 98.145 179.4638
191.620287 98.174 179.3290
193.008847 98.199 179.1873
194.407468 98.223 179.0400
195.816225 98.244 178.8888
197.235190 98.264 178.7347
198.664438 98.282 178.5786
200.104042 98.298 178.4216
201.554078 98.311 178.2644
203.014622 98.321 178.1078
204.485750 98.328 177.9526
205.967538 98.331 177.7992
207.460064 98.330 177.6482
208.963405 98.325 177.5000
210.477640 98.316 177.3549
212.002848 98.303 177.2131
213.539108 98.287 177.0749
215.086500 98.268 176.9403
216.645105 98.246 176.8092
218.215005 98.222 176.6816
219.796281 98.197 176.5576
221.389015 98.169 176.4371
222.993292 98.138 176.3200
224.609193 98.104 176.2064
226.236804 98.067 176.0962
227.876209 98.025 175.9894
229.527494 97.978 175.8863
231.190745 97.926 175.7869
232.866048 97.869 175.6913
234.553491 97.806 175.5997
236.253163 97.739 175.5120
237.965150 97.668 175.4277
239.689544 97.594 175.3467
241.426433 97.518 175.2686
243.175909 97.441 175.1929
244.938062 97.364 175.1193
246.712984 97.288 175.0474
248.500768 97.214 174.9768
250.301507 97.143 174.9072
252.115295 97.075 174.8382
253.942226 97.012 174.7693
255.782396 96.953 174.7002
257.635901 96.899 174.6309
259.502837 96.852 174.5616
261.383301 96.810 174.4929
263.277392 96.775 174.4251
265.185209 96.746 174.3590
267.106850 96.724 174.2947
269.042417 96.709 174.2324
270.992009 96.699 174.1722
272.955729 96.695 174.1141
274.933678 96.696 174.0578
276.925961 96.701 174.0032
278.932681 96.710 173.9503
280.953942 96.721 173.8987
282.989850 96.735 173.8483
285.040511 96.751 173.7986
287.106032 96.770 173.7491
289.186521 96.792 173.6995
291.282086 96.818 173.6495
293.392836 96.849 173.5991
295.518881 96.886 173.5486
297.660333 96.929 173.4985
299.817302 96.977 173.4493
301.989902 97.030 173.4015
304.178245 97.087 173.3554
306.382446 97.146 173.3112
308.602620 97.205 173.2690
310.838882 97.263 173.2287
313.091348 97.318 173.1903
315.360137 97.368 173.1537
317.645367 97.411 173.1188
319.947156 97.448 173.0855
322.265625 97.476 173.0537
324.600895 97.496 173.0232
326.953086 97.505 172.9939
329.322323 97.505 172.9657
331.708729 97.495 172.9384
334.112427 97.475 172.9120
336.533543 97.444 172.8863
338.972204 97.404 172.8612
341.428536 97.354 172.8366
343.902668 97.296 172.8126
346.394729 97.231 172.7890
348.904848 97.160 172.7658
351.433156 97.085 172.7430
353.979786 97.009 172.7204
356.544869 96.934 172.6980
359.128540 96.863 172.6757
361.730934 96.799 172.6535
364.352185 96.745 172.6314
366.992431 96.702 172.6096
369.651810 96.675 172.5880
372.330459 96.664 172.5666
375.028519 96.671 172.5454
377.746130 96.696 172.5244
380.483434 96.738 172.5037
383.240574 96.796 172.4834
386.017693 96.868 172.4637
388.814937 96.951 172.4450
391.632450 97.042 172.4275
394.470380 97.139 172.4115
397.328875 97.240 172.3971
400.208084 97.341 172.3842
403.108157 97.441 172.3729
406.029245 97.539 172.3626
408.971500 97.635 172.3530
411.935076 97.727 172.3436
414.920127 97.816 172.3342
417.926810 97.902 172.3247
420.955280 97.986 172.3149
424.005695 98.069 172.3048
427.078215 98.152 172.2946
430.173000 98.234 172.2844
433.290211 98.317 172.2744
436.430010 98.400 172.2646
439.592562 98.482 172.2552
442.778031 98.563 172.2464
445.986583 98.642 172.2385
449.218386 98.717 172.2317
452.473607 98.786 172.2264
455.752418 98.848 172.2231
459.054987 98.901 172.2220
462.381489 98.945 172.2233
465.732096 98.978 172.2271
469.106983 99.002 172.2333
472.506325 99.015 172.2417
475.930301 99.018 172.2519
479.379088 99.013 172.2634
482.852867 99.000 172.2758
486.351817 98.981 172.2885
489.876123 98.956 172.3015
493.425968 98.926 172.3144
497.001536 98.893 172.3272
500.603014 98.856 172.3400
504.230589 98.816 172.3528
507.884452 98.774 172.3659
511.564792 98.729 172.3792
515.271802 98.681 172.3926
519.005673 98.632 172.4062
522.766602 98.582 172.4197
526.554785 98.532 172.4331
530.370418 98.484 172.4463
534.213700 98.439 172.4591
538.084833 98.401 172.4716
541.984018 98.369 172.4837
545.911457 98.347 172.4954
549.867357 98.334 172.5068
553.851922 98.330 172.5179
557.865362 98.336 172.5286
561.907884 98.349 172.5386
565.979700 98.369 172.5476
570.081022 98.392 172.5553
574.212064 98.417 172.5615
578.373042 98.442 172.5662
582.564171 98.464 172.5693
586.785671 98.483 172.5708
591.037762 98.497 172.5709
595.320665 98.504 172.5694
599.634604 98.506 172.5664
603.979804 98.500 172.5618
608.356491 98.488 172.5555
612.764893 98.470 172.5478
617.205240 98.446 172.5385
621.677763 98.419 172.5279
626.182696 98.388 172.5157
630.720274 98.357 172.5016
635.290733 98.326 172.4855
639.894312 98.298 172.4667
644.531250 98.275 172.4446
649.201789 98.258 172.4189
653.906173 98.248 172.3890
658.644647 98.245 172.3545
663.417457 98.250 172.3153
668.224854 98.261 172.2712
673.067086 98.278 172.2225
677.944408 98.299 172.1698
682.857073 98.323 172.1136
687.805336 98.348 172.0549
692.789457 98.372 171.9940
697.809695 98.394 171.9312
702.866312 98.414 171.8658
707.959571 98.430 171.7967
713.089738 98.441 171.7228
718.257080 98.449 171.6429
723.461867 98.452 171.5564
728.704370 98.451 171.4628
733.984862 98.447 171.3621
739.303619 98.439 171.2545
744.660918 98.429 171.1402
750.057038 98.417 171.0193
755.492260 98.403 170.8920
760.966869 98.388 170.7588
766.481148 98.371 170.6199
772.035387 98.353 170.4761
777.629873 98.332 170.3279
783.264900 98.309 170.1760
788.940760 98.281 170.0207
794.657750 98.249 169.8622
800.416168 98.212 169.7004
806.216313 98.169 169.5349
812.058489 98.119 169.3651
817.943000 98.063 169.1899
823.870152 98.001 169.0085
829.840255 97.932 168.8201
835.853619 97.857 168.6239
841.910559 97.778 168.4201
848.011390 97.694 168.2089
854.156430 97.608 167.9913
860.346000 97.519 167.7682
866.580422 97.428 167.5407
872.860020 97.338 167.3097
879.185124 97.250 167.0757
885.556062 97.163 166.8387
891.973166 97.081 166.5984
898.436771 97.003 166.3545
904.947215 96.931 166.1063
911.504835 96.866 165.8540
918.109975 96.808 165.5974
924.762978 96.758 165.3369
931.464192 96.716 165.0728
938.213966 96.683 164.8058
945.012651 96.658 164.5371
951.860602 96.641 164.2680
958.758176 96.632 163.9999
965.705733 96.629 163.7340
972.703635 96.633 163.4709
979.752246 96.642 163.2103
986.851935 96.655 162.9517
994.003071 96.673 162.6942
1001.206027 96.695 162.4373
1008.461179 96.721 162.1804
1015.768904 96.751 161.9236
1023.129584 96.784 161.6667
1030.543603 96.822 161.4099
1038.011347 96.865 161.1530
1045.533205 96.914 160.8961
1053.109569 96.969 160.6390
1060.740836 97.030 160.3818
1068.427401 97.097 160.1248
1076.169666 97.169 159.8683
1083.968035 97.244 159.6130
1091.822915 97.323 159.3596
1099.734713 97.402 159.1090
1107.703844 97.481 158.8618
1115.730723 97.557 158.6181
1123.815768 97.628 158.3779
1131.959400 97.695 158.1406
1140.162045 97.754 157.9059
1148.424129 97.806 157.6734
1156.746083 97.851 157.4433
1165.128342 97.888 157.2159
1173.571343 97.919 156.9922
1182.075524 97.944 156.7731
1190.641331 97.965 156.5596
1199.269209 97.982 156.3525
1207.959608 97.998 156.1523
1216.712981 98.012 155.9597
1225.529785 98.024 155.7755
1234.410479 98.036 155.6007
1243.355526 98.046 155.4367
1252.365393 98.055 155.2849
1261.440549 98.061 155.1468
1270.581467 98.065 155.0231
1279.788624 98.065 154.9140
1289.062500 98.062 154.8192
1298.403578 98.056 154.7383
1307.812346 98.046 154.6710
1317.289293 98.032 154.6172
1326.834914 98.015 154.5768
1336.449707 97.996 154.5496
1346.134173 97.974 154.5347
1355.888816 97.950 154.5314
1365.714145 97.924 154.5387
1375.610673 97.897 154.5560
1385.578915 97.867 154.5826
1395.619391 97.836 154.6181
1405.732624 97.803 154.6621
1415.919142 97.768 154.7144
1426.179476 97.731 154.7754
1436.514160 97.693 154.8456
1446.923734 97.655 154.9260
1457.408740 97.617 155.0175
1467.969724 97.580 155.1208
1478.607238 97.545 155.2357
1489.321836 97.514 155.3622
1500.114076 97.485 155.5002
1510.984521 97.461 155.6494
1521.933737 97.441 155.8100
1532.962297 97.426 155.9822
1544.070773 97.414 156.1658
1555.259747 97.407 156.3607
1566.529800 97.403 156.5660
1577.881521 97.403 156.7810
1589.315501 97.406 157.0043
1600.832336 97.410 157.2348
1612.432627 97.417 157.4708
1624.116978 97.426 157.7106
1635.886000 97.436 157.9519
1647.740304 97.447 158.1921
1659.680509 97.459 158.4285
1671.707238 97.472 158.6597
1683.821118 97.486 158.8856
1696.022780 97.500 159.1077
1708.312860 97.515 159.3283
1720.692000 97.530 159.5493
1733.160843 97.545 159.7726
1745.720041 97.561 159.9991
1758.370248 97.578 160.2303
1771.112124 97.595 160.4677
1783.946332 97.612 160.7136
1796.873543 97.628 160.9703
1809.894429 97.644 161.2399
1823.009670 97.659 161.5233
1836.219950 97.674 161.8210
1849.525956 97.688 162.1328
1862.928384 97.703 162.4587
1876.427931 97.717 162.7982
1890.025301 97.733 163.1504
1903.721204 97.751 163.5129
1917.516352 97.771 163.8824
1931.411466 97.793 164.2553
1945.407270 97.817 164.6282
1959.504493 97.843 164.9984
1973.703870 97.869 165.3635
1988.006142 97.894 165.7213
2002.412054 97.917 166.0696
2016.922357 97.938 166.4073
2031.537808 97.954 166.7336
2046.259169 97.965 167.0487
2061.087206 97.971 167.3528
2076.022694 97.971 167.6458
2091.066410 97.965 167.9273
2106.219139 97.954 168.1960
2121.481671 97.940 168.4501
2136.854802 97.922 168.6872
2152.339333 97.902 168.9043
2167.936071 97.882 169.0983
2183.645829 97.862 169.2663
2199.469427 97.844 169.4061
2215.407689 97.827 169.5164
2231.461446 97.813 169.5973
2247.631536 97.802 169.6491
2263.918800 97.793 169.6730
2280.324089 97.788 169.6696
2296.848258 97.785 169.6401
2313.492167 97.784 169.5856
2330.256685 97.786 169.5074
2347.142685 97.789 169.4062
2364.151049 97.793 169.2825
2381.282662 97.798 169.1353
2398.538418 97.804 168.9636
2415.919216 97.810 168.7660
2433.425962 97.816 168.5413
2451.059570 97.821 168.2885
2468.820958 97.826 168.0073
2486.711052 97.828 167.6981
2504.730786 97.830 167.3622
2522.881098 97.829 167.0024
2541.162934 97.825 166.6224
2559.577248 97.820 166.2267
2578.125000 97.812 165.8209
2596.807157 97.803 165.4108
2615.624692 97.793 165.0030
2634.578586 97.783 164.6039
2653.669829 97.774 164.2201
2672.899414 97.767 163.8576
2692.268345 97.762 163.5221
2711.777632 97.762 163.2184
2731.428290 97.765 162.9508
2751.221345 97.773 162.7225
2771.157829 97.785 162.5363
2791.238781 97.800 162.3947
2811.465248 97.817 162.3001
2831.838284 97.835 162.2549
2852.358952 97.854 162.2611
2873.028321 97.872 162.3206
2893.847468 97.888 162.4345
2914.817480 97.901 162.6033
2935.939449 97.910 162.8265
2957.214476 97.916 163.1021
2978.643672 97.918 163.4268
3000.228152 97.917 163.7963
3021.969041 97.913 164.2045
3043.867475 97.907 164.6440
3065.924593 97.900 165.1058
3088.141547 97.892 165.5796
3110.519493 97.885 166.0538
3133.059600 97.879 166.5166
3155.763041 97.874 166.9563
3178.631001 97.870 167.3622
3201.664672 97.867 167.7260
3224.865254 97.864 168.0428
3248.233957 97.859 168.3125
3271.771999 97.851 168.5399
3295.480608 97.838 168.7349
3319.361019 97.821 168.9120
3343.414477 97.798 169.0882
3367.642236 97.770 169.2813
3392.045560 97.739 169.5080
3416.625721 97.708 169.7811
3441.383999 97.680 170.1077
