* Measurement data measured by REW V5.31.3
* Source: EXCL: Headset (USB-C to 3.5mm Headphone Jack Adapter), MICROPHONE (Master Volume), 0, volume: 0.750
* Format: 256k Log Swept Sine, 1 sweep at -12.0 dBFS with no timing reference
* Dated: Apr 1, 2025 10:32:52 PM
* REW Settings:
*  C-weighting compensation: Off
*  Target level: 75.0 dB
* Note: ; 
* Measurement: Satyr 3 (Massive Mod) R2
* Smoothing: 1/6 octave
* Frequency Step: 96 ppo
* Start Frequency: 20.0 Hz
*
* Freq(Hz) SPL(dB) Phase(degrees)
20.187378 87.600 -112.3977
20.333664 87.632 -112.5626
20.481010 87.675 -112.7831
20.629424 87.728 -113.0518
20.778913 87.790 -113.3608
20.929486 87.860 -113.7014
21.081150 87.937 -114.0647
21.233912 88.020 -114.4424
21.387782 88.107 -114.8265
21.542767 88.198 -115.2097
21.698874 88.293 -115.5863
21.856113 88.390 -115.9516
22.014492 88.490 -116.3029
22.174018 88.591 -116.6394
22.334700 88.694 -116.9620
22.496546 88.797 -117.2736
22.659566 88.899 -117.5780
22.823766 89.000 -117.8801
22.989157 89.097 -118.1849
23.155745 89.190 -118.4966
23.323542 89.278 -118.8186
23.492554 89.358 -119.1525
23.662790 89.430 -119.4986
23.834261 89.492 -119.8552
24.006973 89.546 -120.2199
24.180938 89.589 -120.5896
24.356163 89.624 -120.9614
24.532658 89.651 -121.3330
24.710431 89.672 -121.7038
24.889493 89.687 -122.0746
25.069853 89.699 -122.4481
25.251519 89.708 -122.8283
25.434502 89.717 -123.2202
25.618811 89.726 -123.6285
25.804456 89.735 -124.0574
25.991445 89.745 -124.5091
26.179790 89.756 -124.9841
26.369500 89.767 -125.4802
26.560584 89.778 -125.9930
26.753053 89.789 -126.5163
26.946917 89.799 -127.0428
27.142185 89.809 -127.5653
27.338869 89.819 -128.0768
27.536977 89.829 -128.5718
27.736522 89.840 -129.0470
27.937512 89.851 -129.5008
28.139959 89.864 -129.9339
28.343872 89.879 -130.3490
28.549264 89.895 -130.7500
28.756143 89.913 -131.1414
28.964522 89.933 -131.5281
29.174411 89.954 -131.9147
29.385821 89.976 -132.3048
29.598763 89.999 -132.7012
29.813248 90.023 -133.1054
30.029287 90.048 -133.5181
30.246891 90.074 -133.9386
30.466073 90.102 -134.3660
30.686842 90.132 -134.7985
30.909212 90.164 -135.2344
31.133193 90.199 -135.6719
31.358797 90.237 -136.1093
31.586035 90.279 -136.5451
31.814921 90.324 -136.9780
32.045465 90.372 -137.4070
32.277680 90.424 -137.8311
32.511577 90.479 -138.2493
32.747169 90.536 -138.6611
32.984469 90.596 -139.0658
33.223488 90.659 -139.4633
33.464239 90.723 -139.8537
33.706735 90.789 -140.2374
33.950987 90.857 -140.6149
34.197010 90.926 -140.9866
34.444816 90.995 -141.3530
34.694417 91.065 -141.7136
34.945827 91.136 -142.0681
35.199059 91.206 -142.4157
35.454126 91.277 -142.7556
35.711041 91.348 -143.0876
35.969818 91.420 -143.4121
36.230470 91.492 -143.7301
36.493011 91.565 -144.0436
36.757455 91.637 -144.3545
37.023814 91.709 -144.6649
37.292104 91.779 -144.9765
37.562338 91.849 -145.2906
37.834530 91.916 -145.6077
38.108695 91.981 -145.9284
38.384846 92.043 -146.2533
38.662999 92.103 -146.5832
38.943167 92.161 -146.9192
39.225365 92.217 -147.2622
39.509608 92.271 -147.6129
39.795911 92.324 -147.9710
40.084289 92.375 -148.3355
40.374756 92.425 -148.7047
40.667328 92.474 -149.0761
40.962020 92.523 -149.4475
41.258848 92.572 -149.8171
41.557827 92.621 -150.1836
41.858972 92.669 -150.5469
42.162299 92.717 -150.9073
42.467824 92.764 -151.2657
42.775564 92.811 -151.6234
43.085533 92.856 -151.9815
43.397749 92.899 -152.3414
43.712227 92.940 -152.7044
44.028983 92.980 -153.0719
44.348036 93.018 -153.4452
44.669400 93.054 -153.8253
44.993093 93.089 -154.2128
45.319131 93.123 -154.6080
45.647532 93.155 -155.0102
45.978313 93.186 -155.4188
46.311491 93.217 -155.8327
46.647083 93.246 -156.2508
46.985107 93.275 -156.6720
47.325581 93.302 -157.0952
47.668521 93.327 -157.5194
48.013947 93.350 -157.9437
48.361876 93.370 -158.3673
48.712326 93.388 -158.7894
49.065315 93.402 -159.2096
49.420863 93.413 -159.6279
49.778987 93.421 -160.0444
50.139706 93.425 -160.4595
50.503039 93.427 -160.8737
50.869005 93.427 -161.2874
51.237623 93.424 -161.7013
51.608912 93.421 -162.1159
51.982891 93.416 -162.5323
52.359580 93.410 -162.9515
52.739000 93.404 -163.3748
53.121168 93.397 -163.8033
53.506106 93.389 -164.2378
53.893833 93.379 -164.6781
54.284370 93.368 -165.1239
54.677737 93.356 -165.5740
55.073955 93.343 -166.0272
55.473043 93.330 -166.4825
55.875024 93.316 -166.9389
56.279917 93.302 -167.3956
56.687745 93.288 -167.8522
57.098527 93.275 -168.3082
57.512287 93.262 -168.7631
57.929045 93.251 -169.2158
58.348822 93.241 -169.6649
58.771642 93.233 -170.1082
59.197525 93.227 -170.5428
59.626495 93.225 -170.9660
60.058573 93.225 -171.3762
60.493782 93.229 -171.7733
60.932145 93.237 -172.1587
61.373685 93.247 -172.5351
61.818424 93.260 -172.9054
62.266386 93.275 -173.2720
62.717593 93.290 -173.6364
63.172071 93.307 -173.9993
63.629842 93.324 -174.3606
64.090930 93.342 -174.7199
64.555359 93.360 -175.0766
65.023154 93.377 -175.4305
65.494339 93.395 -175.7817
65.968938 93.412 -176.1310
66.446976 93.429 -176.4795
66.928478 93.446 -176.8286
67.413469 93.462 -177.1794
67.901975 93.477 -177.5326
68.394021 93.492 -177.8881
68.889632 93.505 -178.2455
69.388835 93.517 -178.6041
69.891655 93.528 -178.9630
70.398118 93.537 -179.3216
70.908252 93.544 -179.6793
71.422083 93.548 179.9644
71.939636 93.551 179.6096
72.460941 93.550 179.2567
72.986023 93.547 178.9059
73.514909 93.541 178.5573
74.047629 93.532 178.2112
74.584208 93.521 177.8682
75.124676 93.506 177.5287
75.669061 93.488 177.1932
76.217390 93.468 176.8622
76.769692 93.446 176.5358
77.325997 93.421 176.2141
77.886333 93.395 175.8965
78.450730 93.366 175.5825
79.019216 93.336 175.2711
79.591822 93.305 174.9617
80.168577 93.272 174.6534
80.749512 93.239 174.3459
81.334656 93.204 174.0392
81.924040 93.169 173.7335
82.517696 93.134 173.4297
83.115653 93.098 173.1286
83.717943 93.062 172.8311
84.324598 93.025 172.5378
84.935649 92.989 172.2495
85.551128 92.951 171.9664
86.171066 92.914 171.6887
86.795497 92.876 171.4160
87.424453 92.838 171.1478
88.057967 92.799 170.8835
88.696071 92.760 170.6225
89.338800 92.720 170.3641
89.986185 92.680 170.1080
90.638262 92.640 169.8541
91.295065 92.600 169.6024
91.956626 92.559 169.3535
92.622982 92.519 169.1080
93.294166 92.478 168.8663
93.970214 92.438 168.6290
94.651161 92.397 168.3964
95.337042 92.358 168.1686
96.027894 92.318 167.9456
96.723752 92.279 167.7275
97.424652 92.241 167.5140
98.130631 92.203 167.3054
98.841726 92.166 167.1017
99.557974 92.129 166.9029
100.279412 92.093 166.7090
101.006078 92.058 166.5197
101.738010 92.023 166.3344
102.475245 91.990 166.1522
103.217823 91.957 165.9724
103.965782 91.925 165.7941
104.719161 91.894 165.6168
105.477999 91.864 165.4400
106.242336 91.835 165.2637
107.012212 91.808 165.0879
107.787666 91.782 164.9130
108.568740 91.757 164.7391
109.355474 91.733 164.5667
110.147909 91.711 164.3957
110.946086 91.689 164.2259
111.750047 91.668 164.0573
112.559834 91.648 163.8897
113.375489 91.628 163.7232
114.197055 91.608 163.5580
115.024574 91.588 163.3945
115.858089 91.569 163.2328
116.697645 91.549 163.0735
117.543284 91.529 162.9169
118.395051 91.510 162.7632
119.252990 91.490 162.6129
120.117147 91.471 162.4658
120.987565 91.452 162.3220
121.864291 91.432 162.1809
122.747370 91.413 162.0420
123.636848 91.393 161.9045
124.532771 91.373 161.7681
125.435187 91.352 161.6323
126.344142 91.330 161.4974
127.259684 91.308 161.3636
128.181860 91.284 161.2313
129.110718 91.260 161.1006
130.046308 91.235 160.9716
130.988677 91.209 160.8439
131.937875 91.182 160.7172
132.893951 91.155 160.5911
133.856956 91.127 160.4655
134.826938 91.097 160.3400
135.803950 91.067 160.2146
136.788041 91.036 160.0886
137.779264 91.004 159.9614
138.777669 90.970 159.8324
139.783309 90.934 159.7011
140.796237 90.897 159.5674
141.816504 90.857 159.4315
142.844165 90.815 159.2941
143.879273 90.771 159.1562
144.921881 90.724 159.0192
145.972045 90.674 158.8852
147.029819 90.622 158.7563
148.095257 90.567 158.6349
149.168417 90.510 158.5237
150.249353 90.451 158.4246
151.338121 90.391 158.3394
152.434780 90.329 158.2693
153.539385 90.266 158.2149
154.651995 90.202 158.1764
155.772667 90.138 158.1536
156.901460 90.074 158.1461
158.038432 90.011 158.1532
159.183644 89.949 158.1743
160.337154 89.887 158.2089
161.499023 89.827 158.2569
162.669312 89.768 158.3182
163.848081 89.711 158.3932
165.035392 89.656 158.4821
166.231306 89.603 158.5848
167.435887 89.552 158.7011
168.649196 89.503 158.8310
169.871298 89.457 158.9742
171.102255 89.412 159.1305
172.342133 89.370 159.2993
173.590995 89.330 159.4800
174.848907 89.293 159.6709
176.115934 89.258 159.8702
177.392143 89.225 160.0755
178.677599 89.194 160.2845
179.972371 89.166 160.4948
181.276525 89.140 160.7040
182.590129 89.116 160.9098
183.913252 89.094 161.1100
185.245964 89.075 161.3026
186.588332 89.057 161.4856
187.940428 89.041 161.6575
189.302322 89.027 161.8170
190.674085 89.014 161.9628
192.055788 89.002 162.0940
193.447503 88.991 162.2097
194.849303 88.982 162.3092
196.261262 88.973 162.3922
197.683452 88.965 162.4592
199.115948 88.959 162.5108
200.558824 88.953 162.5485
202.012156 88.949 162.5739
203.476019 88.945 162.5886
204.950490 88.942 162.5942
206.435646 88.939 162.5921
207.931564 88.936 162.5834
209.438322 88.932 162.5688
210.955998 88.927 162.5493
212.484672 88.921 162.5255
214.024424 88.914 162.4983
215.575333 88.906 162.4688
217.137481 88.897 162.4381
218.710948 88.888 162.4070
220.295818 88.879 162.3761
221.892172 88.869 162.3456
223.500094 88.860 162.3152
225.119668 88.850 162.2842
226.750978 88.841 162.2520
228.394109 88.833 162.2178
230.049147 88.825 162.1813
231.716178 88.817 162.1425
233.395289 88.809 162.1015
235.086567 88.803 162.0591
236.790102 88.796 162.0161
238.505980 88.791 161.9734
240.234293 88.786 161.9322
241.975130 88.781 161.8933
243.728581 88.777 161.8573
245.494739 88.773 161.8245
247.273695 88.769 161.7947
249.065542 88.765 161.7673
250.870374 88.760 161.7417
252.688284 88.756 161.7171
254.519367 88.751 161.6932
256.363720 88.746 161.6701
258.221437 88.741 161.6481
260.092616 88.736 161.6278
261.977354 88.732 161.6098
263.875750 88.728 161.5946
265.787903 88.724 161.5826
267.713911 88.721 161.5737
269.653877 88.718 161.5677
271.607900 88.715 161.5644
273.576083 88.712 161.5637
275.558528 88.708 161.5656
277.555338 88.704 161.5704
279.566619 88.700 161.5785
281.592474 88.695 161.5900
283.633009 88.691 161.6050
285.688331 88.687 161.6234
287.758546 88.683 161.6445
289.843763 88.679 161.6677
291.944090 88.677 161.6921
294.059638 88.676 161.7166
296.190515 88.675 161.7399
298.336833 88.676 161.7610
300.498705 88.678 161.7791
302.676243 88.682 161.7941
304.869559 88.686 161.8060
307.078770 88.691 161.8153
309.303989 88.697 161.8221
311.545334 88.703 161.8269
313.802919 88.710 161.8296
316.076865 88.716 161.8303
318.367288 88.722 161.8289
320.674309 88.728 161.8253
322.998047 88.734 161.8196
325.338624 88.739 161.8118
327.696162 88.743 161.8024
330.070783 88.747 161.7916
332.462612 88.749 161.7795
334.871773 88.751 161.7666
337.298392 88.751 161.7531
339.742595 88.749 161.7397
342.204510 88.746 161.7271
344.684265 88.741 161.7159
347.181989 88.734 161.7074
349.697813 88.725 161.7030
352.231868 88.713 161.7045
354.784285 88.699 161.7141
357.355198 88.684 161.7338
359.944741 88.667 161.7648
362.553049 88.650 161.8072
365.180258 88.633 161.8600
367.826505 88.617 161.9209
370.491927 88.601 161.9871
373.176665 88.587 162.0557
375.880856 88.574 162.1242
378.604644 88.561 162.1908
381.348169 88.549 162.2541
384.111575 88.538 162.3134
386.895006 88.528 162.3687
389.698607 88.517 162.4197
392.522524 88.506 162.4666
395.366904 88.495 162.5099
398.231895 88.484 162.5498
401.117648 88.472 162.5869
404.024312 88.460 162.6218
406.952038 88.446 162.6550
409.900981 88.432 162.6868
412.871292 88.416 162.7177
415.863128 88.399 162.7478
418.876643 88.381 162.7777
421.911996 88.362 162.8077
424.969344 88.341 162.8380
428.048847 88.319 162.8688
431.150666 88.295 162.9004
434.274961 88.269 162.9329
437.421897 88.243 162.9662
440.591636 88.214 163.0007
443.784345 88.185 163.0363
447.000189 88.155 163.0729
450.239337 88.123 163.1107
453.501956 88.091 163.1495
456.788219 88.059 163.1891
460.098294 88.026 163.2292
463.432356 87.994 163.2697
466.790578 87.962 163.3100
470.173135 87.930 163.3498
473.580203 87.899 163.3886
477.011961 87.868 163.4262
480.468586 87.838 163.4623
483.950259 87.810 163.4966
487.457163 87.782 163.5289
490.989478 87.755 163.5586
494.547390 87.730 163.5852
498.131084 87.705 163.6085
501.740748 87.682 163.6278
505.376568 87.660 163.6432
509.038735 87.639 163.6544
512.727439 87.619 163.6614
516.442874 87.599 163.6644
520.185232 87.581 163.6642
523.954708 87.563 163.6619
527.751500 87.545 163.6600
531.575805 87.527 163.6617
535.427822 87.509 163.6716
539.307753 87.491 163.6949
543.215800 87.474 163.7370
547.152165 87.459 163.8026
551.117055 87.445 163.8942
555.110677 87.436 164.0114
559.133237 87.430 164.1501
563.184947 87.430 164.3034
567.266018 87.435 164.4629
571.376661 87.445 164.6204
575.517092 87.459 164.7690
579.687526 87.477 164.9043
583.888181 87.496 165.0240
588.119275 87.517 165.1277
592.381030 87.538 165.2163
596.673667 87.559 165.2918
600.997410 87.580 165.3563
605.352485 87.600 165.4122
609.739119 87.618 165.4612
614.157540 87.636 165.5049
618.607979 87.652 165.5445
623.090667 87.666 165.5807
627.605839 87.679 165.6143
632.153730 87.691 165.6456
636.734576 87.701 165.6749
641.348617 87.709 165.7025
645.996094 87.716 165.7285
650.677248 87.721 165.7534
655.392323 87.725 165.7775
660.141566 87.728 165.8012
664.925224 87.729 165.8248
669.743546 87.728 165.8484
674.596784 87.727 165.8718
679.485191 87.725 165.8948
684.409020 87.722 165.9169
689.368530 87.718 165.9378
694.363979 87.713 165.9568
699.395626 87.707 165.9734
704.463736 87.700 165.9872
709.568570 87.692 165.9977
714.710396 87.683 166.0047
719.889483 87.673 166.0079
725.106099 87.661 166.0076
730.360516 87.648 166.0038
735.653010 87.634 165.9968
740.983855 87.618 165.9870
746.353329 87.600 165.9746
751.761713 87.581 165.9601
757.209288 87.560 165.9440
762.696339 87.538 165.9267
768.223151 87.514 165.9084
773.790013 87.488 165.8895
779.397214 87.461 165.8705
785.045047 87.433 165.8522
790.733808 87.404 165.8354
796.463791 87.374 165.8208
802.235296 87.345 165.8087
808.048623 87.315 165.7984
813.904077 87.286 165.7889
819.801961 87.258 165.7787
825.742584 87.230 165.7662
831.726255 87.204 165.7503
837.753287 87.179 165.7300
843.823992 87.155 165.7048
849.938689 87.131 165.6746
856.097695 87.108 165.6393
862.301332 87.086 165.5992
868.549922 87.065 165.5544
874.843793 87.044 165.5050
881.183272 87.023 165.4512
887.568689 87.003 165.3932
894.000378 86.983 165.3315
900.478673 86.963 165.2670
907.003913 86.943 165.2005
913.576437 86.924 165.1329
920.196588 86.905 165.0648
926.864712 86.887 164.9969
933.581156 86.869 164.9297
940.346270 86.852 164.8641
947.160407 86.836 164.8011
954.023921 86.821 164.7422
960.937172 86.807 164.6888
967.900519 86.794 164.6424
974.914325 86.784 164.6040
981.978956 86.776 164.5742
989.094780 86.770 164.5529
996.262169 86.768 164.5390
1003.481495 86.769 164.5305
1010.753136 86.774 164.5250
1018.077470 86.782 164.5193
1025.454879 86.794 164.5105
1032.885748 86.808 164.4959
1040.370463 86.826 164.4736
1047.909417 86.845 164.4423
1055.503000 86.866 164.4016
1063.151610 86.887 164.3517
1070.855645 86.909 164.2937
1078.615506 86.932 164.2286
1086.431599 86.954 164.1580
1094.304330 86.975 164.0833
1102.234110 86.995 164.0060
1110.221353 87.015 163.9278
1118.266475 87.034 163.8498
1126.369895 87.051 163.7731
1134.532035 87.067 163.6985
1142.753322 87.082 163.6267
1151.034184 87.096 163.5579
1159.375052 87.109 163.4923
1167.776361 87.120 163.4301
1176.238550 87.130 163.3716
1184.762060 87.138 163.3175
1193.347334 87.146 163.2684
1201.994821 87.152 163.2249
1210.704971 87.157 163.1875
1219.478238 87.161 163.1567
1228.315080 87.164 163.1336
1237.215957 87.166 163.1194
1246.181334 87.167 163.1157
1255.211678 87.168 163.1241
1264.307459 87.168 163.1456
1273.469152 87.167 163.1809
1282.697235 87.167 163.2302
1291.992188 87.167 163.2935
1301.354495 87.166 163.3707
1310.784647 87.167 163.4619
1320.283132 87.168 163.5670
1329.850448 87.170 163.6852
1339.487093 87.173 163.8161
1349.193569 87.178 163.9588
1358.970381 87.184 164.1124
1368.818041 87.192 164.2759
1378.737061 87.201 164.4481
1388.727958 87.213 164.6274
1398.791253 87.227 164.8127
1408.927471 87.244 165.0028
1419.137140 87.262 165.1967
1429.420793 87.284 165.3937
1439.778965 87.307 165.5936
1450.212197 87.333 165.7963
1460.721033 87.362 166.0017
1471.306019 87.392 166.2097
1481.967709 87.424 166.4202
1492.706658 87.458 166.6333
1503.523426 87.493 166.8495
1514.418576 87.528 167.0698
1525.392678 87.562 167.2958
1536.446302 87.596 167.5294
1547.580025 87.629 167.7736
1558.794428 87.660 168.0317
1570.090095 87.689 168.3074
1581.467615 87.716 168.6044
1592.927581 87.742 168.9260
1604.470591 87.766 169.2741
1616.097246 87.790 169.6497
1627.808153 87.815 170.0519
1639.603922 87.840 170.4781
1651.485168 87.868 170.9237
1663.452510 87.898 171.3826
1675.506573 87.931 171.8477
1687.647984 87.967 172.3119
1699.877377 88.007 172.7682
1712.195390 88.049 173.2102
1724.602663 88.095 173.6322
1737.099845 88.144 174.0294
1749.687587 88.195 174.3981
1762.366544 88.247 174.7358
1775.137379 88.300 175.0410
1788.000756 88.353 175.3138
1800.957346 88.406 175.5550
1814.007826 88.458 175.7667
1827.152874 88.508 175.9514
1840.393177 88.557 176.1117
1853.729425 88.603 176.2498
1867.162312 88.648 176.3675
1880.692540 88.690 176.4659
1894.320813 88.730 176.5455
1908.047843 88.767 176.6061
1921.874344 88.802 176.6469
1935.801038 88.834 176.6670
1949.828650 88.864 176.6650
1963.957912 88.890 176.6393
1978.189561 88.914 176.5880
1992.524338 88.934 176.5100
2006.962991 88.950 176.4050
2021.506272 88.962 176.2737
2036.154940 88.969 176.1180
2050.909758 88.970 175.9409
2065.771495 88.967 175.7463
2080.740927 88.959 175.5380
2095.818833 88.946 175.3201
2111.006001 88.928 175.0959
2126.303220 88.906 174.8680
2141.711290 88.881 174.6386
2157.231013 88.854 174.4087
2172.863198 88.823 174.1790
2188.608660 88.791 173.9496
2204.468221 88.758 173.7202
2220.442706 88.723 173.4906
2236.532950 88.688 173.2600
2252.739789 88.651 173.0280
2269.064070 88.614 172.7940
2285.506644 88.576 172.5579
2302.068367 88.538 172.3199
2318.750104 88.498 172.0814
2335.552723 88.457 171.8439
2352.477101 88.416 171.6100
2369.524119 88.374 171.3820
2386.694668 88.332 171.1626
2403.989641 88.290 170.9534
2421.409941 88.250 170.7552
2438.956476 88.211 170.5672
2456.630160 88.176 170.3871
2474.431915 88.144 170.2109
2492.362668 88.116 170.0333
2510.423356 88.092 169.8481
2528.614918 88.071 169.6496
2546.938304 88.055 169.4329
2565.394469 88.040 169.1949
2583.984375 88.027 168.9349
2602.708991 88.013 168.6542
2621.569293 87.999 168.3560
2640.566265 87.983 168.0450
2659.700897 87.965 167.7267
2678.974186 87.943 167.4077
2698.387137 87.918 167.0948
2717.940763 87.888 166.7949
2737.636082 87.855 166.5150
2757.474121 87.819 166.2617
2777.455915 87.778 166.0414
2797.582506 87.735 165.8596
2817.854942 87.689 165.7214
2838.274281 87.642 165.6312
2858.841586 87.592 165.5931
2879.557931 87.542 165.6103
2900.424394 87.491 165.6860
2921.442065 87.440 165.8226
2942.612039 87.390 166.0220
2963.935418 87.342 166.2853
2985.413316 87.295 166.6125
3007.046852 87.252 167.0028
3028.837153 87.212 167.4544
3050.785356 87.176 167.9641
3072.892604 87.145 168.5275
3095.160050 87.119 169.1385
3117.588856 87.099 169.7893
3140.180190 87.086 170.4703
3162.935230 87.079 171.1703
3185.855163 87.080 171.8766
3208.941182 87.086 172.5754
3232.194493 87.098 173.2529
3255.616307 87.116 173.8962
3279.207844 87.137 174.4938
3302.970336 87.160 175.0369
3326.905021 87.184 175.5194
3351.013146 87.208 175.9384
3375.295969 87.229 176.2946
3399.754755 87.247 176.5915
3424.390779 87.261 176.8352
3449.205326 87.271 177.0330
3474.199690 87.276 177.1921
3499.375173 87.278 177.3185
3524.733088 87.277 177.4158
3550.274757 87.275 177.4843
