* Measurement data measured by REW V5.31.3
* Source: EXCL: Headset (USB-C to 3.5mm Headphone Jack Adapter), MICROPHONE (Master Volume), 0, volume: 0.750
* Format: 256k Log Swept Sine, 1 sweep at -12.0 dBFS with no timing reference
* Dated: Apr 7, 2025 4:39:21 PM
* REW Settings:
*  C-weighting compensation: Off
*  Target level: 75.0 dB
* Note: ; 
* Measurement: Satyr 3 (Forward) L6
* Smoothing: 1/6 octave
* Frequency Step: 96 ppo
* Start Frequency: 20.0 Hz
*
* Freq(Hz) SPL(dB) Phase(degrees)
20.187378 80.668 -98.0782
20.333664 80.705 -98.2330
20.481010 80.753 -98.4388
20.629424 80.813 -98.6879
20.778913 80.883 -98.9725
20.929486 80.962 -99.2852
21.081150 81.047 -99.6201
21.233912 81.138 -99.9727
21.387782 81.234 -100.3401
21.542767 81.333 -100.7208
21.698874 81.435 -101.1141
21.856113 81.537 -101.5199
22.014492 81.639 -101.9385
22.174018 81.740 -102.3696
22.334700 81.838 -102.8129
22.496546 81.932 -103.2670
22.659566 82.023 -103.7304
22.823766 82.109 -104.2008
22.989157 82.190 -104.6755
23.155745 82.265 -105.1517
23.323542 82.336 -105.6268
23.492554 82.402 -106.0983
23.662790 82.463 -106.5642
23.834261 82.521 -107.0230
24.006973 82.575 -107.4739
24.180938 82.627 -107.9166
24.356163 82.676 -108.3513
24.532658 82.723 -108.7788
24.710431 82.768 -109.2003
24.889493 82.811 -109.6173
25.069853 82.853 -110.0316
25.251519 82.893 -110.4452
25.434502 82.930 -110.8600
25.618811 82.966 -111.2782
25.804456 82.999 -111.7017
25.991445 83.030 -112.1325
26.179790 83.059 -112.5721
26.369500 83.086 -113.0221
26.560584 83.110 -113.4834
26.753053 83.134 -113.9570
26.946917 83.156 -114.4435
27.142185 83.178 -114.9432
27.338869 83.201 -115.4558
27.536977 83.225 -115.9811
27.736522 83.251 -116.5179
27.937512 83.278 -117.0649
28.139959 83.308 -117.6198
28.343872 83.340 -118.1799
28.549264 83.375 -118.7417
28.756143 83.411 -119.3016
28.964522 83.448 -119.8556
29.174411 83.487 -120.4003
29.385821 83.526 -120.9327
29.598763 83.566 -121.4509
29.813248 83.607 -121.9542
30.029287 83.649 -122.4429
30.246891 83.692 -122.9188
30.466073 83.737 -123.3843
30.686842 83.783 -123.8422
30.909212 83.831 -124.2954
31.133193 83.881 -124.7462
31.358797 83.934 -125.1963
31.586035 83.989 -125.6465
31.814921 84.047 -126.0968
32.045465 84.109 -126.5466
32.277680 84.173 -126.9947
32.511577 84.241 -127.4399
32.747169 84.312 -127.8811
32.984469 84.386 -128.3176
33.223488 84.463 -128.7486
33.464239 84.542 -129.1743
33.706735 84.623 -129.5948
33.950987 84.706 -130.0108
34.197010 84.790 -130.4233
34.444816 84.874 -130.8333
34.694417 84.958 -131.2421
34.945827 85.042 -131.6505
35.199059 85.126 -132.0588
35.454126 85.208 -132.4668
35.711041 85.289 -132.8735
35.969818 85.369 -133.2775
36.230470 85.447 -133.6767
36.493011 85.524 -134.0693
36.757455 85.599 -134.4538
37.023814 85.674 -134.8292
37.292104 85.748 -135.1957
37.562338 85.821 -135.5540
37.834530 85.894 -135.9056
38.108695 85.967 -136.2525
38.384846 86.039 -136.5969
38.662999 86.111 -136.9409
38.943167 86.182 -137.2869
39.225365 86.252 -137.6367
39.509608 86.320 -137.9920
39.795911 86.386 -138.3538
40.084289 86.451 -138.7227
40.374756 86.513 -139.0986
40.667328 86.574 -139.4808
40.962020 86.632 -139.8681
41.258848 86.689 -140.2593
41.557827 86.746 -140.6533
41.858972 86.802 -141.0492
42.162299 86.858 -141.4464
42.467824 86.915 -141.8446
42.775564 86.972 -142.2435
43.085533 87.031 -142.6428
43.397749 87.090 -143.0423
43.712227 87.149 -143.4422
44.028983 87.208 -143.8433
44.348036 87.265 -144.2466
44.669400 87.321 -144.6538
44.993093 87.373 -145.0666
45.319131 87.422 -145.4861
45.647532 87.467 -145.9129
45.978313 87.508 -146.3467
46.311491 87.545 -146.7865
46.647083 87.579 -147.2312
46.985107 87.610 -147.6795
47.325581 87.638 -148.1309
47.668521 87.666 -148.5853
48.013947 87.692 -149.0428
48.361876 87.718 -149.5038
48.712326 87.742 -149.9686
49.065315 87.764 -150.4369
49.420863 87.784 -150.9086
49.778987 87.802 -151.3839
50.139706 87.816 -151.8628
50.503039 87.829 -152.3461
50.869005 87.838 -152.8344
51.237623 87.845 -153.3279
51.608912 87.850 -153.8261
51.982891 87.854 -154.3282
52.359580 87.857 -154.8330
52.739000 87.859 -155.3396
53.121168 87.861 -155.8480
53.506106 87.863 -156.3589
53.893833 87.866 -156.8732
54.284370 87.870 -157.3920
54.677737 87.873 -157.9165
55.073955 87.877 -158.4473
55.473043 87.880 -158.9856
55.875024 87.883 -159.5331
56.279917 87.886 -160.0921
56.687745 87.888 -160.6654
57.098527 87.889 -161.2553
57.512287 87.891 -161.8626
57.929045 87.894 -162.4847
58.348822 87.897 -163.1147
58.771642 87.902 -163.7413
59.197525 87.910 -164.3496
59.626495 87.921 -164.9245
60.058573 87.935 -165.4536
60.493782 87.953 -165.9304
60.932145 87.974 -166.3556
61.373685 87.997 -166.7361
61.818424 88.023 -167.0831
62.266386 88.049 -167.4097
62.717593 88.077 -167.7281
63.172071 88.105 -168.0488
63.629842 88.133 -168.3790
64.090930 88.161 -168.7223
64.555359 88.189 -169.0795
65.023154 88.217 -169.4491
65.494339 88.244 -169.8287
65.968938 88.269 -170.2156
66.446976 88.294 -170.6079
66.928478 88.317 -171.0041
67.413469 88.338 -171.4035
67.901975 88.359 -171.8060
68.394021 88.378 -172.2115
68.889632 88.396 -172.6201
69.388835 88.413 -173.0320
69.891655 88.429 -173.4475
70.398118 88.444 -173.8668
70.908252 88.457 -174.2901
71.422083 88.468 -174.7169
71.939636 88.478 -175.1459
72.460941 88.485 -175.5752
72.986023 88.490 -176.0029
73.514909 88.492 -176.4268
74.047629 88.493 -176.8452
74.584208 88.490 -177.2567
75.124676 88.485 -177.6603
75.669061 88.478 -178.0556
76.217390 88.469 -178.4426
76.769692 88.458 -178.8217
77.325997 88.445 -179.1938
77.886333 88.429 -179.5600
78.450730 88.413 -179.9217
79.019216 88.394 179.7198
79.591822 88.374 179.3634
80.168577 88.353 179.0079
80.749512 88.330 178.6528
81.334656 88.307 178.2974
81.924040 88.283 177.9414
82.517696 88.259 177.5845
83.115653 88.235 177.2266
83.717943 88.211 176.8678
84.324598 88.186 176.5084
84.935649 88.162 176.1491
85.551128 88.137 175.7909
86.171066 88.112 175.4348
86.795497 88.087 175.0815
87.424453 88.061 174.7319
88.057967 88.034 174.3864
88.696071 88.007 174.0453
89.338800 87.979 173.7089
89.986185 87.951 173.3774
90.638262 87.922 173.0509
91.295065 87.893 172.7293
91.956626 87.863 172.4124
92.622982 87.834 172.0996
93.294166 87.804 171.7903
93.970214 87.774 171.4842
94.651161 87.745 171.1808
95.337042 87.716 170.8802
96.027894 87.687 170.5826
96.723752 87.658 170.2885
97.424652 87.630 169.9981
98.130631 87.603 169.7114
98.841726 87.577 169.4280
99.557974 87.552 169.1478
100.279412 87.528 168.8701
101.006078 87.505 168.5943
101.738010 87.483 168.3201
102.475245 87.462 168.0469
103.217823 87.442 167.7744
103.965782 87.423 167.5024
104.719161 87.405 167.2302
105.477999 87.387 166.9572
106.242336 87.368 166.6827
107.012212 87.350 166.4066
107.787666 87.332 166.1293
108.568740 87.314 165.8518
109.355474 87.296 165.5753
110.147909 87.279 165.3014
110.946086 87.263 165.0311
111.750047 87.247 164.7652
112.559834 87.232 164.5038
113.375489 87.218 164.2468
114.197055 87.203 163.9937
115.024574 87.189 163.7438
115.858089 87.175 163.4965
116.697645 87.160 163.2510
117.543284 87.144 163.0071
118.395051 87.128 162.7650
119.252990 87.111 162.5253
120.117147 87.094 162.2896
120.987565 87.075 162.0597
121.864291 87.056 161.8380
122.747370 87.036 161.6265
123.636848 87.016 161.4271
124.532771 86.996 161.2411
125.435187 86.976 161.0695
126.344142 86.956 160.9128
127.259684 86.937 160.7706
128.181860 86.918 160.6414
129.110718 86.900 160.5232
130.046308 86.883 160.4130
130.988677 86.868 160.3074
131.937875 86.853 160.2028
132.893951 86.840 160.0956
133.856956 86.828 159.9825
134.826938 86.816 159.8611
135.803950 86.804 159.7292
136.788041 86.792 159.5857
137.779264 86.780 159.4294
138.777669 86.767 159.2603
139.783309 86.752 159.0786
140.796237 86.736 158.8860
141.816504 86.717 158.6845
142.844165 86.695 158.4771
143.879273 86.671 158.2670
144.921881 86.643 158.0569
145.972045 86.613 157.8493
147.029819 86.581 157.6461
148.095257 86.546 157.4488
149.168417 86.510 157.2588
150.249353 86.471 157.0776
151.338121 86.431 156.9073
152.434780 86.390 156.7500
153.539385 86.348 156.6074
154.651995 86.305 156.4810
155.772667 86.262 156.3715
156.901460 86.219 156.2791
158.038432 86.178 156.2029
159.183644 86.138 156.1418
160.337154 86.099 156.0943
161.499023 86.063 156.0585
162.669312 86.029 156.0327
163.848081 85.997 156.0157
165.035392 85.969 156.0062
166.231306 85.943 156.0030
167.435887 85.921 156.0046
168.649196 85.901 156.0092
169.871298 85.886 156.0145
171.102255 85.873 156.0178
172.342133 85.864 156.0165
173.590995 85.857 156.0081
174.848907 85.853 155.9905
176.115934 85.851 155.9617
177.392143 85.849 155.9205
178.677599 85.849 155.8661
179.972371 85.848 155.7983
181.276525 85.848 155.7172
182.590129 85.847 155.6235
183.913252 85.846 155.5181
185.245964 85.843 155.4021
186.588332 85.840 155.2765
187.940428 85.836 155.1420
189.302322 85.830 154.9993
190.674085 85.823 154.8486
192.055788 85.814 154.6902
193.447503 85.804 154.5243
194.849303 85.792 154.3513
196.261262 85.779 154.1720
197.683452 85.765 153.9872
199.115948 85.750 153.7979
200.558824 85.735 153.6049
202.012156 85.720 153.4089
203.476019 85.706 153.2107
204.950490 85.691 153.0110
206.435646 85.678 152.8110
207.931564 85.665 152.6116
209.438322 85.652 152.4140
210.955998 85.640 152.2190
212.484672 85.629 152.0274
214.024424 85.618 151.8399
215.575333 85.608 151.6569
217.137481 85.597 151.4785
218.710948 85.587 151.3044
220.295818 85.577 151.1340
221.892172 85.567 150.9664
223.500094 85.557 150.8004
225.119668 85.547 150.6348
226.750978 85.539 150.4688
228.394109 85.531 150.3013
230.049147 85.524 150.1322
231.716178 85.518 149.9616
233.395289 85.514 149.7901
235.086567 85.510 149.6181
236.790102 85.507 149.4460
238.505980 85.505 149.2738
240.234293 85.503 149.1016
241.975130 85.502 148.9291
243.728581 85.501 148.7564
245.494739 85.501 148.5833
247.273695 85.501 148.4099
249.065542 85.501 148.2365
250.870374 85.501 148.0641
252.688284 85.501 147.8935
254.519367 85.503 147.7259
256.363720 85.504 147.5618
258.221437 85.506 147.4012
260.092616 85.509 147.2438
261.977354 85.512 147.0884
263.875750 85.515 146.9343
265.787903 85.518 146.7805
267.713911 85.521 146.6264
269.653877 85.524 146.4718
271.607900 85.527 146.3164
273.576083 85.529 146.1605
275.558528 85.531 146.0042
277.555338 85.532 145.8479
279.566619 85.534 145.6916
281.592474 85.536 145.5357
283.633009 85.539 145.3801
285.688331 85.542 145.2249
287.758546 85.546 145.0701
289.843763 85.551 144.9158
291.944090 85.556 144.7621
294.059638 85.562 144.6095
296.190515 85.568 144.4581
298.336833 85.574 144.3078
300.498705 85.580 144.1587
302.676243 85.587 144.0107
304.869559 85.593 143.8640
307.078770 85.600 143.7186
309.303989 85.607 143.5748
311.545334 85.614 143.4326
313.802919 85.622 143.2919
316.076865 85.630 143.1525
318.367288 85.638 143.0138
320.674309 85.647 142.8752
322.998047 85.656 142.7363
325.338624 85.665 142.5963
327.696162 85.675 142.4548
330.070783 85.684 142.3118
332.462612 85.693 142.1676
334.871773 85.702 142.0226
337.298392 85.710 141.8773
339.742595 85.718 141.7319
342.204510 85.725 141.5865
344.684265 85.730 141.4408
347.181989 85.735 141.2941
349.697813 85.738 141.1457
352.231868 85.740 140.9950
354.784285 85.741 140.8419
357.355198 85.740 140.6865
359.944741 85.739 140.5293
362.553049 85.736 140.3706
365.180258 85.733 140.2105
367.826505 85.729 140.0491
370.491927 85.725 139.8864
373.176665 85.721 139.7225
375.880856 85.716 139.5576
378.604644 85.712 139.3918
381.348169 85.707 139.2250
384.111575 85.702 139.0569
386.895006 85.696 138.8873
389.698607 85.690 138.7164
392.522524 85.684 138.5443
395.366904 85.677 138.3715
398.231895 85.669 138.1985
401.117648 85.659 138.0260
404.024312 85.649 137.8547
406.952038 85.637 137.6852
409.900981 85.625 137.5181
412.871292 85.611 137.3539
415.863128 85.596 137.1930
418.876643 85.580 137.0359
421.911996 85.563 136.8827
424.969344 85.545 136.7332
428.048847 85.527 136.5870
431.150666 85.509 136.4431
434.274961 85.489 136.3008
437.421897 85.470 136.1591
440.591636 85.450 136.0172
443.784345 85.429 135.8748
447.000189 85.408 135.7313
450.239337 85.387 135.5867
453.501956 85.364 135.4407
456.788219 85.342 135.2929
460.098294 85.320 135.1429
463.432356 85.297 134.9904
466.790578 85.276 134.8348
470.173135 85.255 134.6762
473.580203 85.234 134.5145
477.011961 85.215 134.3499
480.468586 85.197 134.1830
483.950259 85.180 134.0142
487.457163 85.164 133.8439
490.989478 85.149 133.6725
494.547390 85.135 133.5007
498.131084 85.123 133.3287
501.740748 85.111 133.1570
505.376568 85.101 132.9858
509.038735 85.092 132.8154
512.727439 85.085 132.6453
516.442874 85.079 132.4750
520.185232 85.076 132.3039
523.954708 85.075 132.1313
527.751500 85.076 131.9569
531.575805 85.080 131.7802
535.427822 85.086 131.6011
539.307753 85.094 131.4194
543.215800 85.105 131.2350
547.152165 85.118 131.0478
551.117055 85.134 130.8578
555.110677 85.152 130.6653
559.133237 85.172 130.4701
563.184947 85.195 130.2724
567.266018 85.219 130.0723
571.376661 85.245 129.8699
575.517092 85.272 129.6658
579.687526 85.301 129.4601
583.888181 85.330 129.2531
588.119275 85.360 129.0447
592.381030 85.390 128.8344
596.673667 85.420 128.6214
600.997410 85.451 128.4045
605.352485 85.481 128.1823
609.739119 85.512 127.9534
614.157540 85.541 127.7171
618.607979 85.570 127.4728
623.090667 85.598 127.2205
627.605839 85.625 126.9608
632.153730 85.651 126.6947
636.734576 85.675 126.4231
641.348617 85.698 126.1471
645.996094 85.720 125.8674
650.677248 85.740 125.5840
655.392323 85.760 125.2968
660.141566 85.778 125.0047
664.925224 85.796 124.7068
669.743546 85.813 124.4016
674.596784 85.829 124.0881
679.485191 85.844 123.7655
684.409020 85.859 123.4334
689.368530 85.871 123.0920
694.363979 85.883 122.7419
699.395626 85.893 122.3839
704.463736 85.901 122.0195
709.568570 85.908 121.6499
714.710396 85.912 121.2767
719.889483 85.915 120.9007
725.106099 85.917 120.5225
730.360516 85.917 120.1415
735.653010 85.916 119.7568
740.983855 85.913 119.3672
746.353329 85.909 118.9715
751.761713 85.904 118.5693
757.209288 85.897 118.1602
762.696339 85.890 117.7440
768.223151 85.881 117.3203
773.790013 85.871 116.8887
779.397214 85.860 116.4489
785.045047 85.848 116.0007
790.733808 85.834 115.5444
796.463791 85.820 115.0806
802.235296 85.804 114.6097
808.048623 85.788 114.1324
813.904077 85.771 113.6490
819.801961 85.753 113.1592
825.742584 85.735 112.6630
831.726255 85.716 112.1598
837.753287 85.698 111.6496
843.823992 85.679 111.1322
849.938689 85.660 110.6078
856.097695 85.640 110.0767
862.301332 85.621 109.5392
868.549922 85.601 108.9960
874.843793 85.582 108.4477
881.183272 85.562 107.8950
887.568689 85.542 107.3383
894.000378 85.522 106.7779
900.478673 85.502 106.2138
907.003913 85.482 105.6458
913.576437 85.461 105.0740
920.196588 85.441 104.4989
926.864712 85.421 103.9211
933.581156 85.401 103.3416
940.346270 85.381 102.7614
947.160407 85.361 102.1814
954.023921 85.341 101.6022
960.937172 85.323 101.0243
967.900519 85.305 100.4475
974.914325 85.289 99.8718
981.978956 85.273 99.2969
989.094780 85.259 98.7230
996.262169 85.247 98.1498
1003.481495 85.236 97.5770
1010.753136 85.227 97.0041
1018.077470 85.219 96.4298
1025.454879 85.214 95.8528
1032.885748 85.209 95.2715
1040.370463 85.206 94.6850
1047.909417 85.203 94.0930
1055.503000 85.200 93.4969
1063.151610 85.196 92.8987
1070.855645 85.191 92.3014
1078.615506 85.185 91.7083
1086.431599 85.177 91.1218
1094.304330 85.168 90.5437
1102.234110 85.158 89.9749
1110.221353 85.147 89.4155
1118.266475 85.135 88.8649
1126.369895 85.123 88.3225
1134.532035 85.110 87.7878
1142.753322 85.096 87.2602
1151.034184 85.082 86.7395
1159.375052 85.066 86.2255
1167.776361 85.050 85.7177
1176.238550 85.034 85.2158
1184.762060 85.017 84.7191
1193.347334 84.999 84.2272
1201.994821 84.980 83.7402
1210.704971 84.961 83.2583
1219.478238 84.940 82.7826
1228.315080 84.919 82.3141
1237.215957 84.897 81.8540
1246.181334 84.874 81.4035
1255.211678 84.852 80.9631
1264.307459 84.828 80.5331
1273.469152 84.805 80.1133
1282.697235 84.782 79.7030
1291.992188 84.760 79.3017
1301.354495 84.737 78.9085
1310.784647 84.715 78.5229
1320.283132 84.692 78.1443
1329.850448 84.670 77.7723
1339.487093 84.648 77.4064
1349.193569 84.625 77.0467
1358.970381 84.603 76.6934
1368.818041 84.581 76.3468
1378.737061 84.559 76.0067
1388.727958 84.538 75.6728
1398.791253 84.518 75.3444
1408.927471 84.498 75.0211
1419.137140 84.478 74.7032
1429.420793 84.460 74.3913
1439.778965 84.442 74.0861
1450.212197 84.425 73.7886
1460.721033 84.408 73.5001
1471.306019 84.392 73.2225
1481.967709 84.376 72.9584
1492.706658 84.360 72.7109
1503.523426 84.344 72.4832
1514.418576 84.328 72.2780
1525.392678 84.313 72.0966
1536.446302 84.298 71.9397
1547.580025 84.284 71.8064
1558.794428 84.270 71.6951
1570.090095 84.256 71.6041
1581.467615 84.243 71.5315
1592.927581 84.229 71.4756
1604.470591 84.215 71.4347
1616.097246 84.200 71.4071
1627.808153 84.185 71.3913
1639.603922 84.168 71.3863
1651.485168 84.150 71.3915
1663.452510 84.130 71.4073
1675.506573 84.109 71.4346
1687.647984 84.087 71.4751
1699.877377 84.064 71.5309
1712.195390 84.041 71.6042
1724.602663 84.019 71.6960
1737.099845 83.998 71.8059
1749.687587 83.980 71.9313
1762.366544 83.966 72.0677
1775.137379 83.956 72.2093
1788.000756 83.950 72.3489
1800.957346 83.948 72.4793
1814.007826 83.951 72.5939
1827.152874 83.957 72.6877
1840.393177 83.965 72.7579
1853.729425 83.974 72.8040
1867.162312 83.984 72.8281
1880.692540 83.993 72.8328
1894.320813 84.003 72.8208
1908.047843 84.013 72.7934
1921.874344 84.022 72.7505
1935.801038 84.032 72.6907
1949.828650 84.042 72.6107
1963.957912 84.052 72.5063
1978.189561 84.063 72.3724
1992.524338 84.073 72.2046
2006.962991 84.082 72.0002
2021.506272 84.088 71.7590
2036.154940 84.092 71.4834
2050.909758 84.092 71.1775
2065.771495 84.089 70.8457
2080.740927 84.083 70.4917
2095.818833 84.074 70.1183
2111.006001 84.062 69.7274
2126.303220 84.049 69.3201
2141.711290 84.033 68.8963
2157.231013 84.017 68.4554
2172.863198 83.999 67.9969
2188.608660 83.980 67.5210
2204.468221 83.959 67.0286
2220.442706 83.938 66.5214
2236.532950 83.914 66.0010
2252.739789 83.890 65.4689
2269.064070 83.864 64.9265
2285.506644 83.837 64.3754
2302.068367 83.809 63.8176
2318.750104 83.780 63.2552
2335.552723 83.750 62.6899
2352.477101 83.720 62.1231
2369.524119 83.691 61.5550
2386.694668 83.662 60.9850
2403.989641 83.634 60.4116
2421.409941 83.609 59.8326
2438.956476 83.584 59.2456
2456.630160 83.562 58.6489
2474.431915 83.542 58.0408
2492.362668 83.523 57.4203
2510.423356 83.506 56.7862
2528.614918 83.490 56.1379
2546.938304 83.475 55.4753
2565.394469 83.461 54.7985
2583.984375 83.446 54.1084
2602.708991 83.431 53.4064
2621.569293 83.415 52.6951
2640.566265 83.396 51.9783
2659.700897 83.374 51.2614
2678.974186 83.348 50.5510
2698.387137 83.319 49.8545
2717.940763 83.287 49.1793
2737.636082 83.251 48.5326
2757.474121 83.212 47.9205
2777.455915 83.171 47.3478
2797.582506 83.129 46.8182
2817.854942 83.087 46.3344
2838.274281 83.044 45.8984
2858.841586 83.003 45.5118
2879.557931 82.963 45.1754
2900.424394 82.925 44.8895
2921.442065 82.890 44.6537
2942.612039 82.858 44.4663
2963.935418 82.830 44.3249
2985.413316 82.807 44.2258
3007.046852 82.789 44.1643
3028.837153 82.775 44.1346
3050.785356 82.766 44.1301
3072.892604 82.763 44.1430
3095.160050 82.764 44.1645
3117.588856 82.769 44.1851
3140.180190 82.778 44.1945
3162.935230 82.789 44.1829
3185.855163 82.800 44.1423
3208.941182 82.810 44.0675
3232.194493 82.817 43.9576
3255.616307 82.818 43.8159
3279.207844 82.813 43.6505
3302.970336 82.799 43.4724
3326.905021 82.778 43.2949
3351.013146 82.749 43.1313
3375.295969 82.715 42.9932
3399.754755 82.677 42.8887
3424.390779 82.638 42.8207
3449.205326 82.602 42.7855
3474.199690 82.573 42.7718
3499.375173 82.552 42.7615
3524.733088 82.543 42.7312
3550.274757 82.547 42.6543
3576.001511 82.563 42.5049
3601.914692 82.589 42.2606
3628.015651 82.623 41.9046
3654.305748 82.661 41.4279
3680.786354 82.700 40.8294
3707.458849 82.736 40.1155
3734.324624 82.764 39.2990
