* Measurement data measured by REW V5.31.3
* Source: EXCL: Headset (USB-C to 3.5mm Headphone Jack Adapter), MICROPHONE (Master Volume), 0, volume: 0.750
* Format: 256k Log Swept Sine, 1 sweep at -12.0 dBFS with no timing reference
* Dated: Apr 1, 2025 10:29:50 PM
* REW Settings:
*  C-weighting compensation: Off
*  Target level: 75.0 dB
* Note: ; 
* Measurement: Satyr 3 (Massive Mod) L2
* Smoothing: 1/6 octave
* Frequency Step: 96 ppo
* Start Frequency: 20.0 Hz
*
* Freq(Hz) SPL(dB) Phase(degrees)
20.187378 87.249 -108.1933
20.333664 87.270 -108.3658
20.481010 87.299 -108.5976
20.629424 87.335 -108.8826
20.778913 87.379 -109.2141
20.929486 87.429 -109.5854
21.081150 87.487 -109.9901
21.233912 87.552 -110.4226
21.387782 87.624 -110.8777
21.542767 87.702 -111.3510
21.698874 87.787 -111.8383
21.856113 87.877 -112.3360
22.014492 87.972 -112.8401
22.174018 88.070 -113.3467
22.334700 88.169 -113.8517
22.496546 88.269 -114.3507
22.659566 88.367 -114.8393
22.823766 88.461 -115.3134
22.989157 88.552 -115.7695
23.155745 88.636 -116.2050
23.323542 88.715 -116.6187
23.492554 88.787 -117.0114
23.662790 88.851 -117.3855
23.834261 88.909 -117.7455
24.006973 88.961 -118.0974
24.180938 89.006 -118.4486
24.356163 89.045 -118.8069
24.532658 89.080 -119.1799
24.710431 89.109 -119.5742
24.889493 89.135 -119.9944
25.069853 89.156 -120.4426
25.251519 89.174 -120.9183
25.434502 89.190 -121.4181
25.618811 89.203 -121.9360
25.804456 89.214 -122.4644
25.991445 89.225 -122.9943
26.179790 89.236 -123.5172
26.369500 89.249 -124.0252
26.560584 89.265 -124.5127
26.753053 89.284 -124.9764
26.946917 89.307 -125.4163
27.142185 89.335 -125.8351
27.338869 89.367 -126.2379
27.536977 89.405 -126.6318
27.736522 89.445 -127.0241
27.937512 89.489 -127.4221
28.139959 89.534 -127.8316
28.343872 89.579 -128.2564
28.549264 89.623 -128.6978
28.756143 89.666 -129.1546
28.964522 89.706 -129.6236
29.174411 89.744 -130.1001
29.385821 89.780 -130.5784
29.598763 89.813 -131.0534
29.813248 89.845 -131.5204
30.029287 89.875 -131.9766
30.246891 89.906 -132.4209
30.466073 89.937 -132.8541
30.686842 89.969 -133.2785
30.909212 90.002 -133.6978
31.133193 90.036 -134.1160
31.358797 90.071 -134.5372
31.586035 90.108 -134.9649
31.814921 90.147 -135.4018
32.045465 90.188 -135.8497
32.277680 90.232 -136.3093
32.511577 90.281 -136.7805
32.747169 90.335 -137.2625
32.984469 90.394 -137.7536
33.223488 90.459 -138.2517
33.464239 90.529 -138.7536
33.706735 90.606 -139.2556
33.950987 90.686 -139.7535
34.197010 90.770 -140.2427
34.444816 90.856 -140.7186
34.694417 90.942 -141.1776
34.945827 91.028 -141.6172
35.199059 91.112 -142.0364
35.454126 91.195 -142.4362
35.711041 91.274 -142.8191
35.969818 91.351 -143.1892
36.230470 91.426 -143.5513
36.493011 91.498 -143.9103
36.757455 91.568 -144.2706
37.023814 91.636 -144.6353
37.292104 91.702 -145.0065
37.562338 91.767 -145.3847
37.834530 91.830 -145.7692
38.108695 91.890 -146.1583
38.384846 91.949 -146.5499
38.662999 92.006 -146.9414
38.943167 92.061 -147.3306
39.225365 92.113 -147.7156
39.509608 92.163 -148.0955
39.795911 92.211 -148.4699
40.084289 92.258 -148.8394
40.374756 92.304 -149.2055
40.667328 92.349 -149.5699
40.962020 92.393 -149.9347
41.258848 92.437 -150.3019
41.557827 92.481 -150.6731
41.858972 92.524 -151.0496
42.162299 92.566 -151.4322
42.467824 92.608 -151.8214
42.775564 92.649 -152.2173
43.085533 92.689 -152.6195
43.397749 92.728 -153.0274
43.712227 92.765 -153.4397
44.028983 92.802 -153.8550
44.348036 92.838 -154.2713
44.669400 92.873 -154.6867
44.993093 92.907 -155.0996
45.319131 92.940 -155.5090
45.647532 92.972 -155.9151
45.978313 93.003 -156.3190
46.311491 93.033 -156.7224
46.647083 93.061 -157.1276
46.985107 93.088 -157.5366
47.325581 93.113 -157.9510
47.668521 93.137 -158.3713
48.013947 93.159 -158.7974
48.361876 93.180 -159.2287
48.712326 93.201 -159.6640
49.065315 93.221 -160.1023
49.420863 93.240 -160.5424
49.778987 93.258 -160.9832
50.139706 93.274 -161.4238
50.503039 93.289 -161.8639
50.869005 93.302 -162.3042
51.237623 93.313 -162.7458
51.608912 93.323 -163.1906
51.982891 93.330 -163.6405
52.359580 93.334 -164.0967
52.739000 93.337 -164.5595
53.121168 93.337 -165.0281
53.506106 93.334 -165.5010
53.893833 93.330 -165.9762
54.284370 93.323 -166.4522
54.677737 93.316 -166.9275
55.073955 93.307 -167.4011
55.473043 93.298 -167.8723
55.875024 93.288 -168.3409
56.279917 93.278 -168.8070
56.687745 93.267 -169.2710
57.098527 93.256 -169.7340
57.512287 93.244 -170.1968
57.929045 93.233 -170.6600
58.348822 93.223 -171.1228
58.771642 93.215 -171.5835
59.197525 93.210 -172.0392
59.626495 93.209 -172.4875
60.058573 93.212 -172.9264
60.493782 93.220 -173.3556
60.932145 93.232 -173.7756
61.373685 93.249 -174.1881
61.818424 93.269 -174.5950
62.266386 93.292 -174.9985
62.717593 93.317 -175.4007
63.172071 93.342 -175.8035
63.629842 93.369 -176.2085
64.090930 93.396 -176.6164
64.555359 93.423 -177.0272
65.023154 93.450 -177.4400
65.494339 93.476 -177.8540
65.968938 93.501 -178.2677
66.446976 93.526 -178.6801
66.928478 93.549 -179.0900
67.413469 93.571 -179.4967
67.901975 93.592 -179.8999
68.394021 93.610 179.6998
68.889632 93.627 179.3018
69.388835 93.642 178.9051
69.891655 93.655 178.5091
70.398118 93.666 178.1132
70.908252 93.674 177.7173
71.422083 93.680 177.3214
71.939636 93.683 176.9255
72.460941 93.683 176.5296
72.986023 93.681 176.1341
73.514909 93.675 175.7390
74.047629 93.667 175.3446
74.584208 93.656 174.9514
75.124676 93.643 174.5595
75.669061 93.626 174.1694
76.217390 93.608 173.7811
76.769692 93.587 173.3948
77.325997 93.564 173.0109
77.886333 93.539 172.6298
78.450730 93.512 172.2522
79.019216 93.485 171.8792
79.591822 93.456 171.5114
80.168577 93.426 171.1495
80.749512 93.396 170.7936
81.334656 93.364 170.4434
81.924040 93.333 170.0985
82.517696 93.300 169.7582
83.115653 93.268 169.4217
83.717943 93.234 169.0886
84.324598 93.201 168.7582
84.935649 93.167 168.4305
85.551128 93.134 168.1053
86.171066 93.100 167.7828
86.795497 93.065 167.4633
87.424453 93.031 167.1468
88.057967 92.997 166.8334
88.696071 92.962 166.5233
89.338800 92.927 166.2162
89.986185 92.892 165.9124
90.638262 92.856 165.6119
91.295065 92.821 165.3150
91.956626 92.784 165.0220
92.622982 92.748 164.7336
93.294166 92.711 164.4500
93.970214 92.674 164.1716
94.651161 92.637 163.8983
95.337042 92.600 163.6300
96.027894 92.563 163.3660
96.723752 92.526 163.1056
97.424652 92.490 162.8479
98.130631 92.454 162.5920
98.841726 92.419 162.3373
99.557974 92.385 162.0832
100.279412 92.351 161.8295
101.006078 92.319 161.5760
101.738010 92.287 161.3231
102.475245 92.257 161.0709
103.217823 92.227 160.8204
103.965782 92.199 160.5724
104.719161 92.171 160.3283
105.477999 92.144 160.0892
106.242336 92.118 159.8560
107.012212 92.093 159.6292
107.787666 92.070 159.4088
108.568740 92.047 159.1941
109.355474 92.025 158.9839
110.147909 92.005 158.7766
110.946086 91.986 158.5701
111.750047 91.968 158.3631
112.559834 91.952 158.1542
113.375489 91.936 157.9431
114.197055 91.921 157.7299
115.024574 91.906 157.5153
115.858089 91.892 157.3002
116.697645 91.878 157.0859
117.543284 91.863 156.8734
118.395051 91.849 156.6635
119.252990 91.834 156.4565
120.117147 91.819 156.2523
120.987565 91.804 156.0507
121.864291 91.788 155.8508
122.747370 91.772 155.6520
123.636848 91.755 155.4532
124.532771 91.736 155.2540
125.435187 91.717 155.0539
126.344142 91.697 154.8530
127.259684 91.676 154.6516
128.181860 91.653 154.4503
129.110718 91.629 154.2495
130.046308 91.604 154.0499
130.988677 91.578 153.8520
131.937875 91.550 153.6565
132.893951 91.520 153.4640
133.856956 91.488 153.2755
134.826938 91.455 153.0917
135.803950 91.420 152.9138
136.788041 91.383 152.7424
137.779264 91.343 152.5785
138.777669 91.303 152.4229
139.783309 91.260 152.2762
140.796237 91.216 152.1390
141.816504 91.171 152.0115
142.844165 91.125 151.8934
143.879273 91.079 151.7838
144.921881 91.032 151.6813
145.972045 90.986 151.5842
147.029819 90.939 151.4905
148.095257 90.893 151.3987
149.168417 90.848 151.3074
150.249353 90.802 151.2161
151.338121 90.757 151.1249
152.434780 90.711 151.0340
153.539385 90.665 150.9444
154.651995 90.618 150.8573
155.772667 90.571 150.7744
156.901460 90.524 150.6973
158.038432 90.476 150.6280
159.183644 90.427 150.5681
160.337154 90.378 150.5192
161.499023 90.330 150.4826
162.669312 90.281 150.4595
163.848081 90.232 150.4506
165.035392 90.185 150.4564
166.231306 90.138 150.4774
167.435887 90.092 150.5133
168.649196 90.049 150.5642
169.871298 90.007 150.6296
171.102255 89.968 150.7086
172.342133 89.931 150.7997
173.590995 89.898 150.9010
174.848907 89.868 151.0101
176.115934 89.841 151.1240
177.392143 89.817 151.2393
178.677599 89.797 151.3525
179.972371 89.780 151.4597
181.276525 89.766 151.5576
182.590129 89.754 151.6431
183.913252 89.744 151.7139
185.245964 89.736 151.7683
186.588332 89.729 151.8051
187.940428 89.723 151.8239
189.302322 89.717 151.8249
190.674085 89.712 151.8091
192.055788 89.706 151.7781
193.447503 89.699 151.7334
194.849303 89.692 151.6767
196.261262 89.684 151.6096
197.683452 89.675 151.5334
199.115948 89.665 151.4494
200.558824 89.654 151.3590
202.012156 89.643 151.2635
203.476019 89.631 151.1642
204.950490 89.619 151.0618
206.435646 89.607 150.9572
207.931564 89.595 150.8507
209.438322 89.583 150.7427
210.955998 89.570 150.6333
212.484672 89.557 150.5226
214.024424 89.544 150.4108
215.575333 89.530 150.2982
217.137481 89.516 150.1852
218.710948 89.502 150.0724
220.295818 89.488 149.9608
221.892172 89.475 149.8511
223.500094 89.462 149.7443
225.119668 89.449 149.6413
226.750978 89.437 149.5426
228.394109 89.425 149.4486
230.049147 89.414 149.3592
231.716178 89.404 149.2738
233.395289 89.394 149.1920
235.086567 89.386 149.1129
236.790102 89.378 149.0360
238.505980 89.371 148.9604
240.234293 89.366 148.8857
241.975130 89.361 148.8109
243.728581 89.357 148.7355
245.494739 89.353 148.6591
247.273695 89.351 148.5817
249.065542 89.348 148.5032
250.870374 89.346 148.4236
252.688284 89.345 148.3431
254.519367 89.343 148.2618
256.363720 89.341 148.1800
258.221437 89.340 148.0979
260.092616 89.338 148.0158
261.977354 89.335 147.9343
263.875750 89.333 147.8540
265.787903 89.330 147.7759
267.713911 89.328 147.7010
269.653877 89.325 147.6299
271.607900 89.323 147.5630
273.576083 89.321 147.5002
275.558528 89.319 147.4410
277.555338 89.317 147.3844
279.566619 89.316 147.3293
281.592474 89.314 147.2747
283.633009 89.314 147.2201
285.688331 89.314 147.1652
287.758546 89.315 147.1100
289.843763 89.316 147.0549
291.944090 89.318 147.0001
294.059638 89.322 146.9459
296.190515 89.326 146.8925
298.336833 89.332 146.8398
300.498705 89.339 146.7876
302.676243 89.346 146.7354
304.869559 89.354 146.6826
307.078770 89.363 146.6283
309.303989 89.373 146.5720
311.545334 89.383 146.5129
313.802919 89.394 146.4507
316.076865 89.405 146.3845
318.367288 89.416 146.3138
320.674309 89.427 146.2384
322.998047 89.437 146.1583
325.338624 89.448 146.0737
327.696162 89.457 145.9855
330.070783 89.465 145.8944
332.462612 89.472 145.8014
334.871773 89.478 145.7074
337.298392 89.482 145.6128
339.742595 89.485 145.5183
342.204510 89.487 145.4243
344.684265 89.487 145.3314
347.181989 89.485 145.2400
349.697813 89.482 145.1505
352.231868 89.477 145.0633
354.784285 89.471 144.9789
357.355198 89.464 144.8979
359.944741 89.456 144.8209
362.553049 89.447 144.7482
365.180258 89.436 144.6801
367.826505 89.425 144.6165
370.491927 89.414 144.5572
373.176665 89.402 144.5012
375.880856 89.389 144.4480
378.604644 89.377 144.3965
381.348169 89.364 144.3462
384.111575 89.352 144.2964
386.895006 89.340 144.2467
389.698607 89.328 144.1970
392.522524 89.317 144.1471
395.366904 89.305 144.0970
398.231895 89.293 144.0465
401.117648 89.282 143.9958
404.024312 89.269 143.9451
406.952038 89.256 143.8949
409.900981 89.243 143.8457
412.871292 89.228 143.7980
415.863128 89.212 143.7523
418.876643 89.195 143.7090
421.911996 89.177 143.6682
424.969344 89.158 143.6299
428.048847 89.138 143.5939
431.150666 89.117 143.5598
434.274961 89.095 143.5267
437.421897 89.072 143.4937
440.591636 89.048 143.4597
443.784345 89.023 143.4239
447.000189 88.998 143.3857
450.239337 88.972 143.3451
453.501956 88.946 143.3019
456.788219 88.919 143.2564
460.098294 88.891 143.2087
463.432356 88.864 143.1591
466.790578 88.837 143.1079
470.173135 88.810 143.0555
473.580203 88.784 143.0023
477.011961 88.759 142.9489
480.468586 88.735 142.8954
483.950259 88.711 142.8423
487.457163 88.689 142.7896
490.989478 88.667 142.7370
494.547390 88.647 142.6845
498.131084 88.628 142.6321
501.740748 88.609 142.5797
505.376568 88.592 142.5273
509.038735 88.577 142.4751
512.727439 88.563 142.4225
516.442874 88.551 142.3694
520.185232 88.541 142.3148
523.954708 88.532 142.2583
527.751500 88.526 142.1992
531.575805 88.522 142.1374
535.427822 88.520 142.0729
539.307753 88.520 142.0062
543.215800 88.523 141.9380
547.152165 88.528 141.8695
551.117055 88.535 141.8014
555.110677 88.544 141.7344
559.133237 88.555 141.6688
563.184947 88.568 141.6043
567.266018 88.583 141.5404
571.376661 88.600 141.4764
575.517092 88.618 141.4119
579.687526 88.637 141.3463
583.888181 88.657 141.2793
588.119275 88.677 141.2109
592.381030 88.697 141.1413
596.673667 88.718 141.0706
600.997410 88.738 140.9989
605.352485 88.757 140.9263
609.739119 88.776 140.8527
614.157540 88.794 140.7776
618.607979 88.812 140.7009
623.090667 88.828 140.6222
627.605839 88.843 140.5412
632.153730 88.858 140.4577
636.734576 88.871 140.3711
641.348617 88.884 140.2809
645.996094 88.895 140.1864
650.677248 88.905 140.0872
655.392323 88.914 139.9828
660.141566 88.922 139.8734
664.925224 88.928 139.7593
669.743546 88.933 139.6414
674.596784 88.936 139.5207
679.485191 88.938 139.3982
684.409020 88.938 139.2749
689.368530 88.938 139.1514
694.363979 88.935 139.0280
699.395626 88.932 138.9049
704.463736 88.928 138.7819
709.568570 88.922 138.6585
714.710396 88.916 138.5345
719.889483 88.909 138.4097
725.106099 88.900 138.2837
730.360516 88.891 138.1562
735.653010 88.881 138.0269
740.983855 88.870 137.8948
746.353329 88.857 137.7595
751.761713 88.844 137.6203
757.209288 88.829 137.4772
762.696339 88.813 137.3302
768.223151 88.797 137.1796
773.790013 88.779 137.0252
779.397214 88.760 136.8669
785.045047 88.741 136.7042
790.733808 88.721 136.5367
796.463791 88.700 136.3643
802.235296 88.679 136.1868
808.048623 88.658 136.0044
813.904077 88.636 135.8172
819.801961 88.615 135.6257
825.742584 88.593 135.4301
831.726255 88.571 135.2307
837.753287 88.549 135.0276
843.823992 88.527 134.8208
849.938689 88.506 134.6105
856.097695 88.485 134.3967
862.301332 88.465 134.1794
868.549922 88.445 133.9583
874.843793 88.427 133.7328
881.183272 88.409 133.5018
887.568689 88.392 133.2642
894.000378 88.375 133.0193
900.478673 88.359 132.7670
907.003913 88.343 132.5081
913.576437 88.327 132.2439
920.196588 88.310 131.9764
926.864712 88.293 131.7079
933.581156 88.277 131.4405
940.346270 88.260 131.1760
947.160407 88.244 130.9156
954.023921 88.229 130.6597
960.937172 88.215 130.4081
967.900519 88.203 130.1600
974.914325 88.193 129.9142
981.978956 88.185 129.6691
989.094780 88.179 129.4229
996.262169 88.174 129.1746
1003.481495 88.172 128.9234
1010.753136 88.170 128.6696
1018.077470 88.170 128.4141
1025.454879 88.171 128.1579
1032.885748 88.174 127.9024
1040.370463 88.176 127.6481
1047.909417 88.180 127.3954
1055.503000 88.185 127.1439
1063.151610 88.190 126.8932
1070.855645 88.195 126.6433
1078.615506 88.200 126.3943
1086.431599 88.204 126.1469
1094.304330 88.208 125.9021
1102.234110 88.211 125.6611
1110.221353 88.213 125.4249
1118.266475 88.214 125.1943
1126.369895 88.214 124.9694
1134.532035 88.213 124.7500
1142.753322 88.211 124.5353
1151.034184 88.208 124.3248
1159.375052 88.203 124.1183
1167.776361 88.197 123.9164
1176.238550 88.189 123.7207
1184.762060 88.179 123.5335
1193.347334 88.167 123.3577
1201.994821 88.153 123.1958
1210.704971 88.139 123.0495
1219.478238 88.124 122.9191
1228.315080 88.110 122.8032
1237.215957 88.095 122.6996
1246.181334 88.082 122.6055
1255.211678 88.069 122.5183
1264.307459 88.056 122.4368
1273.469152 88.043 122.3610
1282.697235 88.029 122.2922
1291.992188 88.015 122.2325
1301.354495 88.001 122.1839
1310.784647 87.986 122.1476
1320.283132 87.971 122.1241
1329.850448 87.956 122.1134
1339.487093 87.941 122.1148
1349.193569 87.926 122.1277
1358.970381 87.912 122.1518
1368.818041 87.898 122.1868
1378.737061 87.885 122.2325
1388.727958 87.872 122.2885
1398.791253 87.861 122.3545
1408.927471 87.850 122.4309
1419.137140 87.840 122.5192
1429.420793 87.831 122.6212
1439.778965 87.824 122.7390
1450.212197 87.818 122.8745
1460.721033 87.813 123.0292
1471.306019 87.811 123.2036
1481.967709 87.812 123.3975
1492.706658 87.814 123.6095
1503.523426 87.819 123.8378
1514.418576 87.826 124.0805
1525.392678 87.833 124.3371
1536.446302 87.842 124.6085
1547.580025 87.850 124.8973
1558.794428 87.858 125.2065
1570.090095 87.866 125.5381
1581.467615 87.874 125.8926
1592.927581 87.883 126.2690
1604.470591 87.892 126.6649
1616.097246 87.902 127.0771
1627.808153 87.912 127.5026
1639.603922 87.923 127.9377
1651.485168 87.935 128.3786
1663.452510 87.947 128.8217
1675.506573 87.961 129.2639
1687.647984 87.974 129.7033
1699.877377 87.988 130.1393
1712.195390 88.002 130.5726
1724.602663 88.016 131.0043
1737.099845 88.031 131.4355
1749.687587 88.047 131.8665
1762.366544 88.065 132.2966
1775.137379 88.084 132.7239
1788.000756 88.105 133.1451
1800.957346 88.129 133.5559
1814.007826 88.154 133.9521
1827.152874 88.181 134.3298
1840.393177 88.209 134.6862
1853.729425 88.237 135.0198
1867.162312 88.264 135.3302
1880.692540 88.290 135.6182
1894.320813 88.314 135.8858
1908.047843 88.335 136.1361
1921.874344 88.354 136.3727
1935.801038 88.370 136.5992
1949.828650 88.384 136.8182
1963.957912 88.396 137.0304
1978.189561 88.407 137.2338
1992.524338 88.417 137.4249
2006.962991 88.426 137.5991
2021.506272 88.434 137.7519
2036.154940 88.442 137.8796
2050.909758 88.449 137.9795
2065.771495 88.454 138.0498
2080.740927 88.458 138.0902
2095.818833 88.458 138.1016
2111.006001 88.457 138.0861
2126.303220 88.452 138.0466
2141.711290 88.443 137.9868
2157.231013 88.432 137.9101
2172.863198 88.417 137.8202
2188.608660 88.399 137.7206
2204.468221 88.378 137.6147
2220.442706 88.355 137.5051
2236.532950 88.329 137.3937
2252.739789 88.302 137.2815
2269.064070 88.274 137.1693
2285.506644 88.244 137.0575
2302.068367 88.213 136.9465
2318.750104 88.182 136.8361
2335.552723 88.150 136.7258
2352.477101 88.118 136.6153
2369.524119 88.086 136.5048
2386.694668 88.054 136.3952
2403.989641 88.021 136.2874
2421.409941 87.988 136.1823
2438.956476 87.956 136.0805
2456.630160 87.924 135.9831
2474.431915 87.893 135.8914
2492.362668 87.863 135.8064
2510.423356 87.835 135.7288
2528.614918 87.808 135.6581
2546.938304 87.783 135.5928
2565.394469 87.761 135.5302
2583.984375 87.741 135.4670
2602.708991 87.723 135.4001
2621.569293 87.707 135.3272
2640.566265 87.691 135.2477
2659.700897 87.675 135.1629
2678.974186 87.658 135.0758
2698.387137 87.638 134.9911
2717.940763 87.616 134.9152
2737.636082 87.590 134.8553
2757.474121 87.560 134.8194
2777.455915 87.528 134.8153
2797.582506 87.492 134.8503
2817.854942 87.453 134.9311
2838.274281 87.413 135.0632
2858.841586 87.371 135.2513
2879.557931 87.328 135.4991
2900.424394 87.285 135.8101
2921.442065 87.242 136.1868
2942.612039 87.201 136.6315
2963.935418 87.162 137.1459
2985.413316 87.125 137.7310
3007.046852 87.092 138.3867
3028.837153 87.064 139.1112
3050.785356 87.040 139.9011
3072.892604 87.024 140.7501
3095.160050 87.014 141.6494
3117.588856 87.013 142.5876
3140.180190 87.019 143.5506
3162.935230 87.034 144.5217
3185.855163 87.058 145.4825
3208.941182 87.088 146.4144
3232.194493 87.124 147.3003
3255.616307 87.163 148.1265
3279.207844 87.203 148.8842
3302.970336 87.242 149.5712
3326.905021 87.276 150.1915
3351.013146 87.305 150.7548
3375.295969 87.326 151.2755
3399.754755 87.340 151.7704
3424.390779 87.346 152.2562
3449.205326 87.347 152.7474
3474.199690 87.345 153.2536
3499.375173 87.342 153.7777
3524.733088 87.342 154.3152
3550.274757 87.349 154.8541
