* Measurement data measured by REW V5.31.3
* Source: EXCL: Headset (USB-C to 3.5mm Headphone Jack Adapter), MICROPHONE (Master Volume), 0, volume: 0.750
* Format: 256k Log Swept Sine, 1 sweep at -12.0 dBFS with no timing reference
* Dated: Apr 1, 2025 10:34:54 PM
* REW Settings:
*  C-weighting compensation: Off
*  Target level: 75.0 dB
* Note: ; 
* Measurement: Satyr 3 (Massive Mod) R10
* Smoothing: 1/6 octave
* Frequency Step: 96 ppo
* Start Frequency: 20.0 Hz
*
* Freq(Hz) SPL(dB) Phase(degrees)
20.187378 87.987 -111.2045
20.333664 88.015 -111.3687
20.481010 88.052 -111.5901
20.629424 88.098 -111.8645
20.778913 88.151 -112.1866
20.929486 88.211 -112.5513
21.081150 88.276 -112.9532
21.233912 88.345 -113.3874
21.387782 88.417 -113.8488
21.542767 88.491 -114.3324
21.698874 88.567 -114.8333
21.856113 88.644 -115.3465
22.014492 88.722 -115.8671
22.174018 88.799 -116.3902
22.334700 88.875 -116.9108
22.496546 88.950 -117.4244
22.659566 89.024 -117.9270
22.823766 89.097 -118.4150
22.989157 89.167 -118.8861
23.155745 89.236 -119.3386
23.323542 89.302 -119.7720
23.492554 89.365 -120.1871
23.662790 89.425 -120.5852
23.834261 89.481 -120.9684
24.006973 89.532 -121.3394
24.180938 89.578 -121.7007
24.356163 89.619 -122.0546
24.532658 89.653 -122.4033
24.710431 89.681 -122.7481
24.889493 89.702 -123.0900
25.069853 89.716 -123.4298
25.251519 89.724 -123.7678
25.434502 89.726 -124.1047
25.618811 89.724 -124.4415
25.804456 89.719 -124.7796
25.991445 89.712 -125.1214
26.179790 89.705 -125.4697
26.369500 89.699 -125.8281
26.560584 89.696 -126.2001
26.753053 89.697 -126.5891
26.946917 89.702 -126.9981
27.142185 89.712 -127.4288
27.338869 89.727 -127.8816
27.536977 89.747 -128.3552
27.736522 89.770 -128.8469
27.937512 89.796 -129.3525
28.139959 89.824 -129.8667
28.343872 89.852 -130.3838
28.549264 89.881 -130.8977
28.756143 89.908 -131.4030
28.964522 89.935 -131.8955
29.174411 89.959 -132.3720
29.385821 89.983 -132.8310
29.598763 90.006 -133.2728
29.813248 90.027 -133.6987
30.029287 90.049 -134.1113
30.246891 90.070 -134.5135
30.466073 90.093 -134.9080
30.686842 90.116 -135.2972
30.909212 90.141 -135.6823
31.133193 90.167 -136.0639
31.358797 90.197 -136.4416
31.586035 90.229 -136.8145
31.814921 90.264 -137.1821
32.045465 90.304 -137.5441
32.277680 90.348 -137.9008
32.511577 90.396 -138.2533
32.747169 90.449 -138.6027
32.984469 90.506 -138.9503
33.223488 90.566 -139.2968
33.464239 90.629 -139.6420
33.706735 90.695 -139.9853
33.950987 90.763 -140.3249
34.197010 90.832 -140.6595
34.444816 90.903 -140.9876
34.694417 90.974 -141.3087
34.945827 91.046 -141.6227
35.199059 91.119 -141.9303
35.454126 91.191 -142.2320
35.711041 91.263 -142.5282
35.969818 91.333 -142.8190
36.230470 91.402 -143.1037
36.493011 91.470 -143.3820
36.757455 91.537 -143.6535
37.023814 91.603 -143.9191
37.292104 91.669 -144.1803
37.562338 91.735 -144.4394
37.834530 91.801 -144.6989
38.108695 91.867 -144.9607
38.384846 91.934 -145.2260
38.662999 91.999 -145.4949
38.943167 92.064 -145.7665
39.225365 92.128 -146.0399
39.509608 92.190 -146.3144
39.795911 92.250 -146.5901
40.084289 92.308 -146.8679
40.374756 92.364 -147.1497
40.667328 92.417 -147.4375
40.962020 92.468 -147.7331
41.258848 92.516 -148.0380
41.557827 92.563 -148.3532
41.858972 92.609 -148.6792
42.162299 92.654 -149.0167
42.467824 92.699 -149.3662
42.775564 92.745 -149.7283
43.085533 92.791 -150.1029
43.397749 92.839 -150.4893
43.712227 92.886 -150.8855
44.028983 92.933 -151.2885
44.348036 92.980 -151.6938
44.669400 93.025 -152.0969
44.993093 93.070 -152.4935
45.319131 93.113 -152.8803
45.647532 93.155 -153.2554
45.978313 93.195 -153.6188
46.311491 93.234 -153.9714
46.647083 93.272 -154.3155
46.985107 93.307 -154.6534
47.325581 93.340 -154.9878
47.668521 93.369 -155.3209
48.013947 93.395 -155.6548
48.361876 93.417 -155.9918
48.712326 93.435 -156.3342
49.065315 93.449 -156.6845
49.420863 93.461 -157.0453
49.778987 93.470 -157.4189
50.139706 93.477 -157.8069
50.503039 93.483 -158.2099
50.869005 93.487 -158.6273
51.237623 93.490 -159.0570
51.608912 93.492 -159.4961
51.982891 93.494 -159.9408
52.359580 93.495 -160.3870
52.739000 93.496 -160.8309
53.121168 93.496 -161.2695
53.506106 93.495 -161.7004
53.893833 93.494 -162.1227
54.284370 93.492 -162.5361
54.677737 93.490 -162.9415
55.073955 93.488 -163.3398
55.473043 93.486 -163.7316
55.875024 93.484 -164.1174
56.279917 93.482 -164.4970
56.687745 93.481 -164.8701
57.098527 93.481 -165.2369
57.512287 93.482 -165.5983
57.929045 93.484 -165.9565
58.348822 93.487 -166.3146
58.771642 93.491 -166.6768
59.197525 93.495 -167.0475
59.626495 93.500 -167.4308
60.058573 93.505 -167.8288
60.493782 93.511 -168.2418
60.932145 93.516 -168.6675
61.373685 93.523 -169.1020
61.818424 93.530 -169.5402
62.266386 93.539 -169.9774
62.717593 93.549 -170.4096
63.172071 93.561 -170.8342
63.629842 93.573 -171.2497
64.090930 93.588 -171.6564
64.555359 93.603 -172.0551
65.023154 93.619 -172.4473
65.494339 93.637 -172.8346
65.968938 93.655 -173.2181
66.446976 93.673 -173.5982
66.928478 93.692 -173.9748
67.413469 93.710 -174.3476
67.901975 93.728 -174.7155
68.394021 93.745 -175.0779
68.889632 93.760 -175.4341
69.388835 93.774 -175.7838
69.891655 93.786 -176.1270
70.398118 93.796 -176.4643
70.908252 93.803 -176.7965
71.422083 93.808 -177.1249
71.939636 93.810 -177.4504
72.460941 93.809 -177.7740
72.986023 93.805 -178.0962
73.514909 93.798 -178.4171
74.047629 93.787 -178.7368
74.584208 93.774 -179.0554
75.124676 93.759 -179.3730
75.669061 93.741 -179.6893
76.217390 93.721 179.9962
76.769692 93.699 179.6844
77.325997 93.675 179.3759
77.886333 93.650 179.0714
78.450730 93.625 178.7709
79.019216 93.598 178.4742
79.591822 93.571 178.1808
80.168577 93.543 177.8904
80.749512 93.514 177.6025
81.334656 93.485 177.3169
81.924040 93.456 177.0334
82.517696 93.426 176.7522
83.115653 93.395 176.4732
83.717943 93.364 176.1967
84.324598 93.333 175.9227
84.935649 93.302 175.6512
85.551128 93.271 175.3824
86.171066 93.239 175.1162
86.795497 93.207 174.8528
87.424453 93.175 174.5923
88.057967 93.143 174.3348
88.696071 93.111 174.0806
89.338800 93.078 173.8297
89.986185 93.046 173.5819
90.638262 93.013 173.3372
91.295065 92.979 173.0957
91.956626 92.945 172.8573
92.622982 92.910 172.6221
93.294166 92.875 172.3902
93.970214 92.840 172.1615
94.651161 92.805 171.9358
95.337042 92.769 171.7130
96.027894 92.734 171.4927
96.723752 92.698 171.2747
97.424652 92.663 171.0585
98.130631 92.629 170.8441
98.841726 92.594 170.6315
99.557974 92.560 170.4207
100.279412 92.527 170.2119
101.006078 92.494 170.0054
101.738010 92.462 169.8016
102.475245 92.431 169.6008
103.217823 92.401 169.4032
103.965782 92.372 169.2093
104.719161 92.344 169.0197
105.477999 92.318 168.8348
106.242336 92.294 168.6552
107.012212 92.270 168.4811
107.787666 92.248 168.3125
108.568740 92.228 168.1488
109.355474 92.208 167.9893
110.147909 92.190 167.8331
110.946086 92.172 167.6792
111.750047 92.156 167.5267
112.559834 92.139 167.3749
113.375489 92.124 167.2234
114.197055 92.108 167.0719
115.024574 92.093 166.9203
115.858089 92.079 166.7690
116.697645 92.064 166.6183
117.543284 92.049 166.4689
118.395051 92.035 166.3213
119.252990 92.020 166.1757
120.117147 92.005 166.0325
120.987565 91.989 165.8918
121.864291 91.973 165.7541
122.747370 91.957 165.6196
123.636848 91.939 165.4886
124.532771 91.921 165.3614
125.435187 91.902 165.2378
126.344142 91.881 165.1176
127.259684 91.860 165.0002
128.181860 91.838 164.8846
129.110718 91.815 164.7702
130.046308 91.791 164.6562
130.988677 91.767 164.5423
131.937875 91.741 164.4283
132.893951 91.715 164.3146
133.856956 91.687 164.2015
134.826938 91.658 164.0900
135.803950 91.628 163.9809
136.788041 91.597 163.8752
137.779264 91.564 163.7735
138.777669 91.530 163.6761
139.783309 91.494 163.5829
140.796237 91.458 163.4937
141.816504 91.420 163.4080
142.844165 91.381 163.3253
143.879273 91.342 163.2452
144.921881 91.301 163.1675
145.972045 91.259 163.0926
147.029819 91.215 163.0207
148.095257 91.171 162.9527
149.168417 91.126 162.8896
150.249353 91.081 162.8325
151.338121 91.034 162.7824
152.434780 90.986 162.7405
153.539385 90.938 162.7075
154.651995 90.890 162.6844
155.772667 90.841 162.6718
156.901460 90.791 162.6704
158.038432 90.742 162.6806
159.183644 90.693 162.7026
160.337154 90.645 162.7362
161.499023 90.598 162.7806
162.669312 90.551 162.8348
163.848081 90.506 162.8979
165.035392 90.463 162.9691
166.231306 90.421 163.0479
167.435887 90.380 163.1342
168.649196 90.342 163.2282
169.871298 90.306 163.3302
171.102255 90.272 163.4403
172.342133 90.240 163.5586
173.590995 90.210 163.6844
174.848907 90.182 163.8172
176.115934 90.157 163.9558
177.392143 90.134 164.0992
178.677599 90.113 164.2457
179.972371 90.095 164.3936
181.276525 90.078 164.5412
182.590129 90.063 164.6867
183.913252 90.050 164.8284
185.245964 90.038 164.9644
186.588332 90.027 165.0927
187.940428 90.017 165.2116
189.302322 90.008 165.3198
190.674085 89.999 165.4164
192.055788 89.991 165.5012
193.447503 89.984 165.5744
194.849303 89.977 165.6366
196.261262 89.970 165.6880
197.683452 89.963 165.7289
199.115948 89.957 165.7593
200.558824 89.951 165.7796
202.012156 89.944 165.7897
203.476019 89.938 165.7899
204.950490 89.932 165.7801
206.435646 89.926 165.7603
207.931564 89.920 165.7310
209.438322 89.913 165.6927
210.955998 89.906 165.6464
212.484672 89.899 165.5930
214.024424 89.892 165.5334
215.575333 89.884 165.4685
217.137481 89.876 165.3994
218.710948 89.869 165.3273
220.295818 89.862 165.2538
221.892172 89.855 165.1801
223.500094 89.849 165.1072
225.119668 89.844 165.0359
226.750978 89.840 164.9663
228.394109 89.836 164.8985
230.049147 89.833 164.8320
231.716178 89.831 164.7666
233.395289 89.830 164.7021
235.086567 89.829 164.6384
236.790102 89.828 164.5759
238.505980 89.827 164.5143
240.234293 89.827 164.4540
241.975130 89.827 164.3950
243.728581 89.827 164.3372
245.494739 89.827 164.2809
247.273695 89.827 164.2260
249.065542 89.827 164.1727
250.870374 89.827 164.1211
252.688284 89.827 164.0712
254.519367 89.827 164.0230
256.363720 89.826 163.9763
258.221437 89.825 163.9309
260.092616 89.823 163.8870
261.977354 89.820 163.8445
263.875750 89.817 163.8037
265.787903 89.813 163.7648
267.713911 89.809 163.7280
269.653877 89.805 163.6933
271.607900 89.801 163.6611
273.576083 89.798 163.6313
275.558528 89.795 163.6042
277.555338 89.792 163.5798
279.566619 89.789 163.5579
281.592474 89.787 163.5381
283.633009 89.786 163.5200
285.688331 89.785 163.5031
287.758546 89.784 163.4875
289.843763 89.784 163.4732
291.944090 89.785 163.4606
294.059638 89.786 163.4500
296.190515 89.788 163.4414
298.336833 89.791 163.4344
300.498705 89.794 163.4285
302.676243 89.798 163.4226
304.869559 89.803 163.4163
307.078770 89.809 163.4091
309.303989 89.815 163.4010
311.545334 89.821 163.3921
313.802919 89.828 163.3826
316.076865 89.836 163.3727
318.367288 89.843 163.3624
320.674309 89.851 163.3516
322.998047 89.858 163.3401
325.338624 89.865 163.3278
327.696162 89.872 163.3144
330.070783 89.877 163.3000
332.462612 89.882 163.2845
334.871773 89.886 163.2681
337.298392 89.889 163.2508
339.742595 89.890 163.2329
342.204510 89.889 163.2146
344.684265 89.887 163.1966
347.181989 89.882 163.1796
349.697813 89.876 163.1651
352.231868 89.867 163.1550
354.784285 89.856 163.1516
357.355198 89.844 163.1567
359.944741 89.830 163.1721
362.553049 89.817 163.1982
365.180258 89.803 163.2341
367.826505 89.790 163.2775
370.491927 89.779 163.3251
373.176665 89.769 163.3733
375.880856 89.760 163.4189
378.604644 89.753 163.4594
381.348169 89.747 163.4935
384.111575 89.741 163.5204
386.895006 89.736 163.5403
389.698607 89.731 163.5536
392.522524 89.725 163.5615
395.366904 89.719 163.5646
398.231895 89.712 163.5641
401.117648 89.705 163.5607
404.024312 89.696 163.5551
406.952038 89.686 163.5479
409.900981 89.675 163.5396
412.871292 89.663 163.5307
415.863128 89.649 163.5218
418.876643 89.634 163.5132
421.911996 89.617 163.5054
424.969344 89.599 163.4987
428.048847 89.579 163.4932
431.150666 89.558 163.4886
434.274961 89.535 163.4848
437.421897 89.510 163.4814
440.591636 89.485 163.4780
443.784345 89.458 163.4741
447.000189 89.430 163.4697
450.239337 89.401 163.4645
453.501956 89.372 163.4586
456.788219 89.342 163.4520
460.098294 89.312 163.4448
463.432356 89.282 163.4372
466.790578 89.252 163.4290
470.173135 89.222 163.4204
473.580203 89.193 163.4110
477.011961 89.165 163.4007
480.468586 89.137 163.3892
483.950259 89.110 163.3762
487.457163 89.085 163.3614
490.989478 89.060 163.3445
494.547390 89.036 163.3254
498.131084 89.013 163.3038
501.740748 88.991 163.2798
505.376568 88.969 163.2534
509.038735 88.949 163.2245
512.727439 88.930 163.1930
516.442874 88.911 163.1589
520.185232 88.894 163.1226
523.954708 88.877 163.0847
527.751500 88.860 163.0468
531.575805 88.844 163.0115
535.427822 88.828 162.9823
539.307753 88.812 162.9634
543.215800 88.797 162.9591
547.152165 88.783 162.9733
551.117055 88.772 163.0081
555.110677 88.764 163.0632
559.133237 88.759 163.1355
563.184947 88.759 163.2194
567.266018 88.764 163.3081
571.376661 88.773 163.3953
575.517092 88.786 163.4756
579.687526 88.801 163.5456
583.888181 88.818 163.6036
588.119275 88.836 163.6494
592.381030 88.854 163.6841
596.673667 88.872 163.7092
600.997410 88.890 163.7266
605.352485 88.906 163.7382
609.739119 88.921 163.7456
614.157540 88.935 163.7501
618.607979 88.947 163.7524
623.090667 88.959 163.7532
627.605839 88.969 163.7527
632.153730 88.978 163.7509
636.734576 88.986 163.7474
641.348617 88.992 163.7422
645.996094 88.997 163.7348
650.677248 89.001 163.7254
655.392323 89.004 163.7141
660.141566 89.005 163.7013
664.925224 89.006 163.6875
669.743546 89.005 163.6730
674.596784 89.002 163.6579
679.485191 89.000 163.6420
684.409020 88.996 163.6248
689.368530 88.991 163.6058
694.363979 88.986 163.5840
699.395626 88.980 163.5589
704.463736 88.973 163.5300
709.568570 88.965 163.4969
714.710396 88.956 163.4597
719.889483 88.946 163.4186
725.106099 88.934 163.3737
730.360516 88.920 163.3254
735.653010 88.905 163.2739
740.983855 88.889 163.2194
746.353329 88.871 163.1621
751.761713 88.851 163.1019
757.209288 88.830 163.0388
762.696339 88.807 162.9724
768.223151 88.784 162.9024
773.790013 88.759 162.8287
779.397214 88.733 162.7512
785.045047 88.705 162.6705
790.733808 88.677 162.5872
796.463791 88.648 162.5018
802.235296 88.618 162.4146
808.048623 88.588 162.3256
813.904077 88.558 162.2343
819.801961 88.528 162.1403
825.742584 88.499 162.0428
831.726255 88.469 161.9412
837.753287 88.440 161.8351
843.823992 88.412 161.7244
849.938689 88.383 161.6092
856.097695 88.355 161.4901
862.301332 88.326 161.3679
868.549922 88.298 161.2433
874.843793 88.269 161.1171
881.183272 88.240 160.9899
887.568689 88.212 160.8623
894.000378 88.183 160.7347
900.478673 88.154 160.6078
907.003913 88.126 160.4821
913.576437 88.098 160.3583
920.196588 88.070 160.2370
926.864712 88.043 160.1184
933.581156 88.018 160.0027
940.346270 87.993 159.8901
947.160407 87.970 159.7809
954.023921 87.948 159.6757
960.937172 87.929 159.5748
967.900519 87.911 159.4786
974.914325 87.895 159.3869
981.978956 87.882 159.2991
989.094780 87.872 159.2141
996.262169 87.865 159.1302
1003.481495 87.860 159.0457
1010.753136 87.859 158.9584
1018.077470 87.860 158.8661
1025.454879 87.863 158.7671
1032.885748 87.869 158.6603
1040.370463 87.875 158.5453
1047.909417 87.883 158.4225
1055.503000 87.891 158.2931
1063.151610 87.899 158.1585
1070.855645 87.907 158.0205
1078.615506 87.915 157.8806
1086.431599 87.921 157.7401
1094.304330 87.927 157.6002
1102.234110 87.931 157.4620
1110.221353 87.934 157.3269
1118.266475 87.935 157.1961
1126.369895 87.935 157.0707
1134.532035 87.934 156.9517
1142.753322 87.931 156.8397
1151.034184 87.926 156.7353
1159.375052 87.921 156.6387
1167.776361 87.914 156.5503
1176.238550 87.905 156.4701
1184.762060 87.896 156.3986
1193.347334 87.885 156.3365
1201.994821 87.874 156.2847
1210.704971 87.861 156.2438
1219.478238 87.848 156.2142
1228.315080 87.834 156.1967
1237.215957 87.820 156.1917
1246.181334 87.806 156.2003
1255.211678 87.792 156.2229
1264.307459 87.779 156.2598
1273.469152 87.766 156.3107
1282.697235 87.753 156.3751
1291.992188 87.742 156.4522
1301.354495 87.731 156.5417
1310.784647 87.721 156.6432
1320.283132 87.711 156.7563
1329.850448 87.703 156.8806
1339.487093 87.695 157.0155
1349.193569 87.688 157.1604
1358.970381 87.683 157.3146
1368.818041 87.679 157.4772
1378.737061 87.676 157.6473
1388.727958 87.675 157.8244
1398.791253 87.675 158.0084
1408.927471 87.677 158.1995
1419.137140 87.681 158.3983
1429.420793 87.687 158.6051
1439.778965 87.695 158.8203
1450.212197 87.705 159.0439
1460.721033 87.718 159.2761
1471.306019 87.734 159.5160
1481.967709 87.753 159.7625
1492.706658 87.773 160.0146
1503.523426 87.796 160.2711
1514.418576 87.820 160.5317
1525.392678 87.845 160.7964
1536.446302 87.870 161.0658
1547.580025 87.895 161.3411
1558.794428 87.918 161.6242
1570.090095 87.939 161.9182
1581.467615 87.959 162.2264
1592.927581 87.976 162.5524
1604.470591 87.991 162.8995
1616.097246 88.005 163.2706
1627.808153 88.017 163.6669
1639.603922 88.029 164.0886
1651.485168 88.042 164.5335
1663.452510 88.057 164.9969
1675.506573 88.074 165.4724
1687.647984 88.095 165.9520
1699.877377 88.118 166.4279
1712.195390 88.144 166.8928
1724.602663 88.174 167.3411
1737.099845 88.205 167.7686
1749.687587 88.238 168.1734
1762.366544 88.272 168.5549
1775.137379 88.307 168.9138
1788.000756 88.342 169.2509
1800.957346 88.379 169.5667
1814.007826 88.415 169.8612
1827.152874 88.451 170.1342
1840.393177 88.487 170.3848
1853.729425 88.523 170.6122
1867.162312 88.557 170.8159
1880.692540 88.590 170.9952
1894.320813 88.620 171.1501
1908.047843 88.649 171.2807
1921.874344 88.674 171.3878
1935.801038 88.696 171.4725
1949.828650 88.715 171.5360
1963.957912 88.730 171.5800
1978.189561 88.742 171.6060
1992.524338 88.749 171.6152
2006.962991 88.754 171.6084
2021.506272 88.754 171.5858
2036.154940 88.752 171.5471
2050.909758 88.747 171.4922
2065.771495 88.738 171.4207
2080.740927 88.727 171.3324
2095.818833 88.713 171.2278
2111.006001 88.696 171.1073
2126.303220 88.676 170.9720
2141.711290 88.653 170.8232
2157.231013 88.628 170.6625
2172.863198 88.600 170.4920
2188.608660 88.569 170.3140
2204.468221 88.536 170.1308
2220.442706 88.501 169.9449
2236.532950 88.464 169.7583
2252.739789 88.426 169.5725
2269.064070 88.387 169.3883
2285.506644 88.347 169.2060
2302.068367 88.307 169.0253
2318.750104 88.267 168.8453
2335.552723 88.227 168.6648
2352.477101 88.189 168.4824
2369.524119 88.151 168.2969
2386.694668 88.113 168.1071
2403.989641 88.077 167.9122
2421.409941 88.042 167.7114
2438.956476 88.008 167.5043
2456.630160 87.976 167.2903
2474.431915 87.944 167.0686
2492.362668 87.913 166.8384
2510.423356 87.884 166.5987
2528.614918 87.855 166.3486
2546.938304 87.827 166.0879
2565.394469 87.798 165.8168
2583.984375 87.768 165.5369
2602.708991 87.737 165.2505
2621.569293 87.705 164.9613
2640.566265 87.669 164.6736
2659.700897 87.631 164.3924
2678.974186 87.589 164.1233
2698.387137 87.545 163.8718
2717.940763 87.497 163.6438
2737.636082 87.446 163.4451
2757.474121 87.392 163.2810
2777.455915 87.335 163.1568
2797.582506 87.277 163.0768
2817.854942 87.216 163.0451
2838.274281 87.155 163.0650
2858.841586 87.092 163.1400
2879.557931 87.029 163.2734
2900.424394 86.966 163.4684
2921.442065 86.903 163.7282
2942.612039 86.841 164.0558
2963.935418 86.780 164.4535
2985.413316 86.722 164.9230
3007.046852 86.666 165.4650
3028.837153 86.615 166.0789
3050.785356 86.568 166.7624
3072.892604 86.526 167.5117
3095.160050 86.491 168.3214
3117.588856 86.463 169.1839
3140.180190 86.442 170.0899
3162.935230 86.430 171.0280
3185.855163 86.427 171.9850
3208.941182 86.433 172.9460
3232.194493 86.447 173.8951
3255.616307 86.469 174.8167
3279.207844 86.499 175.6962
3302.970336 86.535 176.5211
3326.905021 86.575 177.2820
3351.013146 86.618 177.9729
3375.295969 86.663 178.5914
3399.754755 86.708 179.1385
3424.390779 86.753 179.6175
3449.205326 86.796 -179.9673
3474.199690 86.839 -179.6116
3499.375173 86.882 -179.3124
3524.733088 86.925 -179.0695
