* Measurement data measured by REW V5.31.3
* Source: EXCL: Headset (USB-C to 3.5mm Headphone Jack Adapter), MICROPHONE (Master Volume), 0, volume: 0.260
* Format: 256k Log Swept Sine, 1 sweep at -12.0 dBFS with no timing reference
* Dated: Feb 14, 2025 1:45:10 PM
* REW Settings:
*  C-weighting compensation: Off
*  Target level: 75.0 dB
* Note: ; 
* Measurement: Satyr 3 L4
* Smoothing: 1/6 octave
* Frequency Step: 96 ppo
* Start Frequency: 20.0 Hz
*
* Freq(Hz) SPL(dB) Phase(degrees)
20.141602 92.981 -25.4764
20.287556 92.999 -25.6821
20.434568 93.022 -25.9586
20.582645 93.047 -26.2995
20.731796 93.070 -26.6982
20.882027 93.090 -27.1482
21.033346 93.104 -27.6435
21.185763 93.111 -28.1783
21.339284 93.110 -28.7476
21.493917 93.101 -29.3466
21.649671 93.085 -29.9705
21.806553 93.064 -30.6148
21.964572 93.037 -31.2748
22.123737 93.008 -31.9456
22.284054 92.978 -32.6225
22.445534 92.949 -33.3012
22.608183 92.922 -33.9772
22.772012 92.900 -34.6469
22.937027 92.884 -35.3072
23.103238 92.875 -35.9560
23.270654 92.875 -36.5918
23.439282 92.885 -37.2144
23.609133 92.906 -37.8243
23.780215 92.938 -38.4227
23.952536 92.982 -39.0117
24.126106 93.037 -39.5939
24.300934 93.104 -40.1718
24.477028 93.181 -40.7484
24.654399 93.268 -41.3265
24.833055 93.364 -41.9084
25.013005 93.465 -42.4964
25.194260 93.572 -43.0922
25.376828 93.682 -43.6971
25.560719 93.793 -44.3119
25.745942 93.904 -44.9370
25.932508 94.014 -45.5724
26.120426 94.120 -46.2177
26.309705 94.223 -46.8723
26.500356 94.321 -47.5350
26.692388 94.414 -48.2047
26.885812 94.502 -48.8800
27.080638 94.585 -49.5595
27.276876 94.663 -50.2416
27.474535 94.737 -50.9250
27.673627 94.809 -51.6084
27.874161 94.881 -52.2907
28.076149 94.953 -52.9711
28.279600 95.030 -53.6491
28.484526 95.114 -54.3243
28.690937 95.207 -54.9966
28.898843 95.313 -55.6661
29.108256 95.433 -56.3329
29.319186 95.568 -56.9976
29.531645 95.719 -57.6606
29.745644 95.884 -58.3225
29.961193 96.062 -58.9840
30.178304 96.250 -59.6461
30.396989 96.442 -60.3096
30.617258 96.635 -60.9754
30.839123 96.824 -61.6442
31.062596 97.003 -62.3165
31.287688 97.168 -62.9927
31.514412 97.314 -63.6725
31.742778 97.438 -64.3556
31.972800 97.536 -65.0411
32.204488 97.607 -65.7282
32.437855 97.650 -66.4159
32.672913 97.663 -67.1033
32.909674 97.649 -67.7899
33.148151 97.608 -68.4753
33.388356 97.544 -69.1597
33.630302 97.458 -69.8438
33.874001 97.355 -70.5281
34.119466 97.239 -71.2136
34.366710 97.113 -71.9010
34.615745 96.983 -72.5908
34.866585 96.851 -73.2831
35.119243 96.722 -73.9777
35.373731 96.600 -74.6739
35.630064 96.489 -75.3707
35.888254 96.391 -76.0672
36.148315 96.310 -76.7624
36.410261 96.248 -77.4557
36.674104 96.206 -78.1468
36.939860 96.186 -78.8359
37.207542 96.189 -79.5233
37.477163 96.215 -80.2099
37.748738 96.264 -80.8963
38.022281 96.336 -81.5832
38.297806 96.429 -82.2710
38.575327 96.542 -82.9596
38.854860 96.674 -83.6487
39.136419 96.824 -84.3374
39.420017 96.991 -85.0248
39.705671 97.174 -85.7099
39.993395 97.372 -86.3916
40.283203 97.583 -87.0690
40.575112 97.807 -87.7413
40.869136 98.043 -88.4083
41.165290 98.288 -89.0698
41.463591 98.541 -89.7260
41.764053 98.801 -90.3773
42.066693 99.065 -91.0245
42.371525 99.331 -91.6683
42.678567 99.598 -92.3094
42.987834 99.862 -92.9485
43.299341 100.121 -93.5863
43.613106 100.373 -94.2233
43.929145 100.615 -94.8597
44.247473 100.847 -95.4959
44.568109 101.066 -96.1320
44.891068 101.272 -96.7682
45.216367 101.461 -97.4047
45.544023 101.635 -98.0417
45.874054 101.792 -98.6796
46.206476 101.931 -99.3188
46.541307 102.053 -99.9596
46.878565 102.158 -100.6026
47.218266 102.246 -101.2480
47.560429 102.318 -101.8964
47.905072 102.374 -102.5479
48.252212 102.416 -103.2029
48.601867 102.445 -103.8617
48.954056 102.463 -104.5242
49.308798 102.471 -105.1906
49.666109 102.470 -105.8606
50.026010 102.464 -106.5340
50.388520 102.453 -107.2104
50.753656 102.440 -107.8895
51.121437 102.426 -108.5713
51.491884 102.412 -109.2557
51.865016 102.401 -109.9425
52.240851 102.392 -110.6318
52.619410 102.387 -111.3233
53.000712 102.385 -112.0167
53.384777 102.386 -112.7116
53.771625 102.389 -113.4076
54.161276 102.394 -114.1044
54.553751 102.401 -114.8020
54.949070 102.407 -115.5006
55.347254 102.411 -116.2006
55.748323 102.414 -116.9026
56.152298 102.415 -117.6069
56.559201 102.411 -118.3140
56.969052 102.405 -119.0240
57.381873 102.394 -119.7368
57.797686 102.379 -120.4516
58.216512 102.361 -121.1678
58.638373 102.340 -121.8844
59.063291 102.316 -122.6009
59.491288 102.291 -123.3168
59.922386 102.264 -124.0325
60.356608 102.236 -124.7483
60.793977 102.208 -125.4648
61.234515 102.179 -126.1824
61.678246 102.150 -126.9010
62.125192 102.121 -127.6204
62.575377 102.091 -128.3401
63.028824 102.062 -129.0594
63.485557 102.032 -129.7779
63.945599 102.003 -130.4948
64.408975 101.974 -131.2099
64.875709 101.946 -131.9225
65.345825 101.920 -132.6320
65.819348 101.895 -133.3379
66.296302 101.871 -134.0393
66.776713 101.849 -134.7356
67.260604 101.829 -135.4262
67.748002 101.811 -136.1105
68.238932 101.795 -136.7885
68.733420 101.780 -137.4601
69.231490 101.767 -138.1255
69.733170 101.756 -138.7846
70.238485 101.745 -139.4378
70.747463 101.736 -140.0850
71.260128 101.727 -140.7264
71.776508 101.719 -141.3621
72.296630 101.712 -141.9922
72.820521 101.706 -142.6172
73.348209 101.700 -143.2374
73.879720 101.695 -143.8533
74.415083 101.690 -144.4654
74.954326 101.685 -145.0743
75.497475 101.679 -145.6804
76.044561 101.673 -146.2839
76.595612 101.665 -146.8851
77.150655 101.656 -147.4838
77.709720 101.644 -148.0797
78.272837 101.630 -148.6725
78.840034 101.612 -149.2615
79.411342 101.591 -149.8463
79.986789 101.566 -150.4266
80.566406 101.536 -151.0020
81.150224 101.503 -151.5724
81.738272 101.466 -152.1377
82.330581 101.425 -152.6980
82.927182 101.382 -153.2532
83.528107 101.338 -153.8032
84.133386 101.295 -154.3480
84.743051 101.255 -154.8875
85.357134 101.220 -155.4216
85.975667 101.193 -155.9506
86.598682 101.179 -156.4743
87.226212 101.180 -156.9929
87.858289 101.200 -157.5062
88.494946 101.241 -158.0141
89.136217 101.306 -158.5164
89.782135 101.394 -159.0128
90.432733 101.506 -159.5029
91.088046 101.639 -159.9865
91.748108 101.790 -160.4633
92.412952 101.954 -160.9334
93.082615 102.127 -161.3967
93.757130 102.303 -161.8533
94.436533 102.475 -162.3035
95.120859 102.641 -162.7475
95.810144 102.795 -163.1855
96.504423 102.934 -163.6176
97.203734 103.057 -164.0441
97.908112 103.162 -164.4652
98.617595 103.249 -164.8809
99.332219 103.320 -165.2912
100.052021 103.376 -165.6960
100.777039 103.420 -166.0950
101.507311 103.453 -166.4879
102.242875 103.478 -166.8743
102.983769 103.495 -167.2537
103.730032 103.508 -167.6261
104.481702 103.515 -167.9917
105.238820 103.518 -168.3511
106.001424 103.515 -168.7050
106.769554 103.505 -169.0543
107.543250 103.487 -169.3998
108.322553 103.460 -169.7422
109.107503 103.421 -170.0816
109.898141 103.369 -170.4182
110.694508 103.304 -170.7518
111.496646 103.226 -171.0821
112.304596 103.134 -171.4090
113.118402 103.030 -171.7321
113.938104 102.916 -172.0513
114.763747 102.793 -172.3667
115.595372 102.663 -172.6783
116.433024 102.529 -172.9865
117.276746 102.394 -173.2918
118.126581 102.259 -173.5947
118.982575 102.125 -173.8958
119.844772 101.994 -174.1954
120.713217 101.866 -174.4938
121.587954 101.741 -174.7910
122.469031 101.618 -175.0869
123.356492 101.496 -175.3812
124.250384 101.375 -175.6738
125.150753 101.252 -175.9643
126.057647 101.125 -176.2525
126.971113 100.994 -176.5384
127.891198 100.857 -176.8220
128.817950 100.713 -177.1033
129.751418 100.562 -177.3825
130.691651 100.404 -177.6593
131.638696 100.239 -177.9333
132.592604 100.070 -178.2037
133.553425 99.898 -178.4692
134.521208 99.725 -178.7282
135.496004 99.555 -178.9790
136.477864 99.390 -179.2199
137.466839 99.233 -179.4490
138.462981 99.089 -179.6647
139.466340 98.960 -179.8652
140.476971 98.848 179.9507
141.494925 98.754 179.7842
142.520256 98.679 179.6360
143.553016 98.620 179.5060
144.593260 98.576 179.3940
145.641043 98.543 179.2990
146.696418 98.518 179.2195
147.759441 98.497 179.1539
148.830166 98.477 179.1006
149.908651 98.453 179.0582
150.994951 98.425 179.0256
152.089123 98.391 179.0026
153.191223 98.350 178.9892
154.301310 98.303 178.9862
155.419441 98.251 178.9945
156.545674 98.196 179.0154
157.680069 98.139 179.0499
158.822683 98.084 179.0988
159.973578 98.031 179.1628
161.132813 97.982 179.2417
162.300447 97.938 179.3350
163.476543 97.901 179.4415
164.661162 97.871 179.5593
165.854364 97.848 179.6857
167.056213 97.834 179.8177
168.266772 97.827 179.9518
169.486102 97.830 -179.9159
170.714268 97.840 -179.7893
171.951334 97.860 -179.6720
173.197364 97.887 -179.5676
174.452424 97.922 -179.4791
175.716578 97.964 -179.4089
176.989893 98.012 -179.3588
178.272434 98.063 -179.3298
179.564270 98.117 -179.3226
180.865467 98.172 -179.3368
182.176092 98.227 -179.3718
183.496216 98.279 -179.4264
184.825905 98.327 -179.4993
186.165229 98.372 -179.5888
187.514259 98.413 -179.6933
188.873065 98.449 -179.8108
190.241717 98.481 -179.9398
191.620287 98.509 179.9218
193.008847 98.535 179.7756
194.407468 98.559 179.6233
195.816225 98.580 179.4665
197.235190 98.600 179.3066
198.664438 98.618 179.1449
200.104042 98.634 178.9824
201.554078 98.647 178.8201
203.014622 98.659 178.6589
204.485750 98.667 178.4995
205.967538 98.671 178.3425
207.460064 98.672 178.1885
208.963405 98.669 178.0378
210.477640 98.662 177.8905
212.002848 98.651 177.7468
213.539108 98.636 177.6066
215.086500 98.619 177.4701
216.645105 98.599 177.3371
218.215005 98.576 177.2078
219.796281 98.551 177.0822
221.389015 98.524 176.9602
222.993292 98.494 176.8418
224.609193 98.461 176.7269
226.236804 98.424 176.6154
227.876209 98.382 176.5071
229.527494 98.335 176.4020
231.190745 98.283 176.2997
232.866048 98.226 176.1999
234.553491 98.163 176.1022
236.253163 98.096 176.0063
237.965150 98.025 175.9122
239.689544 97.951 175.8195
241.426433 97.876 175.7283
243.175909 97.799 175.6388
244.938062 97.722 175.5511
246.712984 97.646 175.4655
248.500768 97.572 175.3820
250.301507 97.500 175.3008
252.115295 97.433 175.2219
253.942226 97.369 175.1453
255.782396 97.310 175.0713
257.635901 97.257 175.0000
259.502837 97.209 174.9315
261.383301 97.168 174.8659
263.277392 97.134 174.8029
265.185209 97.106 174.7419
267.106850 97.085 174.6826
269.042417 97.071 174.6243
270.992009 97.062 174.5667
272.955729 97.059 174.5095
274.933678 97.061 174.4527
276.925961 97.066 174.3964
278.932681 97.075 174.3407
280.953942 97.086 174.2856
282.989850 97.100 174.2311
285.040511 97.117 174.1770
287.106032 97.136 174.1231
289.186521 97.158 174.0693
291.282086 97.184 174.0157
293.392836 97.216 173.9621
295.518881 97.252 173.9088
297.660333 97.295 173.8561
299.817302 97.343 173.8043
301.989902 97.395 173.7535
304.178245 97.452 173.7042
306.382446 97.510 173.6562
308.602620 97.569 173.6096
310.838882 97.626 173.5646
313.091348 97.681 173.5209
315.360137 97.730 173.4788
317.645367 97.774 173.4380
319.947156 97.811 173.3986
322.265625 97.839 173.3603
324.600895 97.858 173.3231
326.953086 97.868 173.2867
329.322323 97.868 173.2508
331.708729 97.858 173.2151
334.112427 97.837 173.1795
336.533543 97.806 173.1437
338.972204 97.765 173.1077
341.428536 97.714 173.0714
343.902668 97.656 173.0350
346.394729 97.590 172.9987
348.904848 97.518 172.9628
351.433156 97.443 172.9277
353.979786 97.366 172.8939
356.544869 97.291 172.8618
359.128540 97.219 172.8320
361.730934 97.154 172.8047
364.352185 97.098 172.7804
366.992431 97.054 172.7589
369.651810 97.026 172.7399
372.330459 97.013 172.7228
375.028519 97.019 172.7071
377.746130 97.042 172.6924
380.483434 97.083 172.6783
383.240574 97.139 172.6648
386.017693 97.209 172.6522
388.814937 97.290 172.6405
391.632450 97.379 172.6301
394.470380 97.475 172.6212
397.328875 97.573 172.6138
400.208084 97.672 172.6077
403.108157 97.771 172.6029
406.029245 97.868 172.5992
408.971500 97.961 172.5961
411.935076 98.052 172.5937
414.920127 98.140 172.5916
417.926810 98.225 172.5900
420.955280 98.308 172.5886
424.005695 98.391 172.5876
427.078215 98.472 172.5872
430.173000 98.555 172.5875
433.290211 98.637 172.5886
436.430010 98.720 172.5908
439.592562 98.803 172.5941
442.778031 98.884 172.5985
445.986583 98.963 172.6040
449.218386 99.038 172.6104
452.473607 99.107 172.6177
455.752418 99.170 172.6256
459.054987 99.223 172.6340
462.381489 99.268 172.6429
465.732096 99.302 172.6520
469.106983 99.326 172.6616
472.506325 99.340 172.6716
475.930301 99.344 172.6821
479.379088 99.340 172.6930
482.852867 99.328 172.7043
486.351817 99.309 172.7159
489.876123 99.284 172.7277
493.425968 99.255 172.7400
497.001536 99.221 172.7526
500.603014 99.185 172.7658
504.230589 99.145 172.7797
507.884452 99.102 172.7943
511.564792 99.057 172.8097
515.271802 99.010 172.8260
519.005673 98.960 172.8430
522.766602 98.910 172.8610
526.554785 98.860 172.8798
530.370418 98.812 172.8995
534.213700 98.768 172.9201
538.084833 98.729 172.9415
541.984018 98.698 172.9636
545.911457 98.675 172.9861
549.867357 98.662 173.0090
553.851922 98.659 173.0319
557.865362 98.665 173.0544
561.907884 98.679 173.0763
565.979700 98.699 173.0971
570.081022 98.723 173.1165
574.212064 98.749 173.1342
578.373042 98.776 173.1501
582.564171 98.800 173.1642
586.785671 98.821 173.1763
591.037762 98.837 173.1860
595.320665 98.847 173.1931
599.634604 98.851 173.1974
603.979804 98.848 173.1985
608.356491 98.839 173.1961
612.764893 98.824 173.1903
617.205240 98.804 173.1808
621.677763 98.780 173.1677
626.182696 98.753 173.1506
630.720274 98.725 173.1295
635.290733 98.697 173.1041
639.894312 98.672 173.0740
644.531250 98.651 173.0393
649.201789 98.636 172.9999
653.906173 98.628 172.9560
658.644647 98.627 172.9081
663.417457 98.633 172.8564
668.224854 98.646 172.8015
673.067086 98.664 172.7436
677.944408 98.687 172.6829
682.857073 98.712 172.6196
687.805336 98.738 172.5536
692.789457 98.764 172.4843
697.809695 98.788 172.4111
702.866312 98.809 172.3329
707.959571 98.827 172.2488
713.089738 98.841 172.1581
718.257080 98.849 172.0603
723.461867 98.854 171.9554
728.704370 98.854 171.8436
733.984862 98.850 171.7254
739.303619 98.842 171.6010
744.660918 98.832 171.4708
750.057038 98.820 171.3349
755.492260 98.807 171.1937
760.966869 98.792 171.0475
766.481148 98.775 170.8965
772.035387 98.757 170.7410
777.629873 98.737 170.5814
783.264900 98.714 170.4177
788.940760 98.687 170.2501
794.657750 98.656 170.0785
800.416168 98.619 169.9028
806.216313 98.577 169.7228
812.058489 98.528 169.5378
817.943000 98.472 169.3472
823.870152 98.409 169.1502
829.840255 98.341 168.9462
835.853619 98.266 168.7347
841.910559 98.186 168.5160
848.011390 98.102 168.2905
854.156430 98.014 168.0591
860.346000 97.923 167.8229
866.580422 97.832 167.5830
872.860020 97.741 167.3401
879.185124 97.650 167.0948
885.556062 97.563 166.8471
891.973166 97.479 166.5970
898.436771 97.400 166.3440
904.947215 97.326 166.0879
911.504835 97.260 165.8282
918.109975 97.201 165.5649
924.762978 97.151 165.2977
931.464192 97.109 165.0269
938.213966 97.076 164.7533
945.012651 97.051 164.4780
951.860602 97.034 164.2024
958.758176 97.024 163.9276
965.705733 97.022 163.6547
972.703635 97.025 163.3838
979.752246 97.034 163.1145
986.851935 97.048 162.8462
994.003071 97.066 162.5783
1001.206027 97.088 162.3104
1008.461179 97.113 162.0424
1015.768904 97.142 161.7745
1023.129584 97.175 161.5070
1030.543603 97.212 161.2397
1038.011347 97.255 160.9727
1045.533205 97.303 160.7053
1053.109569 97.357 160.4371
1060.740836 97.418 160.1678
1068.427401 97.484 159.8973
1076.169666 97.555 159.6259
1083.968035 97.629 159.3544
1091.822915 97.706 159.0843
1099.734713 97.783 158.8173
1107.703844 97.859 158.5550
1115.730723 97.933 158.2986
1123.815768 98.001 158.0487
1131.959400 98.064 157.8054
1140.162045 98.121 157.5684
1148.424129 98.170 157.3373
1156.746083 98.212 157.1119
1165.128342 98.247 156.8922
1173.571343 98.275 156.6780
1182.075524 98.299 156.4697
1190.641331 98.319 156.2675
1199.269209 98.336 156.0716
1207.959608 98.351 155.8823
1216.712981 98.365 155.7000
1225.529785 98.378 155.5251
1234.410479 98.391 155.3585
1243.355526 98.402 155.2008
1252.365393 98.413 155.0533
1261.440549 98.421 154.9174
1270.581467 98.426 154.7939
1279.788624 98.428 154.6838
1289.062500 98.427 154.5876
1298.403578 98.423 154.5056
1307.812346 98.415 154.4374
1317.289293 98.404 154.3824
1326.834914 98.390 154.3390
1336.449707 98.374 154.3054
1346.134173 98.356 154.2800
1355.888816 98.336 154.2613
1365.714145 98.314 154.2488
1375.610673 98.290 154.2424
1385.578915 98.263 154.2421
1395.619391 98.234 154.2483
1405.732624 98.203 154.2617
1415.919142 98.169 154.2830
1426.179476 98.133 154.3135
1436.514160 98.096 154.3549
1446.923734 98.058 154.4084
1457.408740 98.020 154.4747
1467.969724 97.983 154.5539
1478.607238 97.948 154.6449
1489.321836 97.917 154.7467
1500.114076 97.890 154.8578
1510.984521 97.866 154.9770
1521.933737 97.847 155.1039
1532.962297 97.832 155.2383
1544.070773 97.820 155.3808
1555.259747 97.812 155.5322
1566.529800 97.807 155.6933
1577.881521 97.804 155.8644
1589.315501 97.803 156.0457
1600.832336 97.804 156.2370
1612.432627 97.806 156.4379
1624.116978 97.809 156.6474
1635.886000 97.813 156.8638
1647.740304 97.819 157.0850
1659.680509 97.825 157.3087
1671.707238 97.832 157.5339
1683.821118 97.840 157.7603
1696.022780 97.849 157.9886
1708.312860 97.859 158.2194
1720.692000 97.870 158.4528
1733.160843 97.883 158.6890
1745.720041 97.897 158.9283
1758.370248 97.911 159.1723
1771.112124 97.926 159.4233
1783.946332 97.941 159.6839
1796.873543 97.955 159.9565
1809.894429 97.970 160.2424
1823.009670 97.984 160.5430
1836.219950 97.997 160.8590
1849.525956 98.010 161.1916
1862.928384 98.024 161.5417
1876.427931 98.039 161.9092
1890.025301 98.055 162.2922
1903.721204 98.074 162.6871
1917.516352 98.095 163.0901
1931.411466 98.120 163.4978
1945.407270 98.147 163.9070
1959.504493 98.177 164.3142
1973.703870 98.208 164.7150
1988.006142 98.240 165.1047
2002.412054 98.271 165.4792
2016.922357 98.299 165.8365
2031.537808 98.325 166.1755
2046.259169 98.345 166.4966
2061.087206 98.361 166.7995
2076.022694 98.371 167.0843
2091.066410 98.376 167.3503
2106.219139 98.376 167.5966
2121.481671 98.372 167.8216
2136.854802 98.365 168.0229
2152.339333 98.356 168.1978
2167.936071 98.347 168.3426
2183.645829 98.337 168.4542
2199.469427 98.329 168.5303
2215.407689 98.323 168.5701
2231.461446 98.318 168.5737
2247.631536 98.315 168.5416
2263.918800 98.315 168.4747
2280.324089 98.317 168.3747
2296.848258 98.319 168.2437
2313.492167 98.323 168.0844
2330.256685 98.327 167.8996
2347.142685 98.332 167.6914
2364.151049 98.336 167.4615
2381.282662 98.340 167.2105
2398.538418 98.344 166.9383
2415.919216 98.347 166.6441
2433.425962 98.348 166.3267
2451.059570 98.349 165.9850
2468.820958 98.348 165.6186
2486.711052 98.345 165.2279
2504.730786 98.339 164.8145
2522.881098 98.331 164.3811
2541.162934 98.320 163.9315
2559.577248 98.307 163.4705
2578.125000 98.291 163.0035
2596.807157 98.273 162.5365
2615.624692 98.255 162.0753
2634.578586 98.237 161.6259
2653.669829 98.219 161.1937
2672.899414 98.204 160.7840
2692.268345 98.192 160.4019
2711.777632 98.183 160.0522
2731.428290 98.177 159.7393
2751.221345 98.176 159.4677
2771.157829 98.178 159.2419
2791.238781 98.183 159.0658
2811.465248 98.190 158.9427
2831.838284 98.199 158.8752
2852.358952 98.208 158.8653
2873.028321 98.217 158.9137
2893.847468 98.225 159.0206
2914.817480 98.230 159.1854
2935.939449 98.232 159.4066
2957.214476 98.232 159.6820
2978.643672 98.227 160.0083
3000.228152 98.220 160.3812
3021.969041 98.210 160.7953
3043.867475 98.198 161.2436
3065.924593 98.185 161.7175
3088.141547 98.172 162.2066
3110.519493 98.160 162.6993
3133.059600 98.150 163.1828
3155.763041 98.142 163.6443
3178.631001 98.135 164.0721
3201.664672 98.130 164.4571
3224.865254 98.126 164.7940
3248.233957 98.120 165.0825
3271.771999 98.111 165.3277
3295.480608 98.098 165.5396
3319.361019 98.081 165.7325
3343.414477 98.059 165.9233
3367.642236 98.032 166.1295
3392.045560 98.004 166.3670
3416.625721 97.975 166.6480
