* Measurement data measured by REW V5.31.3
* Source: EXCL: Headset (USB-C to 3.5mm Headphone Jack Adapter), MICROPHONE (Master Volume), 0, volume: 0.260
* Format: 256k Log Swept Sine, 1 sweep at -12.0 dBFS with no timing reference
* Dated: Mar 7, 2025 11:53:13 AM
* REW Settings:
*  C-weighting compensation: Off
*  Target level: 75.0 dB
* Note: ; 
* Measurement: Massive Mod V1 L3
* Smoothing: 1/6 octave
* Frequency Step: 96 ppo
* Start Frequency: 20.0 Hz
*
* Freq(Hz) SPL(dB) Phase(degrees)
20.141602 93.343 -38.2754
20.287556 93.356 -38.4588
20.434568 93.373 -38.7022
20.582645 93.396 -38.9967
20.731796 93.423 -39.3335
20.882027 93.456 -39.7051
21.033346 93.495 -40.1056
21.185763 93.538 -40.5316
21.339284 93.587 -40.9815
21.493917 93.640 -41.4551
21.649671 93.696 -41.9532
21.806553 93.755 -42.4769
21.964572 93.816 -43.0269
22.123737 93.877 -43.6032
22.284054 93.938 -44.2048
22.445534 93.997 -44.8296
22.608183 94.054 -45.4742
22.772012 94.108 -46.1348
22.937027 94.160 -46.8068
23.103238 94.209 -47.4855
23.270654 94.256 -48.1663
23.439282 94.303 -48.8455
23.609133 94.349 -49.5200
23.780215 94.397 -50.1880
23.952536 94.446 -50.8488
24.126106 94.499 -51.5030
24.300934 94.556 -52.1522
24.477028 94.617 -52.7988
24.654399 94.683 -53.4458
24.833055 94.754 -54.0962
25.013005 94.828 -54.7528
25.194260 94.905 -55.4179
25.376828 94.984 -56.0931
25.560719 95.064 -56.7789
25.745942 95.143 -57.4747
25.932508 95.220 -58.1792
26.120426 95.296 -58.8902
26.309705 95.368 -59.6052
26.500356 95.437 -60.3218
26.692388 95.503 -61.0381
26.885812 95.567 -61.7529
27.080638 95.630 -62.4664
27.276876 95.692 -63.1803
27.474535 95.755 -63.8975
27.673627 95.820 -64.6220
27.874161 95.887 -65.3583
28.076149 95.957 -66.1103
28.279600 96.030 -66.8811
28.484526 96.104 -67.6716
28.690937 96.178 -68.4805
28.898843 96.253 -69.3038
29.108256 96.325 -70.1352
29.319186 96.396 -70.9671
29.531645 96.463 -71.7910
29.745644 96.527 -72.5989
29.961193 96.587 -73.3842
30.178304 96.643 -74.1425
30.396989 96.697 -74.8720
30.617258 96.749 -75.5737
30.839123 96.799 -76.2507
31.062596 96.848 -76.9080
31.287688 96.897 -77.5516
31.514412 96.947 -78.1879
31.742778 96.998 -78.8226
31.972800 97.050 -79.4611
32.204488 97.105 -80.1071
32.437855 97.163 -80.7635
32.672913 97.225 -81.4314
32.909674 97.290 -82.1108
33.148151 97.359 -82.8005
33.388356 97.432 -83.4978
33.630302 97.507 -84.1993
33.874001 97.584 -84.9009
34.119466 97.662 -85.5983
34.366710 97.741 -86.2873
34.615745 97.818 -86.9645
34.866585 97.894 -87.6274
35.119243 97.966 -88.2749
35.373731 98.036 -88.9069
35.630064 98.101 -89.5245
35.888254 98.161 -90.1297
36.148315 98.216 -90.7249
36.410261 98.267 -91.3128
36.674104 98.313 -91.8961
36.939860 98.355 -92.4771
37.207542 98.392 -93.0577
37.477163 98.427 -93.6395
37.748738 98.458 -94.2236
38.022281 98.487 -94.8110
38.297806 98.513 -95.4023
38.575327 98.538 -95.9983
38.854860 98.561 -96.5997
39.136419 98.582 -97.2075
39.420017 98.603 -97.8227
39.705671 98.622 -98.4463
39.993395 98.640 -99.0792
40.283203 98.657 -99.7220
40.575112 98.673 -100.3749
40.869136 98.688 -101.0377
41.165290 98.703 -101.7097
41.463591 98.718 -102.3898
41.764053 98.733 -103.0763
42.066693 98.749 -103.7673
42.371525 98.766 -104.4609
42.678567 98.784 -105.1553
42.987834 98.804 -105.8494
43.299341 98.825 -106.5428
43.613106 98.849 -107.2360
43.929145 98.876 -107.9303
44.247473 98.905 -108.6276
44.568109 98.937 -109.3300
44.891068 98.972 -110.0392
45.216367 99.008 -110.7564
45.544023 99.046 -111.4820
45.874054 99.086 -112.2154
46.206476 99.126 -112.9554
46.541307 99.166 -113.7000
46.878565 99.207 -114.4476
47.218266 99.247 -115.1963
47.560429 99.287 -115.9453
47.905072 99.328 -116.6941
48.252212 99.368 -117.4429
48.601867 99.408 -118.1920
48.954056 99.448 -118.9420
49.308798 99.488 -119.6929
49.666109 99.527 -120.4445
50.026010 99.567 -121.1963
50.388520 99.605 -121.9476
50.753656 99.642 -122.6977
51.121437 99.678 -123.4459
51.491884 99.712 -124.1917
51.865016 99.743 -124.9345
52.240851 99.773 -125.6738
52.619410 99.801 -126.4088
53.000712 99.827 -127.1384
53.384777 99.851 -127.8614
53.771625 99.873 -128.5766
54.161276 99.893 -129.2832
54.553751 99.911 -129.9810
54.949070 99.927 -130.6711
55.347254 99.941 -131.3555
55.748323 99.953 -132.0368
56.152298 99.963 -132.7174
56.559201 99.971 -133.3990
56.969052 99.979 -134.0820
57.381873 99.987 -134.7650
57.797686 99.995 -135.4460
58.216512 100.003 -136.1221
58.638373 100.010 -136.7913
59.063291 100.017 -137.4518
59.491288 100.022 -138.1033
59.922386 100.024 -138.7465
60.356608 100.024 -139.3829
60.793977 100.021 -140.0154
61.234515 100.016 -140.6467
61.678246 100.010 -141.2796
62.125192 100.002 -141.9156
62.575377 99.995 -142.5548
63.028824 99.987 -143.1957
63.485557 99.978 -143.8363
63.945599 99.969 -144.4745
64.408975 99.958 -145.1086
64.875709 99.946 -145.7377
65.345825 99.932 -146.3612
65.819348 99.916 -146.9790
66.296302 99.899 -147.5909
66.776713 99.881 -148.1970
67.260604 99.862 -148.7977
67.748002 99.842 -149.3936
68.238932 99.822 -149.9856
68.733420 99.802 -150.5746
69.231490 99.782 -151.1609
69.733170 99.762 -151.7443
70.238485 99.741 -152.3244
70.747463 99.721 -152.9003
71.260128 99.701 -153.4711
71.776508 99.681 -154.0362
72.296630 99.661 -154.5954
72.820521 99.640 -155.1486
73.348209 99.620 -155.6960
73.879720 99.600 -156.2382
74.415083 99.580 -156.7755
74.954326 99.560 -157.3084
75.497475 99.540 -157.8371
76.044561 99.519 -158.3618
76.595612 99.497 -158.8828
77.150655 99.475 -159.4003
77.709720 99.451 -159.9144
78.272837 99.427 -160.4249
78.840034 99.401 -160.9315
79.411342 99.375 -161.4338
79.986789 99.348 -161.9312
80.566406 99.319 -162.4233
81.150224 99.290 -162.9093
81.738272 99.261 -163.3886
82.330581 99.230 -163.8606
82.927182 99.199 -164.3246
83.528107 99.168 -164.7804
84.133386 99.137 -165.2279
84.743051 99.105 -165.6675
85.357134 99.074 -166.0997
85.975667 99.043 -166.5253
86.598682 99.013 -166.9450
87.226212 98.984 -167.3595
87.858289 98.956 -167.7692
88.494946 98.928 -168.1747
89.136217 98.902 -168.5760
89.782135 98.877 -168.9737
90.432733 98.854 -169.3679
91.088046 98.831 -169.7587
91.748108 98.809 -170.1464
92.412952 98.788 -170.5308
93.082615 98.767 -170.9119
93.757130 98.746 -171.2895
94.436533 98.724 -171.6631
95.120859 98.701 -172.0324
95.810144 98.676 -172.3969
96.504423 98.649 -172.7564
97.203734 98.620 -173.1106
97.908112 98.589 -173.4597
98.617595 98.555 -173.8045
99.332219 98.520 -174.1457
100.052021 98.483 -174.4844
100.777039 98.445 -174.8215
101.507311 98.406 -175.1579
102.242875 98.366 -175.4938
102.983769 98.326 -175.8288
103.730032 98.286 -176.1615
104.481702 98.247 -176.4902
105.238820 98.208 -176.8127
106.001424 98.171 -177.1271
106.769554 98.135 -177.4315
107.543250 98.100 -177.7244
108.322553 98.066 -178.0056
109.107503 98.033 -178.2755
109.898141 98.001 -178.5364
110.694508 97.969 -178.7910
111.496646 97.937 -179.0423
112.304596 97.906 -179.2930
113.118402 97.874 -179.5448
113.938104 97.843 -179.7984
114.763747 97.811 179.9462
115.595372 97.779 179.6899
116.433024 97.747 179.4334
117.276746 97.714 179.1770
118.126581 97.679 178.9203
118.982575 97.644 178.6626
119.844772 97.608 178.4026
120.713217 97.571 178.1400
121.587954 97.533 177.8751
122.469031 97.494 177.6089
123.356492 97.455 177.3428
124.250384 97.416 177.0780
125.150753 97.377 176.8156
126.057647 97.339 176.5560
126.971113 97.303 176.2996
127.891198 97.268 176.0467
128.817950 97.235 175.7976
129.751418 97.203 175.5528
130.691651 97.173 175.3126
131.638696 97.143 175.0776
132.592604 97.114 174.8481
133.553425 97.085 174.6244
134.521208 97.054 174.4062
135.496004 97.023 174.1932
136.477864 96.990 173.9848
137.466839 96.954 173.7805
138.462981 96.917 173.5807
139.466340 96.877 173.3861
140.476971 96.834 173.1985
141.494925 96.789 173.0201
142.520256 96.742 172.8526
143.553016 96.692 172.6974
144.593260 96.641 172.5550
145.641043 96.589 172.4249
146.696418 96.535 172.3060
147.759441 96.481 172.1969
148.830166 96.428 172.0960
149.908651 96.375 172.0019
150.994951 96.322 171.9137
152.089123 96.271 171.8312
153.191223 96.221 171.7552
154.301310 96.171 171.6870
155.419441 96.122 171.6288
156.545674 96.074 171.5830
157.680069 96.026 171.5523
158.822683 95.979 171.5388
159.973578 95.932 171.5437
161.132813 95.886 171.5673
162.300447 95.840 171.6093
163.476543 95.795 171.6686
164.661162 95.752 171.7443
165.854364 95.710 171.8348
167.056213 95.671 171.9382
168.266772 95.635 172.0523
169.486102 95.601 172.1750
170.714268 95.572 172.3036
171.951334 95.545 172.4357
173.197364 95.522 172.5682
174.452424 95.503 172.6982
175.716578 95.487 172.8225
176.989893 95.473 172.9380
178.272434 95.462 173.0415
179.564270 95.453 173.1306
180.865467 95.445 173.2034
182.176092 95.437 173.2590
183.496216 95.430 173.2972
184.825905 95.422 173.3186
186.165229 95.413 173.3240
187.514259 95.403 173.3146
188.873065 95.391 173.2919
190.241717 95.377 173.2574
191.620287 95.360 173.2130
193.008847 95.342 173.1606
194.407468 95.320 173.1020
195.816225 95.296 173.0386
197.235190 95.269 172.9713
198.664438 95.238 172.9011
200.104042 95.205 172.8288
201.554078 95.170 172.7550
203.014622 95.133 172.6802
204.485750 95.095 172.6048
205.967538 95.056 172.5287
207.460064 95.017 172.4518
208.963405 94.979 172.3735
210.477640 94.943 172.2933
212.002848 94.908 172.2110
213.539108 94.876 172.1268
215.086500 94.847 172.0416
216.645105 94.822 171.9566
218.215005 94.800 171.8734
219.796281 94.783 171.7934
221.389015 94.771 171.7178
222.993292 94.764 171.6474
224.609193 94.761 171.5824
226.236804 94.763 171.5228
227.876209 94.769 171.4687
229.527494 94.779 171.4200
231.190745 94.791 171.3768
232.866048 94.806 171.3389
234.553491 94.822 171.3058
236.253163 94.839 171.2767
237.965150 94.856 171.2505
239.689544 94.874 171.2258
241.426433 94.892 171.2018
243.175909 94.910 171.1783
244.938062 94.928 171.1555
246.712984 94.945 171.1335
248.500768 94.962 171.1125
250.301507 94.978 171.0922
252.115295 94.993 171.0720
253.942226 95.006 171.0511
255.782396 95.019 171.0288
257.635901 95.030 171.0038
259.502837 95.039 170.9752
261.383301 95.048 170.9423
263.277392 95.054 170.9047
265.185209 95.059 170.8628
267.106850 95.062 170.8174
269.042417 95.064 170.7699
270.992009 95.064 170.7222
272.955729 95.062 170.6761
274.933678 95.058 170.6325
276.925961 95.051 170.5920
278.932681 95.041 170.5544
280.953942 95.027 170.5187
282.989850 95.009 170.4836
285.040511 94.986 170.4474
287.106032 94.958 170.4086
289.186521 94.925 170.3665
291.282086 94.888 170.3208
293.392836 94.846 170.2722
295.518881 94.800 170.2220
297.660333 94.750 170.1712
299.817302 94.698 170.1209
301.989902 94.643 170.0720
304.178245 94.587 170.0250
306.382446 94.529 169.9805
308.602620 94.472 169.9388
310.838882 94.414 169.9010
313.091348 94.358 169.8682
315.360137 94.304 169.8424
317.645367 94.253 169.8253
319.947156 94.204 169.8188
322.265625 94.160 169.8239
324.600895 94.120 169.8410
326.953086 94.085 169.8696
329.322323 94.055 169.9084
331.708729 94.030 169.9556
334.112427 94.011 170.0091
336.533543 93.998 170.0666
338.972204 93.990 170.1256
341.428536 93.988 170.1840
343.902668 93.992 170.2401
346.394729 94.000 170.2925
348.904848 94.013 170.3408
351.433156 94.030 170.3845
353.979786 94.051 170.4235
356.544869 94.073 170.4579
359.128540 94.097 170.4880
361.730934 94.121 170.5143
364.352185 94.144 170.5375
366.992431 94.164 170.5582
369.651810 94.181 170.5771
372.330459 94.194 170.5944
375.028519 94.202 170.6107
377.746130 94.205 170.6265
380.483434 94.202 170.6427
383.240574 94.195 170.6602
386.017693 94.182 170.6797
388.814937 94.164 170.7018
391.632450 94.143 170.7264
394.470380 94.118 170.7529
397.328875 94.092 170.7809
400.208084 94.065 170.8098
403.108157 94.038 170.8395
406.029245 94.012 170.8697
408.971500 93.990 170.9004
411.935076 93.970 170.9314
414.920127 93.955 170.9626
417.926810 93.944 170.9941
420.955280 93.937 171.0262
424.005695 93.936 171.0598
427.078215 93.939 171.0957
430.173000 93.945 171.1346
433.290211 93.955 171.1766
436.430010 93.967 171.2214
439.592562 93.980 171.2678
442.778031 93.994 171.3143
445.986583 94.007 171.3596
449.218386 94.018 171.4023
452.473607 94.028 171.4421
455.752418 94.035 171.4795
459.054987 94.040 171.5156
462.381489 94.043 171.5519
465.732096 94.043 171.5902
469.106983 94.041 171.6317
472.506325 94.038 171.6773
475.930301 94.033 171.7272
479.379088 94.027 171.7808
482.852867 94.021 171.8370
486.351817 94.015 171.8944
489.876123 94.008 171.9518
493.425968 94.003 172.0080
497.001536 93.999 172.0621
500.603014 93.997 172.1134
504.230589 93.999 172.1614
507.884452 94.004 172.2057
511.564792 94.013 172.2461
515.271802 94.029 172.2823
519.005673 94.050 172.3142
522.766602 94.077 172.3419
526.554785 94.110 172.3655
530.370418 94.150 172.3854
534.213700 94.196 172.4019
538.084833 94.246 172.4153
541.984018 94.299 172.4260
545.911457 94.355 172.4342
549.867357 94.412 172.4406
553.851922 94.467 172.4454
557.865362 94.520 172.4495
561.907884 94.568 172.4532
565.979700 94.612 172.4572
570.081022 94.649 172.4619
574.212064 94.679 172.4674
578.373042 94.701 172.4736
582.564171 94.714 172.4801
586.785671 94.719 172.4861
591.037762 94.713 172.4910
595.320665 94.698 172.4943
599.634604 94.674 172.4956
603.979804 94.640 172.4951
608.356491 94.598 172.4930
612.764893 94.548 172.4894
617.205240 94.492 172.4850
621.677763 94.430 172.4803
626.182696 94.366 172.4764
630.720274 94.300 172.4742
635.290733 94.235 172.4743
639.894312 94.171 172.4772
644.531250 94.111 172.4829
649.201789 94.057 172.4907
653.906173 94.008 172.4995
658.644647 93.968 172.5081
663.417457 93.935 172.5153
668.224854 93.912 172.5198
673.067086 93.897 172.5208
677.944408 93.893 172.5177
682.857073 93.898 172.5099
687.805336 93.913 172.4972
692.789457 93.936 172.4794
697.809695 93.967 172.4568
702.866312 94.006 172.4294
707.959571 94.050 172.3976
713.089738 94.099 172.3619
718.257080 94.150 172.3224
723.461867 94.202 172.2797
728.704370 94.254 172.2336
733.984862 94.305 172.1841
739.303619 94.353 172.1303
744.660918 94.397 172.0710
750.057038 94.438 172.0047
755.492260 94.475 171.9299
760.966869 94.509 171.8456
766.481148 94.539 171.7514
772.035387 94.566 171.6474
777.629873 94.589 171.5342
783.264900 94.609 171.4131
788.940760 94.626 171.2854
794.657750 94.638 171.1523
800.416168 94.645 171.0148
806.216313 94.646 170.8733
812.058489 94.640 170.7282
817.943000 94.626 170.5794
823.870152 94.605 170.4271
829.840255 94.575 170.2715
835.853619 94.538 170.1131
841.910559 94.493 169.9525
848.011390 94.443 169.7899
854.156430 94.389 169.6255
860.346000 94.334 169.4592
866.580422 94.280 169.2907
872.860020 94.229 169.1199
879.185124 94.184 168.9464
885.556062 94.147 168.7704
891.973166 94.120 168.5917
898.436771 94.102 168.4108
904.947215 94.095 168.2279
911.504835 94.099 168.0435
918.109975 94.111 167.8580
924.762978 94.132 167.6715
931.464192 94.160 167.4838
938.213966 94.193 167.2944
945.012651 94.229 167.1024
951.860602 94.267 166.9071
958.758176 94.306 166.7074
965.705733 94.342 166.5029
972.703635 94.377 166.2936
979.752246 94.408 166.0798
986.851935 94.435 165.8624
994.003071 94.459 165.6425
1001.206027 94.479 165.4214
1008.461179 94.497 165.2001
1015.768904 94.513 164.9796
1023.129584 94.528 164.7601
1030.543603 94.543 164.5418
1038.011347 94.561 164.3242
1045.533205 94.581 164.1069
1053.109569 94.604 163.8896
1060.740836 94.631 163.6722
1068.427401 94.663 163.4552
1076.169666 94.697 163.2389
1083.968035 94.734 163.0240
1091.822915 94.773 162.8108
1099.734713 94.811 162.5994
1107.703844 94.849 162.3895
1115.730723 94.884 162.1812
1123.815768 94.914 161.9745
1131.959400 94.939 161.7702
1140.162045 94.958 161.5693
1148.424129 94.970 161.3728
1156.746083 94.977 161.1815
1165.128342 94.977 160.9960
1173.571343 94.973 160.8163
1182.075524 94.967 160.6420
1190.641331 94.958 160.4727
1199.269209 94.950 160.3077
1207.959608 94.943 160.1459
1216.712981 94.938 159.9863
1225.529785 94.938 159.8275
1234.410479 94.942 159.6687
1243.355526 94.950 159.5093
1252.365393 94.964 159.3494
1261.440549 94.981 159.1894
1270.581467 95.002 159.0305
1279.788624 95.026 158.8741
1289.062500 95.052 158.7221
1298.403578 95.079 158.5759
1307.812346 95.107 158.4365
1317.289293 95.135 158.3046
1326.834914 95.161 158.1806
1336.449707 95.184 158.0651
1346.134173 95.205 157.9588
1355.888816 95.222 157.8627
1365.714145 95.236 157.7772
1375.610673 95.245 157.7025
1385.578915 95.249 157.6385
1395.619391 95.249 157.5853
1405.732624 95.245 157.5427
1415.919142 95.237 157.5106
1426.179476 95.225 157.4889
1436.514160 95.209 157.4772
1446.923734 95.190 157.4753
1457.408740 95.169 157.4833
1467.969724 95.144 157.5011
1478.607238 95.118 157.5289
1489.321836 95.089 157.5671
1500.114076 95.057 157.6157
1510.984521 95.023 157.6751
1521.933737 94.986 157.7460
1532.962297 94.946 157.8287
1544.070773 94.903 157.9235
1555.259747 94.857 158.0292
1566.529800 94.808 158.1446
1577.881521 94.757 158.2680
1589.315501 94.703 158.3989
1600.832336 94.646 158.5385
1612.432627 94.588 158.6901
1624.116978 94.528 158.8579
1635.886000 94.467 159.0465
1647.740304 94.405 159.2594
1659.680509 94.345 159.4987
1671.707238 94.286 159.7648
1683.821118 94.229 160.0568
1696.022780 94.176 160.3723
1708.312860 94.125 160.7088
1720.692000 94.079 161.0621
1733.160843 94.038 161.4272
1745.720041 94.002 161.7980
1758.370248 93.971 162.1694
1771.112124 93.945 162.5377
1783.946332 93.925 162.9012
1796.873543 93.910 163.2597
1809.894429 93.901 163.6135
1823.009670 93.896 163.9628
1836.219950 93.896 164.3079
1849.525956 93.900 164.6489
1862.928384 93.907 164.9863
1876.427931 93.916 165.3205
1890.025301 93.928 165.6506
1903.721204 93.941 165.9750
1917.516352 93.955 166.2909
1931.411466 93.969 166.5947
1945.407270 93.984 166.8828
1959.504493 93.999 167.1522
1973.703870 94.013 167.4002
1988.006142 94.028 167.6246
2002.412054 94.042 167.8234
2016.922357 94.058 167.9951
2031.537808 94.073 168.1395
2046.259169 94.091 168.2570
2061.087206 94.109 168.3483
2076.022694 94.130 168.4132
2091.066410 94.153 168.4515
2106.219139 94.179 168.4634
2121.481671 94.207 168.4505
2136.854802 94.238 168.4150
2152.339333 94.272 168.3591
2167.936071 94.308 168.2847
2183.645829 94.348 168.1937
2199.469427 94.391 168.0882
2215.407689 94.438 167.9705
2231.461446 94.488 167.8427
2247.631536 94.541 167.7066
2263.918800 94.599 167.5639
2280.324089 94.660 167.4165
2296.848258 94.724 167.2663
2313.492167 94.792 167.1155
2330.256685 94.863 166.9667
2347.142685 94.936 166.8224
2364.151049 95.011 166.6859
2381.282662 95.088 166.5597
2398.538418 95.166 166.4459
2415.919216 95.245 166.3455
2433.425962 95.325 166.2579
2451.059570 95.404 166.1810
2468.820958 95.484 166.1115
2486.711052 95.562 166.0454
2504.730786 95.638 165.9785
2522.881098 95.711 165.9066
2541.162934 95.780 165.8260
2559.577248 95.843 165.7340
2578.125000 95.900 165.6288
2596.807157 95.948 165.5100
2615.624692 95.987 165.3784
2634.578586 96.017 165.2363
2653.669829 96.035 165.0875
2672.899414 96.041 164.9370
2692.268345 96.036 164.7912
2711.777632 96.018 164.6574
2731.428290 95.988 164.5428
2751.221345 95.946 164.4546
2771.157829 95.894 164.3991
2791.238781 95.831 164.3819
2811.465248 95.759 164.4073
2831.838284 95.679 164.4789
2852.358952 95.592 164.5995
2873.028321 95.499 164.7719
2893.847468 95.401 164.9985
2914.817480 95.299 165.2815
2935.939449 95.194 165.6229
2957.214476 95.088 166.0242
2978.643672 94.982 166.4854
3000.228152 94.878 167.0054
3021.969041 94.778 167.5807
3043.867475 94.684 168.2056
3065.924593 94.597 168.8724
3088.141547 94.519 169.5712
3110.519493 94.452 170.2910
3133.059600 94.395 171.0194
3155.763041 94.351 171.7440
3178.631001 94.319 172.4523
3201.664672 94.298 173.1326
3224.865254 94.289 173.7748
3248.233957 94.290 174.3712
3271.771999 94.300 174.9167
3295.480608 94.318 175.4102
3319.361019 94.343 175.8539
3343.414477 94.374 176.2538
3367.642236 94.410 176.6187
3392.045560 94.452 176.9586
3416.625721 94.502 177.2831
3441.383999 94.559 177.5991
3466.321686 94.627 177.9091
3491.440082 94.707 178.2097
3516.740496 94.801 178.4912
3542.224247 94.910 178.7378
3567.892664 95.034 178.9291
