* Measurement data measured by REW V5.31.3
* Source: EXCL: Headset (USB-C to 3.5mm Headphone Jack Adapter), MICROPHONE (Master Volume), 0, volume: 0.750
* Format: 256k Log Swept Sine, 1 sweep at -12.0 dBFS with no timing reference
* Dated: Apr 7, 2025 4:50:27 PM
* REW Settings:
*  C-weighting compensation: Off
*  Target level: 75.0 dB
* Note: ; 
* Measurement: Satyr 3 (Forward) R9
* Smoothing: 1/6 octave
* Frequency Step: 96 ppo
* Start Frequency: 20.0 Hz
*
* Freq(Hz) SPL(dB) Phase(degrees)
20.187378 80.528 -101.0390
20.333664 80.564 -101.2482
20.481010 80.611 -101.5250
20.629424 80.670 -101.8572
20.778913 80.738 -102.2310
20.929486 80.814 -102.6322
21.081150 80.896 -103.0470
21.233912 80.985 -103.4634
21.387782 81.078 -103.8711
21.542767 81.175 -104.2623
21.698874 81.274 -104.6321
21.856113 81.377 -104.9785
22.014492 81.480 -105.3019
22.174018 81.585 -105.6056
22.334700 81.689 -105.8942
22.496546 81.792 -106.1742
22.659566 81.893 -106.4524
22.823766 81.990 -106.7354
22.989157 82.082 -107.0294
23.155745 82.169 -107.3394
23.323542 82.249 -107.6690
23.492554 82.323 -108.0203
23.662790 82.391 -108.3939
23.834261 82.452 -108.7894
24.006973 82.507 -109.2056
24.180938 82.557 -109.6406
24.356163 82.602 -110.0924
24.532658 82.645 -110.5592
24.710431 82.685 -111.0388
24.889493 82.723 -111.5297
25.069853 82.760 -112.0297
25.251519 82.796 -112.5367
25.434502 82.830 -113.0481
25.618811 82.863 -113.5608
25.804456 82.895 -114.0714
25.991445 82.924 -114.5760
26.179790 82.951 -115.0709
26.369500 82.975 -115.5530
26.560584 82.997 -116.0199
26.753053 83.017 -116.4705
26.946917 83.035 -116.9053
27.142185 83.053 -117.3264
27.338869 83.070 -117.7374
27.536977 83.087 -118.1429
27.736522 83.106 -118.5480
27.937512 83.126 -118.9578
28.139959 83.148 -119.3768
28.343872 83.171 -119.8084
28.549264 83.197 -120.2542
28.756143 83.225 -120.7148
28.964522 83.254 -121.1889
29.174411 83.285 -121.6747
29.385821 83.319 -122.1696
29.598763 83.354 -122.6710
29.813248 83.392 -123.1767
30.029287 83.431 -123.6852
30.246891 83.473 -124.1958
30.466073 83.517 -124.7081
30.686842 83.562 -125.2224
30.909212 83.610 -125.7387
31.133193 83.659 -126.2569
31.358797 83.710 -126.7759
31.586035 83.763 -127.2940
31.814921 83.816 -127.8084
32.045465 83.871 -128.3159
32.277680 83.928 -128.8128
32.511577 83.988 -129.2958
32.747169 84.050 -129.7618
32.984469 84.114 -130.2090
33.223488 84.183 -130.6367
33.464239 84.254 -131.0452
33.706735 84.329 -131.4364
33.950987 84.407 -131.8127
34.197010 84.487 -132.1775
34.444816 84.570 -132.5343
34.694417 84.654 -132.8869
34.945827 84.740 -133.2387
35.199059 84.826 -133.5931
35.454126 84.913 -133.9530
35.711041 85.000 -134.3206
35.969818 85.088 -134.6977
36.230470 85.174 -135.0849
36.493011 85.261 -135.4822
36.757455 85.346 -135.8882
37.023814 85.430 -136.3009
37.292104 85.512 -136.7174
37.562338 85.593 -137.1349
37.834530 85.671 -137.5502
38.108695 85.747 -137.9611
38.384846 85.820 -138.3659
38.662999 85.891 -138.7640
38.943167 85.959 -139.1556
39.225365 86.023 -139.5417
39.509608 86.085 -139.9237
39.795911 86.144 -140.3037
40.084289 86.200 -140.6835
40.374756 86.254 -141.0651
40.667328 86.306 -141.4502
40.962020 86.356 -141.8404
41.258848 86.404 -142.2367
41.557827 86.452 -142.6397
41.858972 86.499 -143.0493
42.162299 86.545 -143.4648
42.467824 86.591 -143.8849
42.775564 86.637 -144.3078
43.085533 86.683 -144.7316
43.397749 86.728 -145.1546
43.712227 86.772 -145.5758
44.028983 86.816 -145.9952
44.348036 86.859 -146.4132
44.669400 86.901 -146.8313
44.993093 86.941 -147.2511
45.319131 86.980 -147.6742
45.647532 87.017 -148.1017
45.978313 87.052 -148.5343
46.311491 87.086 -148.9722
46.647083 87.119 -149.4155
46.985107 87.151 -149.8640
47.325581 87.182 -150.3176
47.668521 87.213 -150.7764
48.013947 87.244 -151.2400
48.361876 87.273 -151.7085
48.712326 87.302 -152.1813
49.065315 87.329 -152.6582
49.420863 87.354 -153.1391
49.778987 87.376 -153.6237
50.139706 87.395 -154.1120
50.503039 87.410 -154.6039
50.869005 87.423 -155.0991
51.237623 87.432 -155.5970
51.608912 87.439 -156.0967
51.982891 87.443 -156.5971
52.359580 87.446 -157.0969
52.739000 87.448 -157.5945
53.121168 87.448 -158.0888
53.506106 87.448 -158.5788
53.893833 87.447 -159.0641
54.284370 87.446 -159.5452
54.677737 87.444 -160.0236
55.073955 87.442 -160.5020
55.473043 87.440 -160.9835
55.875024 87.437 -161.4720
56.279917 87.433 -161.9711
56.687745 87.429 -162.4840
57.098527 87.426 -163.0127
57.512287 87.423 -163.5572
57.929045 87.422 -164.1143
58.348822 87.423 -164.6777
58.771642 87.426 -165.2376
59.197525 87.432 -165.7824
59.626495 87.441 -166.3009
60.058573 87.454 -166.7852
60.493782 87.470 -167.2323
60.932145 87.489 -167.6447
61.373685 87.510 -168.0289
61.818424 87.534 -168.3934
62.266386 87.558 -168.7465
62.717593 87.583 -169.0949
63.172071 87.609 -169.4431
63.629842 87.635 -169.7936
64.090930 87.661 -170.1475
64.555359 87.687 -170.5054
65.023154 87.714 -170.8682
65.494339 87.740 -171.2369
65.968938 87.765 -171.6124
66.446976 87.790 -171.9953
66.928478 87.815 -172.3855
67.413469 87.838 -172.7822
67.901975 87.860 -173.1838
68.394021 87.882 -173.5891
68.889632 87.901 -173.9966
69.388835 87.919 -174.4054
69.891655 87.934 -174.8150
70.398118 87.946 -175.2249
70.908252 87.955 -175.6349
71.422083 87.961 -176.0446
71.939636 87.964 -176.4539
72.460941 87.964 -176.8625
72.986023 87.961 -177.2701
73.514909 87.957 -177.6761
74.047629 87.950 -178.0797
74.584208 87.942 -178.4797
75.124676 87.932 -178.8750
75.669061 87.921 -179.2646
76.217390 87.908 -179.6484
76.769692 87.894 179.9735
77.325997 87.878 179.6005
77.886333 87.861 179.2319
78.450730 87.843 178.8669
79.019216 87.823 178.5048
79.591822 87.801 178.1451
80.168577 87.778 177.7881
80.749512 87.754 177.4340
81.334656 87.728 177.0830
81.924040 87.702 176.7355
82.517696 87.674 176.3915
83.115653 87.646 176.0507
83.717943 87.617 175.7130
84.324598 87.587 175.3783
84.935649 87.557 175.0464
85.551128 87.527 174.7171
86.171066 87.496 174.3903
86.795497 87.466 174.0655
87.424453 87.435 173.7426
88.057967 87.404 173.4214
88.696071 87.373 173.1020
89.338800 87.343 172.7849
89.986185 87.312 172.4703
90.638262 87.281 172.1591
91.295065 87.250 171.8514
91.956626 87.219 171.5477
92.622982 87.189 171.2479
93.294166 87.158 170.9519
93.970214 87.128 170.6591
94.651161 87.098 170.3692
95.337042 87.068 170.0814
96.027894 87.039 169.7952
96.723752 87.009 169.5098
97.424652 86.980 169.2250
98.130631 86.950 168.9402
98.841726 86.921 168.6554
99.557974 86.891 168.3703
100.279412 86.862 168.0849
101.006078 86.834 167.7993
101.738010 86.806 167.5140
102.475245 86.778 167.2294
103.217823 86.752 166.9467
103.965782 86.726 166.6673
104.719161 86.701 166.3929
105.477999 86.678 166.1252
106.242336 86.655 165.8653
107.012212 86.634 165.6135
107.787666 86.614 165.3690
108.568740 86.595 165.1302
109.355474 86.577 164.8953
110.147909 86.560 164.6622
110.946086 86.544 164.4295
111.750047 86.528 164.1958
112.559834 86.513 163.9601
113.375489 86.499 163.7220
114.197055 86.484 163.4815
115.024574 86.470 163.2391
115.858089 86.456 162.9958
116.697645 86.441 162.7526
117.543284 86.426 162.5107
118.395051 86.410 162.2714
119.252990 86.394 162.0354
120.117147 86.376 161.8036
120.987565 86.358 161.5761
121.864291 86.339 161.3532
122.747370 86.319 161.1349
123.636848 86.298 160.9215
124.532771 86.276 160.7136
125.435187 86.252 160.5118
126.344142 86.228 160.3171
127.259684 86.202 160.1303
128.181860 86.175 159.9519
129.110718 86.147 159.7823
130.046308 86.118 159.6212
130.988677 86.089 159.4675
131.937875 86.058 159.3192
132.893951 86.026 159.1741
133.856956 85.993 159.0299
134.826938 85.958 158.8853
135.803950 85.923 158.7397
136.788041 85.886 158.5941
137.779264 85.847 158.4497
138.777669 85.808 158.3081
139.783309 85.767 158.1707
140.796237 85.725 158.0385
141.816504 85.682 157.9119
142.844165 85.638 157.7911
143.879273 85.593 157.6765
144.921881 85.546 157.5685
145.972045 85.499 157.4678
147.029819 85.450 157.3753
148.095257 85.401 157.2917
149.168417 85.352 157.2179
150.249353 85.302 157.1544
151.338121 85.251 157.1021
152.434780 85.201 157.0614
153.539385 85.151 157.0332
154.651995 85.101 157.0181
155.772667 85.052 157.0165
156.901460 85.003 157.0289
158.038432 84.956 157.0557
159.183644 84.909 157.0969
160.337154 84.864 157.1524
161.499023 84.821 157.2216
162.669312 84.780 157.3038
163.848081 84.741 157.3979
165.035392 84.705 157.5027
166.231306 84.671 157.6171
167.435887 84.641 157.7396
168.649196 84.614 157.8688
169.871298 84.590 158.0031
171.102255 84.570 158.1406
172.342133 84.553 158.2798
173.590995 84.540 158.4186
174.848907 84.529 158.5552
176.115934 84.522 158.6877
177.392143 84.516 158.8140
178.677599 84.513 158.9320
179.972371 84.511 159.0395
181.276525 84.511 159.1343
182.590129 84.512 159.2142
183.913252 84.514 159.2778
185.245964 84.518 159.3242
186.588332 84.522 159.3530
187.940428 84.527 159.3648
189.302322 84.533 159.3607
190.674085 84.539 159.3416
192.055788 84.545 159.3091
193.447503 84.550 159.2643
194.849303 84.555 159.2085
196.261262 84.560 159.1426
197.683452 84.563 159.0678
199.115948 84.566 158.9852
200.558824 84.568 158.8959
202.012156 84.569 158.8009
203.476019 84.569 158.7007
204.950490 84.568 158.5950
206.435646 84.566 158.4837
207.931564 84.563 158.3658
209.438322 84.559 158.2408
210.955998 84.554 158.1080
212.484672 84.549 157.9675
214.024424 84.544 157.8195
215.575333 84.539 157.6647
217.137481 84.534 157.5040
218.710948 84.529 157.3383
220.295818 84.524 157.1681
221.892172 84.520 156.9945
223.500094 84.517 156.8186
225.119668 84.513 156.6419
226.750978 84.511 156.4661
228.394109 84.508 156.2930
230.049147 84.507 156.1237
231.716178 84.505 155.9590
233.395289 84.503 155.7990
235.086567 84.501 155.6432
236.790102 84.499 155.4911
238.505980 84.497 155.3422
240.234293 84.495 155.1960
241.975130 84.494 155.0524
243.728581 84.493 154.9112
245.494739 84.492 154.7724
247.273695 84.493 154.6360
249.065542 84.494 154.5021
250.870374 84.495 154.3704
252.688284 84.497 154.2407
254.519367 84.498 154.1125
256.363720 84.499 153.9853
258.221437 84.500 153.8583
260.092616 84.501 153.7314
261.977354 84.500 153.6042
263.875750 84.500 153.4771
265.787903 84.499 153.3504
267.713911 84.498 153.2248
269.653877 84.497 153.1005
271.607900 84.496 152.9774
273.576083 84.496 152.8555
275.558528 84.496 152.7344
277.555338 84.496 152.6137
279.566619 84.497 152.4934
281.592474 84.498 152.3734
283.633009 84.500 152.2537
285.688331 84.501 152.1348
287.758546 84.503 152.0173
289.843763 84.505 151.9017
291.944090 84.507 151.7891
294.059638 84.509 151.6800
296.190515 84.511 151.5753
298.336833 84.513 151.4752
300.498705 84.516 151.3798
302.676243 84.520 151.2888
304.869559 84.523 151.2019
307.078770 84.528 151.1191
309.303989 84.533 151.0400
311.545334 84.539 150.9644
313.802919 84.546 150.8912
316.076865 84.553 150.8194
318.367288 84.560 150.7473
320.674309 84.568 150.6734
322.998047 84.575 150.5965
325.338624 84.583 150.5159
327.696162 84.590 150.4320
330.070783 84.597 150.3457
332.462612 84.604 150.2582
334.871773 84.610 150.1706
337.298392 84.615 150.0836
339.742595 84.619 149.9972
342.204510 84.623 149.9113
344.684265 84.625 149.8256
347.181989 84.625 149.7397
349.697813 84.625 149.6534
352.231868 84.624 149.5668
354.784285 84.621 149.4802
357.355198 84.617 149.3938
359.944741 84.613 149.3083
362.553049 84.607 149.2238
365.180258 84.601 149.1404
367.826505 84.593 149.0574
370.491927 84.584 148.9742
373.176665 84.574 148.8900
375.880856 84.564 148.8042
378.604644 84.554 148.7164
381.348169 84.543 148.6260
384.111575 84.533 148.5330
386.895006 84.523 148.4372
389.698607 84.513 148.3386
392.522524 84.504 148.2369
395.366904 84.495 148.1316
398.231895 84.487 148.0218
401.117648 84.478 147.9066
404.024312 84.468 147.7852
406.952038 84.457 147.6573
409.900981 84.443 147.5235
412.871292 84.428 147.3850
415.863128 84.409 147.2441
418.876643 84.388 147.1042
421.911996 84.363 146.9696
424.969344 84.334 146.8453
428.048847 84.302 146.7365
431.150666 84.267 146.6478
434.274961 84.231 146.5816
437.421897 84.193 146.5379
440.591636 84.156 146.5137
443.784345 84.119 146.5034
447.000189 84.084 146.5008
450.239337 84.049 146.4999
453.501956 84.016 146.4961
456.788219 83.984 146.4867
460.098294 83.952 146.4708
463.432356 83.921 146.4484
466.790578 83.891 146.4207
470.173135 83.861 146.3891
473.580203 83.832 146.3550
477.011961 83.803 146.3199
480.468586 83.775 146.2845
483.950259 83.749 146.2495
487.457163 83.723 146.2152
490.989478 83.697 146.1819
494.547390 83.673 146.1500
498.131084 83.650 146.1198
501.740748 83.627 146.0917
505.376568 83.606 146.0653
509.038735 83.586 146.0400
512.727439 83.568 146.0146
516.442874 83.551 145.9883
520.185232 83.536 145.9603
523.954708 83.523 145.9303
527.751500 83.513 145.8981
531.575805 83.506 145.8640
535.427822 83.501 145.8276
539.307753 83.500 145.7888
543.215800 83.501 145.7474
547.152165 83.506 145.7035
551.117055 83.513 145.6569
555.110677 83.524 145.6077
559.133237 83.537 145.5562
563.184947 83.553 145.5027
567.266018 83.570 145.4478
571.376661 83.589 145.3922
575.517092 83.609 145.3369
579.687526 83.630 145.2826
583.888181 83.651 145.2298
588.119275 83.673 145.1789
592.381030 83.695 145.1300
596.673667 83.716 145.0828
600.997410 83.738 145.0365
605.352485 83.759 144.9903
609.739119 83.780 144.9430
614.157540 83.800 144.8933
618.607979 83.819 144.8397
623.090667 83.838 144.7810
627.605839 83.857 144.7160
632.153730 83.874 144.6441
636.734576 83.891 144.5647
641.348617 83.907 144.4772
645.996094 83.922 144.3813
650.677248 83.936 144.2763
655.392323 83.948 144.1623
660.141566 83.959 144.0393
664.925224 83.969 143.9080
669.743546 83.976 143.7698
674.596784 83.981 143.6268
679.485191 83.984 143.4819
684.409020 83.985 143.3379
689.368530 83.983 143.1976
694.363979 83.980 143.0629
699.395626 83.976 142.9339
704.463736 83.971 142.8094
709.568570 83.966 142.6868
714.710396 83.960 142.5628
719.889483 83.955 142.4346
725.106099 83.949 142.3001
730.360516 83.941 142.1581
735.653010 83.933 142.0082
740.983855 83.923 141.8507
746.353329 83.911 141.6864
751.761713 83.898 141.5164
757.209288 83.882 141.3417
762.696339 83.864 141.1640
768.223151 83.844 140.9848
773.790013 83.822 140.8055
779.397214 83.798 140.6276
785.045047 83.772 140.4522
790.733808 83.744 140.2802
796.463791 83.716 140.1117
802.235296 83.688 139.9464
808.048623 83.659 139.7836
813.904077 83.630 139.6222
819.801961 83.602 139.4610
825.742584 83.576 139.2985
831.726255 83.550 139.1331
837.753287 83.526 138.9631
843.823992 83.503 138.7869
849.938689 83.482 138.6029
856.097695 83.462 138.4104
862.301332 83.443 138.2090
868.549922 83.424 137.9989
874.843793 83.405 137.7809
881.183272 83.387 137.5564
887.568689 83.368 137.3271
894.000378 83.349 137.0952
900.478673 83.330 136.8625
907.003913 83.310 136.6307
913.576437 83.291 136.4009
920.196588 83.272 136.1740
926.864712 83.253 135.9501
933.581156 83.235 135.7295
940.346270 83.218 135.5121
947.160407 83.203 135.2981
954.023921 83.189 135.0869
960.937172 83.177 134.8782
967.900519 83.168 134.6710
974.914325 83.161 134.4637
981.978956 83.157 134.2544
989.094780 83.156 134.0409
996.262169 83.158 133.8211
1003.481495 83.162 133.5935
1010.753136 83.167 133.3572
1018.077470 83.174 133.1121
1025.454879 83.181 132.8591
1032.885748 83.189 132.5993
1040.370463 83.197 132.3345
1047.909417 83.205 132.0662
1055.503000 83.212 131.7963
1063.151610 83.219 131.5265
1070.855645 83.224 131.2589
1078.615506 83.229 130.9952
1086.431599 83.232 130.7376
1094.304330 83.234 130.4878
1102.234110 83.235 130.2470
1110.221353 83.235 130.0162
1118.266475 83.234 129.7961
1126.369895 83.232 129.5869
1134.532035 83.229 129.3889
1142.753322 83.225 129.2021
1151.034184 83.220 129.0265
1159.375052 83.215 128.8621
1167.776361 83.209 128.7087
1176.238550 83.202 128.5661
1184.762060 83.195 128.4337
1193.347334 83.188 128.3107
1201.994821 83.180 128.1961
1210.704971 83.173 128.0892
1219.478238 83.165 127.9896
1228.315080 83.158 127.8976
1237.215957 83.150 127.8140
1246.181334 83.142 127.7397
1255.211678 83.134 127.6756
1264.307459 83.127 127.6227
1273.469152 83.120 127.5818
1282.697235 83.113 127.5536
1291.992188 83.108 127.5384
1301.354495 83.103 127.5355
1310.784647 83.100 127.5438
1320.283132 83.097 127.5616
1329.850448 83.097 127.5872
1339.487093 83.097 127.6193
1349.193569 83.099 127.6565
1358.970381 83.102 127.6976
1368.818041 83.107 127.7411
1378.737061 83.113 127.7856
1388.727958 83.121 127.8293
1398.791253 83.129 127.8711
1408.927471 83.139 127.9100
1419.137140 83.150 127.9466
1429.420793 83.162 127.9829
1439.778965 83.174 128.0218
1450.212197 83.186 128.0663
1460.721033 83.200 128.1191
1471.306019 83.214 128.1823
1481.967709 83.229 128.2572
1492.706658 83.246 128.3444
1503.523426 83.263 128.4436
1514.418576 83.282 128.5536
1525.392678 83.302 128.6730
1536.446302 83.321 128.8000
1547.580025 83.341 128.9330
1558.794428 83.360 129.0714
1570.090095 83.377 129.2150
1581.467615 83.391 129.3654
1592.927581 83.402 129.5248
1604.470591 83.410 129.6967
1616.097246 83.414 129.8853
1627.808153 83.415 130.0950
1639.603922 83.413 130.3293
1651.485168 83.408 130.5903
1663.452510 83.403 130.8780
1675.506573 83.398 131.1901
1687.647984 83.394 131.5224
1699.877377 83.391 131.8694
1712.195390 83.390 132.2247
1724.602663 83.392 132.5814
1737.099845 83.396 132.9331
1749.687587 83.402 133.2744
1762.366544 83.409 133.6017
1775.137379 83.416 133.9134
1788.000756 83.424 134.2100
1800.957346 83.431 134.4938
1814.007826 83.437 134.7683
1827.152874 83.441 135.0375
1840.393177 83.444 135.3050
1853.729425 83.445 135.5734
1867.162312 83.446 135.8436
1880.692540 83.446 136.1146
1894.320813 83.446 136.3838
1908.047843 83.446 136.6476
1921.874344 83.446 136.9023
1935.801038 83.445 137.1448
1949.828650 83.442 137.3730
1963.957912 83.439 137.5860
1978.189561 83.434 137.7833
1992.524338 83.427 137.9652
2006.962991 83.418 138.1321
2021.506272 83.406 138.2849
2036.154940 83.392 138.4246
2050.909758 83.376 138.5522
2065.771495 83.359 138.6687
2080.740927 83.339 138.7746
2095.818833 83.318 138.8701
2111.006001 83.297 138.9549
2126.303220 83.274 139.0289
2141.711290 83.251 139.0916
2157.231013 83.227 139.1431
2172.863198 83.202 139.1838
2188.608660 83.178 139.2141
2204.468221 83.153 139.2347
2220.442706 83.129 139.2465
2236.532950 83.104 139.2500
2252.739789 83.080 139.2452
2269.064070 83.056 139.2321
2285.506644 83.033 139.2101
2302.068367 83.011 139.1783
2318.750104 82.991 139.1359
2335.552723 82.971 139.0815
2352.477101 82.952 139.0139
2369.524119 82.935 138.9312
2386.694668 82.918 138.8317
2403.989641 82.903 138.7136
2421.409941 82.888 138.5753
2438.956476 82.873 138.4161
2456.630160 82.857 138.2359
2474.431915 82.841 138.0363
2492.362668 82.822 137.8205
2510.423356 82.801 137.5937
2528.614918 82.776 137.3625
2546.938304 82.749 137.1339
2565.394469 82.718 136.9152
2583.984375 82.685 136.7127
2602.708991 82.649 136.5318
2621.569293 82.612 136.3763
2640.566265 82.573 136.2490
2659.700897 82.534 136.1513
2678.974186 82.495 136.0838
2698.387137 82.457 136.0462
2717.940763 82.419 136.0380
2737.636082 82.382 136.0583
2757.474121 82.346 136.1069
2777.455915 82.310 136.1841
2797.582506 82.275 136.2911
2817.854942 82.240 136.4302
2838.274281 82.205 136.6041
2858.841586 82.170 136.8162
2879.557931 82.134 137.0702
2900.424394 82.099 137.3701
2921.442065 82.063 137.7201
2942.612039 82.028 138.1245
2963.935418 81.993 138.5872
2985.413316 81.960 139.1115
3007.046852 81.928 139.6989
3028.837153 81.900 140.3492
3050.785356 81.875 141.0593
3072.892604 81.856 141.8236
3095.160050 81.841 142.6343
3117.588856 81.832 143.4818
3140.180190 81.829 144.3554
3162.935230 81.832 145.2440
3185.855163 81.840 146.1362
3208.941182 81.853 147.0211
3232.194493 81.870 147.8882
3255.616307 81.890 148.7285
3279.207844 81.912 149.5345
3302.970336 81.936 150.3010
3326.905021 81.959 151.0251
3351.013146 81.982 151.7067
3375.295969 82.003 152.3478
3399.754755 82.023 152.9515
3424.390779 82.041 153.5212
3449.205326 82.058 154.0584
3474.199690 82.076 154.5615
3499.375173 82.095 155.0254
3524.733088 82.115 155.4415
3550.274757 82.138 155.7993
