* Measurement data measured by REW V5.31.3
* Source: EXCL: Headset (USB-C to 3.5mm Headphone Jack Adapter), MICROPHONE (Master Volume), 0, volume: 0.750
* Format: 256k Log Swept Sine, 1 sweep at -12.0 dBFS with no timing reference
* Dated: Apr 7, 2025 4:49:33 PM
* REW Settings:
*  C-weighting compensation: Off
*  Target level: 75.0 dB
* Note: ; 
* Measurement: Satyr 3 (Forward) R6
* Smoothing: 1/6 octave
* Frequency Step: 96 ppo
* Start Frequency: 20.0 Hz
*
* Freq(Hz) SPL(dB) Phase(degrees)
20.187378 80.518 -95.7914
20.333664 80.540 -95.7804
20.481010 80.572 -95.7703
20.629424 80.612 -95.7678
20.778913 80.663 -95.7816
20.929486 80.726 -95.8214
21.081150 80.799 -95.8982
21.233912 80.883 -96.0222
21.387782 80.978 -96.2027
21.542767 81.083 -96.4469
21.698874 81.196 -96.7590
21.856113 81.315 -97.1401
22.014492 81.439 -97.5880
22.174018 81.566 -98.0972
22.334700 81.693 -98.6596
22.496546 81.819 -99.2652
22.659566 81.941 -99.9025
22.823766 82.059 -100.5598
22.989157 82.170 -101.2255
23.155745 82.274 -101.8888
23.323542 82.369 -102.5407
23.492554 82.454 -103.1737
23.662790 82.530 -103.7826
23.834261 82.596 -104.3644
24.006973 82.653 -104.9184
24.180938 82.700 -105.4459
24.356163 82.739 -105.9498
24.532658 82.770 -106.4345
24.710431 82.794 -106.9054
24.889493 82.813 -107.3680
25.069853 82.828 -107.8275
25.251519 82.840 -108.2883
25.434502 82.850 -108.7534
25.618811 82.859 -109.2240
25.804456 82.869 -109.6995
25.991445 82.880 -110.1775
26.179790 82.893 -110.6542
26.369500 82.910 -111.1248
26.560584 82.931 -111.5845
26.753053 82.957 -112.0285
26.946917 82.988 -112.4536
27.142185 83.024 -112.8579
27.338869 83.064 -113.2412
27.536977 83.109 -113.6054
27.736522 83.158 -113.9538
27.937512 83.208 -114.2907
28.139959 83.260 -114.6211
28.343872 83.311 -114.9502
28.549264 83.361 -115.2828
28.756143 83.408 -115.6235
28.964522 83.452 -115.9762
29.174411 83.493 -116.3441
29.385821 83.530 -116.7300
29.598763 83.565 -117.1359
29.813248 83.597 -117.5632
30.029287 83.627 -118.0121
30.246891 83.656 -118.4817
30.466073 83.686 -118.9693
30.686842 83.716 -119.4708
30.909212 83.748 -119.9805
31.133193 83.782 -120.4918
31.358797 83.820 -120.9978
31.586035 83.862 -121.4917
31.814921 83.909 -121.9684
32.045465 83.960 -122.4243
32.277680 84.018 -122.8583
32.511577 84.080 -123.2709
32.747169 84.148 -123.6644
32.984469 84.220 -124.0418
33.223488 84.297 -124.4061
33.464239 84.377 -124.7602
33.706735 84.460 -125.1062
33.950987 84.546 -125.4460
34.197010 84.635 -125.7816
34.444816 84.727 -126.1154
34.694417 84.821 -126.4503
34.945827 84.918 -126.7893
35.199059 85.017 -127.1353
35.454126 85.116 -127.4897
35.711041 85.215 -127.8520
35.969818 85.312 -128.2193
36.230470 85.406 -128.5871
36.493011 85.497 -128.9493
36.757455 85.583 -129.3006
37.023814 85.667 -129.6374
37.292104 85.747 -129.9588
37.562338 85.826 -130.2672
37.834530 85.903 -130.5678
38.108695 85.979 -130.8674
38.384846 86.053 -131.1729
38.662999 86.126 -131.4899
38.943167 86.198 -131.8214
39.225365 86.266 -132.1681
39.509608 86.332 -132.5285
39.795911 86.395 -132.8994
40.084289 86.456 -133.2772
40.374756 86.514 -133.6586
40.667328 86.571 -134.0409
40.962020 86.627 -134.4220
41.258848 86.681 -134.8010
41.557827 86.735 -135.1772
41.858972 86.788 -135.5507
42.162299 86.840 -135.9215
42.467824 86.891 -136.2897
42.775564 86.939 -136.6554
43.085533 86.985 -137.0183
43.397749 87.027 -137.3779
43.712227 87.066 -137.7338
44.028983 87.101 -138.0862
44.348036 87.133 -138.4364
44.669400 87.164 -138.7867
44.993093 87.193 -139.1411
45.319131 87.223 -139.5041
45.647532 87.254 -139.8803
45.978313 87.286 -140.2737
46.311491 87.320 -140.6868
46.647083 87.355 -141.1209
46.985107 87.392 -141.5760
47.325581 87.429 -142.0517
47.668521 87.465 -142.5469
48.013947 87.500 -143.0605
48.361876 87.532 -143.5903
48.712326 87.561 -144.1328
49.065315 87.585 -144.6831
49.420863 87.605 -145.2345
49.778987 87.619 -145.7803
50.139706 87.629 -146.3139
50.503039 87.636 -146.8310
50.869005 87.639 -147.3294
51.237623 87.641 -147.8099
51.608912 87.642 -148.2751
51.982891 87.643 -148.7296
52.359580 87.645 -149.1783
52.739000 87.647 -149.6259
53.121168 87.651 -150.0762
53.506106 87.655 -150.5311
53.893833 87.661 -150.9907
54.284370 87.666 -151.4534
54.677737 87.672 -151.9169
55.073955 87.677 -152.3790
55.473043 87.682 -152.8386
55.875024 87.686 -153.2961
56.279917 87.688 -153.7527
56.687745 87.689 -154.2104
57.098527 87.688 -154.6709
57.512287 87.686 -155.1345
57.929045 87.683 -155.5997
58.348822 87.680 -156.0622
58.771642 87.677 -156.5154
59.197525 87.676 -156.9510
59.626495 87.679 -157.3617
60.058573 87.686 -157.7429
60.493782 87.698 -158.0940
60.932145 87.716 -158.4189
61.373685 87.739 -158.7244
61.818424 87.766 -159.0182
62.266386 87.795 -159.3074
62.717593 87.826 -159.5978
63.172071 87.857 -159.8933
63.629842 87.887 -160.1968
64.090930 87.917 -160.5105
64.555359 87.945 -160.8356
65.023154 87.973 -161.1731
65.494339 88.000 -161.5231
65.968938 88.026 -161.8848
66.446976 88.051 -162.2569
66.928478 88.077 -162.6374
67.413469 88.101 -163.0240
67.901975 88.125 -163.4144
68.394021 88.148 -163.8068
68.889632 88.168 -164.1994
69.388835 88.187 -164.5910
69.891655 88.203 -164.9808
70.398118 88.216 -165.3677
70.908252 88.226 -165.7511
71.422083 88.233 -166.1301
71.939636 88.238 -166.5039
72.460941 88.240 -166.8717
72.986023 88.239 -167.2324
73.514909 88.236 -167.5843
74.047629 88.232 -167.9257
74.584208 88.225 -168.2551
75.124676 88.216 -168.5715
75.669061 88.205 -168.8755
76.217390 88.192 -169.1691
76.769692 88.176 -169.4550
77.325997 88.157 -169.7366
77.886333 88.136 -170.0170
78.450730 88.113 -170.2987
79.019216 88.089 -170.5829
79.591822 88.063 -170.8701
80.168577 88.037 -171.1600
80.749512 88.009 -171.4517
81.334656 87.982 -171.7441
81.924040 87.954 -172.0360
82.517696 87.925 -172.3262
83.115653 87.897 -172.6134
83.717943 87.869 -172.8970
84.324598 87.840 -173.1767
84.935649 87.812 -173.4527
85.551128 87.783 -173.7254
86.171066 87.755 -173.9956
86.795497 87.726 -174.2637
87.424453 87.697 -174.5298
88.057967 87.669 -174.7940
88.696071 87.640 -175.0557
89.338800 87.612 -175.3149
89.986185 87.584 -175.5711
90.638262 87.555 -175.8241
91.295065 87.527 -176.0739
91.956626 87.498 -176.3204
92.622982 87.469 -176.5637
93.294166 87.440 -176.8039
93.970214 87.410 -177.0411
94.651161 87.379 -177.2753
95.337042 87.348 -177.5061
96.027894 87.317 -177.7333
96.723752 87.286 -177.9564
97.424652 87.255 -178.1752
98.130631 87.224 -178.3898
98.841726 87.193 -178.6005
99.557974 87.162 -178.8080
100.279412 87.132 -179.0131
101.006078 87.102 -179.2167
101.738010 87.072 -179.4192
102.475245 87.044 -179.6208
103.217823 87.016 -179.8210
103.965782 86.988 179.9807
104.719161 86.962 179.7849
105.477999 86.936 179.5918
106.242336 86.912 179.4014
107.012212 86.889 179.2128
107.787666 86.867 179.0253
108.568740 86.847 178.8381
109.355474 86.829 178.6511
110.147909 86.812 178.4644
110.946086 86.796 178.2784
111.750047 86.781 178.0936
112.559834 86.767 177.9102
113.375489 86.753 177.7281
114.197055 86.740 177.5475
115.024574 86.727 177.3687
115.858089 86.714 177.1927
116.697645 86.701 177.0208
117.543284 86.688 176.8545
118.395051 86.675 176.6947
119.252990 86.662 176.5421
120.117147 86.650 176.3969
120.987565 86.637 176.2588
121.864291 86.623 176.1274
122.747370 86.610 176.0017
123.636848 86.595 175.8809
124.532771 86.580 175.7644
125.435187 86.563 175.6520
126.344142 86.545 175.5439
127.259684 86.525 175.4401
128.181860 86.504 175.3405
129.110718 86.481 175.2448
130.046308 86.456 175.1524
130.988677 86.430 175.0624
131.937875 86.402 174.9742
132.893951 86.373 174.8869
133.856956 86.343 174.8006
134.826938 86.312 174.7153
135.803950 86.279 174.6313
136.788041 86.245 174.5492
137.779264 86.210 174.4692
138.777669 86.173 174.3917
139.783309 86.135 174.3174
140.796237 86.095 174.2470
141.816504 86.053 174.1812
142.844165 86.010 174.1211
143.879273 85.966 174.0673
144.921881 85.920 174.0207
145.972045 85.873 173.9824
147.029819 85.826 173.9537
148.095257 85.777 173.9357
149.168417 85.729 173.9294
150.249353 85.680 173.9357
151.338121 85.631 173.9552
152.434780 85.583 173.9882
153.539385 85.535 174.0354
154.651995 85.487 174.0971
155.772667 85.439 174.1737
156.901460 85.393 174.2654
158.038432 85.347 174.3717
159.183644 85.303 174.4924
160.337154 85.261 174.6266
161.499023 85.220 174.7736
162.669312 85.182 174.9326
163.848081 85.146 175.1027
165.035392 85.112 175.2828
166.231306 85.082 175.4714
167.435887 85.053 175.6672
168.649196 85.028 175.8687
169.871298 85.006 176.0742
171.102255 84.987 176.2817
172.342133 84.970 176.4895
173.590995 84.956 176.6953
174.848907 84.944 176.8975
176.115934 84.935 177.0944
177.392143 84.928 177.2848
178.677599 84.922 177.4678
179.972371 84.919 177.6426
181.276525 84.917 177.8086
182.590129 84.917 177.9645
183.913252 84.918 178.1093
185.245964 84.921 178.2415
186.588332 84.925 178.3601
187.940428 84.930 178.4648
189.302322 84.936 178.5552
190.674085 84.943 178.6318
192.055788 84.950 178.6949
193.447503 84.958 178.7448
194.849303 84.966 178.7820
196.261262 84.974 178.8065
197.683452 84.981 178.8181
199.115948 84.988 178.8171
200.558824 84.994 178.8037
202.012156 85.000 178.7784
203.476019 85.004 178.7423
204.950490 85.007 178.6965
206.435646 85.010 178.6427
207.931564 85.011 178.5829
209.438322 85.012 178.5196
210.955998 85.012 178.4547
212.484672 85.010 178.3901
214.024424 85.008 178.3266
215.575333 85.005 178.2641
217.137481 85.001 178.2020
218.710948 84.997 178.1389
220.295818 84.992 178.0735
221.892172 84.987 178.0047
223.500094 84.981 177.9317
225.119668 84.976 177.8550
226.750978 84.971 177.7758
228.394109 84.967 177.6959
230.049147 84.963 177.6169
231.716178 84.959 177.5402
233.395289 84.956 177.4661
235.086567 84.954 177.3950
236.790102 84.952 177.3264
238.505980 84.952 177.2598
240.234293 84.952 177.1948
241.975130 84.952 177.1312
243.728581 84.953 177.0696
245.494739 84.955 177.0110
247.273695 84.956 176.9568
249.065542 84.958 176.9084
250.870374 84.960 176.8662
252.688284 84.963 176.8302
254.519367 84.965 176.7997
256.363720 84.968 176.7735
258.221437 84.970 176.7501
260.092616 84.973 176.7282
261.977354 84.977 176.7064
263.875750 84.980 176.6834
265.787903 84.984 176.6584
267.713911 84.987 176.6313
269.653877 84.991 176.6022
271.607900 84.994 176.5720
273.576083 84.998 176.5416
275.558528 85.001 176.5120
277.555338 85.004 176.4833
279.566619 85.007 176.4556
281.592474 85.010 176.4287
283.633009 85.013 176.4023
285.688331 85.015 176.3766
287.758546 85.018 176.3517
289.843763 85.020 176.3284
291.944090 85.023 176.3073
294.059638 85.025 176.2893
296.190515 85.028 176.2748
298.336833 85.031 176.2642
300.498705 85.035 176.2576
302.676243 85.039 176.2548
304.869559 85.044 176.2551
307.078770 85.049 176.2582
309.303989 85.055 176.2635
311.545334 85.062 176.2705
313.802919 85.069 176.2787
316.076865 85.076 176.2878
318.367288 85.084 176.2974
320.674309 85.092 176.3068
322.998047 85.099 176.3157
325.338624 85.106 176.3238
327.696162 85.113 176.3309
330.070783 85.119 176.3375
332.462612 85.124 176.3437
334.871773 85.129 176.3502
337.298392 85.133 176.3572
339.742595 85.137 176.3652
342.204510 85.140 176.3742
344.684265 85.143 176.3843
347.181989 85.144 176.3952
349.697813 85.145 176.4064
352.231868 85.143 176.4174
354.784285 85.141 176.4279
357.355198 85.136 176.4373
359.944741 85.131 176.4454
362.553049 85.124 176.4522
365.180258 85.115 176.4576
367.826505 85.107 176.4621
370.491927 85.097 176.4661
373.176665 85.088 176.4705
375.880856 85.079 176.4761
378.604644 85.070 176.4832
381.348169 85.061 176.4917
384.111575 85.052 176.5011
386.895006 85.043 176.5104
389.698607 85.035 176.5184
392.522524 85.026 176.5239
395.366904 85.017 176.5261
398.231895 85.007 176.5240
401.117648 84.996 176.5174
404.024312 84.984 176.5062
406.952038 84.970 176.4910
409.900981 84.954 176.4726
412.871292 84.935 176.4525
415.863128 84.914 176.4327
418.876643 84.889 176.4159
421.911996 84.860 176.4058
424.969344 84.829 176.4067
428.048847 84.794 176.4228
431.150666 84.757 176.4583
434.274961 84.719 176.5155
437.421897 84.681 176.5945
440.591636 84.644 176.6929
443.784345 84.608 176.8053
447.000189 84.574 176.9254
450.239337 84.542 177.0472
453.501956 84.512 177.1657
456.788219 84.483 177.2775
460.098294 84.455 177.3807
463.432356 84.427 177.4747
466.790578 84.399 177.5594
470.173135 84.371 177.6356
473.580203 84.344 177.7043
477.011961 84.316 177.7674
480.468586 84.289 177.8267
483.950259 84.263 177.8845
487.457163 84.237 177.9429
490.989478 84.212 178.0035
494.547390 84.189 178.0673
498.131084 84.167 178.1344
501.740748 84.147 178.2047
505.376568 84.129 178.2776
509.038735 84.112 178.3527
512.727439 84.098 178.4292
516.442874 84.086 178.5064
520.185232 84.076 178.5837
523.954708 84.069 178.6605
527.751500 84.064 178.7362
531.575805 84.061 178.8105
535.427822 84.061 178.8827
539.307753 84.062 178.9524
543.215800 84.066 179.0191
547.152165 84.073 179.0825
551.117055 84.081 179.1424
555.110677 84.091 179.1988
559.133237 84.103 179.2520
563.184947 84.117 179.3023
567.266018 84.132 179.3506
571.376661 84.148 179.3981
575.517092 84.166 179.4460
579.687526 84.184 179.4955
583.888181 84.203 179.5474
588.119275 84.222 179.6017
592.381030 84.241 179.6584
596.673667 84.259 179.7166
600.997410 84.278 179.7750
605.352485 84.296 179.8324
609.739119 84.313 179.8874
614.157540 84.330 179.9386
618.607979 84.347 179.9849
623.090667 84.363 -179.9746
627.605839 84.378 -179.9402
632.153730 84.392 -179.9121
636.734576 84.406 -179.8901
641.348617 84.419 -179.8745
645.996094 84.431 -179.8658
650.677248 84.442 -179.8644
655.392323 84.451 -179.8707
660.141566 84.459 -179.8846
664.925224 84.465 -179.9055
669.743546 84.469 -179.9319
674.596784 84.470 -179.9617
679.485191 84.469 -179.9920
684.409020 84.465 179.9802
689.368530 84.459 179.9577
694.363979 84.452 179.9421
699.395626 84.444 179.9338
704.463736 84.436 179.9311
709.568570 84.427 179.9315
714.710396 84.418 179.9319
719.889483 84.409 179.9299
725.106099 84.400 179.9235
730.360516 84.390 179.9116
735.653010 84.379 179.8936
740.983855 84.366 179.8695
746.353329 84.351 179.8394
751.761713 84.335 179.8037
757.209288 84.317 179.7630
762.696339 84.297 179.7183
768.223151 84.275 179.6710
773.790013 84.252 179.6224
779.397214 84.226 179.5741
785.045047 84.199 179.5271
790.733808 84.171 179.4820
796.463791 84.143 179.4388
802.235296 84.113 179.3970
808.048623 84.084 179.3556
813.904077 84.055 179.3130
819.801961 84.027 179.2681
825.742584 84.000 179.2192
831.726255 83.974 179.1651
837.753287 83.949 179.1045
843.823992 83.925 179.0363
849.938689 83.902 178.9595
856.097695 83.880 178.8738
862.301332 83.858 178.7791
868.549922 83.836 178.6758
874.843793 83.813 178.5651
881.183272 83.791 178.4482
887.568689 83.767 178.3273
894.000378 83.744 178.2040
900.478673 83.719 178.0805
907.003913 83.695 177.9582
913.576437 83.670 177.8384
920.196588 83.646 177.7222
926.864712 83.622 177.6102
933.581156 83.599 177.5030
940.346270 83.578 177.4009
947.160407 83.557 177.3040
954.023921 83.538 177.2121
960.937172 83.521 177.1249
967.900519 83.506 177.0416
974.914325 83.493 176.9607
981.978956 83.484 176.8804
989.094780 83.477 176.7982
996.262169 83.472 176.7116
1003.481495 83.470 176.6186
1010.753136 83.471 176.5175
1018.077470 83.473 176.4078
1025.454879 83.476 176.2897
1032.885748 83.480 176.1642
1040.370463 83.484 176.0328
1047.909417 83.489 175.8969
1055.503000 83.493 175.7585
1063.151610 83.497 175.6195
1070.855645 83.499 175.4818
1078.615506 83.501 175.3471
1086.431599 83.502 175.2173
1094.304330 83.501 175.0940
1102.234110 83.499 174.9786
1110.221353 83.495 174.8722
1118.266475 83.491 174.7756
1126.369895 83.485 174.6893
1134.532035 83.478 174.6140
1142.753322 83.470 174.5500
1151.034184 83.462 174.4973
1159.375052 83.453 174.4554
1167.776361 83.443 174.4241
1176.238550 83.433 174.4025
1184.762060 83.422 174.3897
1193.347334 83.411 174.3850
1201.994821 83.400 174.3877
1210.704971 83.389 174.3974
1219.478238 83.377 174.4143
1228.315080 83.365 174.4391
1237.215957 83.353 174.4727
1246.181334 83.341 174.5162
1255.211678 83.328 174.5705
1264.307459 83.316 174.6364
1273.469152 83.303 174.7144
1282.697235 83.291 174.8054
1291.992188 83.279 174.9100
1301.354495 83.268 175.0286
1310.784647 83.258 175.1609
1320.283132 83.249 175.3062
1329.850448 83.242 175.4637
1339.487093 83.236 175.6324
1349.193569 83.232 175.8111
1358.970381 83.230 175.9987
1368.818041 83.230 176.1935
1378.737061 83.232 176.3936
1388.727958 83.237 176.5966
1398.791253 83.244 176.8000
1408.927471 83.253 177.0014
1419.137140 83.265 177.1990
1429.420793 83.279 177.3925
1439.778965 83.294 177.5826
1450.212197 83.311 177.7706
1460.721033 83.329 177.9581
1471.306019 83.349 178.1466
1481.967709 83.370 178.3375
1492.706658 83.391 178.5323
1503.523426 83.414 178.7321
1514.418576 83.438 178.9374
1525.392678 83.462 179.1481
1536.446302 83.486 179.3637
1547.580025 83.510 179.5835
1558.794428 83.532 179.8073
1570.090095 83.553 -179.9652
1581.467615 83.571 -179.7328
1592.927581 83.587 -179.4941
1604.470591 83.599 -179.2463
1616.097246 83.607 -178.9862
1627.808153 83.611 -178.7100
1639.603922 83.613 -178.4141
1651.485168 83.611 -178.0959
1663.452510 83.608 -177.7545
1675.506573 83.605 -177.3904
1687.647984 83.601 -177.0061
1699.877377 83.599 -176.6055
1712.195390 83.598 -176.1938
1724.602663 83.600 -175.7768
1737.099845 83.605 -175.3609
1749.687587 83.611 -174.9522
1762.366544 83.620 -174.5558
1775.137379 83.631 -174.1754
1788.000756 83.642 -173.8129
1800.957346 83.654 -173.4679
1814.007826 83.665 -173.1387
1827.152874 83.675 -172.8222
1840.393177 83.684 -172.5153
1853.729425 83.692 -172.2154
1867.162312 83.699 -171.9211
1880.692540 83.705 -171.6327
1894.320813 83.711 -171.3521
1908.047843 83.715 -171.0818
1921.874344 83.719 -170.8251
1935.801038 83.721 -170.5845
1949.828650 83.722 -170.3613
1963.957912 83.720 -170.1562
1978.189561 83.717 -169.9687
1992.524338 83.710 -169.7980
2006.962991 83.701 -169.6432
2021.506272 83.690 -169.5035
2036.154940 83.676 -169.3783
2050.909758 83.660 -169.2667
2065.771495 83.641 -169.1682
2080.740927 83.621 -169.0818
2095.818833 83.599 -169.0070
2111.006001 83.576 -168.9435
2126.303220 83.552 -168.8914
2141.711290 83.527 -168.8513
2157.231013 83.502 -168.8240
2172.863198 83.477 -168.8098
2188.608660 83.452 -168.8089
2204.468221 83.426 -168.8209
2220.442706 83.400 -168.8452
2236.532950 83.374 -168.8811
2252.739789 83.349 -168.9284
2269.064070 83.323 -168.9872
2285.506644 83.298 -169.0580
2302.068367 83.273 -169.1417
2318.750104 83.248 -169.2392
2335.552723 83.224 -169.3515
2352.477101 83.200 -169.4792
2369.524119 83.177 -169.6229
2386.694668 83.154 -169.7829
2403.989641 83.131 -169.9598
2421.409941 83.108 -170.1540
2438.956476 83.085 -170.3663
2456.630160 83.061 -170.5964
2474.431915 83.036 -170.8434
2492.362668 83.010 -171.1049
2510.423356 82.982 -171.3766
2528.614918 82.950 -171.6530
2546.938304 82.917 -171.9277
2565.394469 82.880 -172.1938
2583.984375 82.841 -172.4450
2602.708991 82.800 -172.6762
2621.569293 82.757 -172.8837
2640.566265 82.715 -173.0655
2659.700897 82.672 -173.2211
2678.974186 82.630 -173.3507
2698.387137 82.588 -173.4552
2717.940763 82.548 -173.5356
2737.636082 82.508 -173.5927
2757.474121 82.470 -173.6266
2777.455915 82.431 -173.6367
2797.582506 82.393 -173.6215
2817.854942 82.355 -173.5788
2838.274281 82.317 -173.5052
2858.841586 82.279 -173.3972
2879.557931 82.240 -173.2504
2900.424394 82.201 -173.0605
2921.442065 82.163 -172.8233
2942.612039 82.125 -172.5350
2963.935418 82.087 -172.1924
2985.413316 82.051 -171.7932
3007.046852 82.018 -171.3365
3028.837153 81.987 -170.8230
3050.785356 81.961 -170.2555
3072.892604 81.939 -169.6391
3095.160050 81.922 -168.9812
3117.588856 81.911 -168.2912
3140.180190 81.906 -167.5799
3162.935230 81.907 -166.8589
3185.855163 81.913 -166.1398
3208.941182 81.924 -165.4340
3232.194493 81.939 -164.7515
3255.616307 81.958 -164.1014
3279.207844 81.978 -163.4908
3302.970336 82.000 -162.9247
3326.905021 82.021 -162.4061
3351.013146 82.042 -161.9356
3375.295969 82.062 -161.5118
3399.754755 82.079 -161.1319
