* Measurement data measured by REW V5.31.3
* Source: EXCL: Headset (USB-C to 3.5mm Headphone Jack Adapter), MICROPHONE (Master Volume), 0, volume: 0.750
* Format: 256k Log Swept Sine, 1 sweep at -12.0 dBFS with no timing reference
* Dated: Apr 7, 2025 4:35:38 PM
* REW Settings:
*  C-weighting compensation: Off
*  Target level: 75.0 dB
* Note: ; 
* Measurement: Satyr 3 (Centered) L6
* Smoothing: 1/6 octave
* Frequency Step: 96 ppo
* Start Frequency: 20.0 Hz
*
* Freq(Hz) SPL(dB) Phase(degrees)
20.187378 78.603 -94.1532
20.333664 78.635 -94.3051
20.481010 78.680 -94.5087
20.629424 78.736 -94.7583
20.778913 78.803 -95.0473
20.929486 78.881 -95.3690
21.081150 78.969 -95.7163
21.233912 79.064 -96.0820
21.387782 79.166 -96.4585
21.542767 79.272 -96.8377
21.698874 79.381 -97.2113
21.856113 79.491 -97.5710
22.014492 79.600 -97.9090
22.174018 79.708 -98.2185
22.334700 79.812 -98.4949
22.496546 79.914 -98.7363
22.659566 80.013 -98.9440
22.823766 80.110 -99.1231
22.989157 80.205 -99.2825
23.155745 80.298 -99.4344
23.323542 80.391 -99.5931
23.492554 80.482 -99.7740
23.662790 80.571 -99.9916
23.834261 80.659 -100.2583
24.006973 80.744 -100.5828
24.180938 80.825 -100.9692
24.356163 80.901 -101.4167
24.532658 80.972 -101.9198
24.710431 81.036 -102.4691
24.889493 81.094 -103.0524
25.069853 81.145 -103.6559
25.251519 81.190 -104.2659
25.434502 81.229 -104.8698
25.618811 81.262 -105.4573
25.804456 81.292 -106.0209
25.991445 81.318 -106.5564
26.179790 81.341 -107.0628
26.369500 81.362 -107.5418
26.560584 81.382 -107.9975
26.753053 81.400 -108.4352
26.946917 81.419 -108.8614
27.142185 81.437 -109.2824
27.338869 81.457 -109.7044
27.536977 81.477 -110.1324
27.736522 81.499 -110.5704
27.937512 81.524 -111.0210
28.139959 81.550 -111.4850
28.343872 81.580 -111.9614
28.549264 81.612 -112.4479
28.756143 81.647 -112.9404
28.964522 81.685 -113.4340
29.174411 81.724 -113.9234
29.385821 81.766 -114.4036
29.598763 81.809 -114.8706
29.813248 81.855 -115.3224
30.029287 81.903 -115.7592
30.246891 81.954 -116.1835
30.466073 82.008 -116.6001
30.686842 82.065 -117.0153
30.909212 82.125 -117.4359
31.133193 82.189 -117.8679
31.358797 82.256 -118.3159
31.586035 82.325 -118.7818
31.814921 82.398 -119.2647
32.045465 82.472 -119.7611
32.277680 82.548 -120.2654
32.511577 82.626 -120.7708
32.747169 82.707 -121.2708
32.984469 82.789 -121.7600
33.223488 82.874 -122.2348
33.464239 82.960 -122.6939
33.706735 83.049 -123.1381
33.950987 83.138 -123.5698
34.197010 83.229 -123.9921
34.444816 83.319 -124.4080
34.694417 83.410 -124.8199
34.945827 83.499 -125.2290
35.199059 83.588 -125.6357
35.454126 83.677 -126.0391
35.711041 83.766 -126.4384
35.969818 83.856 -126.8322
36.230470 83.947 -127.2197
36.493011 84.039 -127.6005
36.757455 84.132 -127.9743
37.023814 84.227 -128.3413
37.292104 84.322 -128.7022
37.562338 84.418 -129.0578
37.834530 84.513 -129.4096
38.108695 84.607 -129.7593
38.384846 84.699 -130.1094
38.662999 84.788 -130.4627
38.943167 84.874 -130.8219
39.225365 84.956 -131.1895
39.509608 85.033 -131.5673
39.795911 85.106 -131.9561
40.084289 85.174 -132.3563
40.374756 85.238 -132.7673
40.667328 85.298 -133.1889
40.962020 85.355 -133.6207
41.258848 85.410 -134.0626
41.557827 85.462 -134.5150
41.858972 85.514 -134.9778
42.162299 85.565 -135.4507
42.467824 85.616 -135.9323
42.775564 85.666 -136.4203
43.085533 85.716 -136.9115
43.397749 85.766 -137.4016
43.712227 85.815 -137.8864
44.028983 85.863 -138.3616
44.348036 85.910 -138.8238
44.669400 85.955 -139.2714
44.993093 86.000 -139.7044
45.319131 86.044 -140.1251
45.647532 86.086 -140.5375
45.978313 86.128 -140.9473
46.311491 86.168 -141.3602
46.647083 86.207 -141.7819
46.985107 86.243 -142.2165
47.325581 86.278 -142.6664
47.668521 86.310 -143.1322
48.013947 86.339 -143.6129
48.361876 86.367 -144.1067
48.712326 86.393 -144.6108
49.065315 86.417 -145.1223
49.420863 86.440 -145.6381
49.778987 86.463 -146.1552
50.139706 86.485 -146.6708
50.503039 86.506 -147.1830
50.869005 86.526 -147.6905
51.237623 86.545 -148.1938
51.608912 86.563 -148.6942
51.982891 86.579 -149.1940
52.359580 86.593 -149.6956
52.739000 86.604 -150.2009
53.121168 86.614 -150.7107
53.506106 86.621 -151.2247
53.893833 86.626 -151.7421
54.284370 86.631 -152.2619
54.677737 86.634 -152.7830
55.073955 86.639 -153.3045
55.473043 86.643 -153.8257
55.875024 86.650 -154.3457
56.279917 86.659 -154.8636
56.687745 86.671 -155.3781
57.098527 86.687 -155.8880
57.512287 86.705 -156.3919
57.929045 86.726 -156.8889
58.348822 86.748 -157.3788
58.771642 86.769 -157.8618
59.197525 86.790 -158.3382
59.626495 86.807 -158.8078
60.058573 86.820 -159.2699
60.493782 86.830 -159.7231
60.932145 86.837 -160.1665
61.373685 86.843 -160.6001
61.818424 86.848 -161.0253
62.266386 86.855 -161.4440
62.717593 86.864 -161.8585
63.172071 86.876 -162.2704
63.629842 86.890 -162.6812
64.090930 86.907 -163.0923
64.555359 86.927 -163.5051
65.023154 86.948 -163.9208
65.494339 86.970 -164.3405
65.968938 86.994 -164.7646
66.446976 87.018 -165.1929
66.928478 87.042 -165.6245
67.413469 87.066 -166.0580
67.901975 87.088 -166.4915
68.394021 87.108 -166.9229
68.889632 87.126 -167.3501
69.388835 87.143 -167.7711
69.891655 87.157 -168.1841
70.398118 87.169 -168.5879
70.908252 87.180 -168.9823
71.422083 87.189 -169.3680
71.939636 87.196 -169.7467
72.460941 87.201 -170.1205
72.986023 87.204 -170.4915
73.514909 87.205 -170.8612
74.047629 87.204 -171.2308
74.584208 87.200 -171.6006
75.124676 87.195 -171.9708
75.669061 87.187 -172.3414
76.217390 87.177 -172.7122
76.769692 87.165 -173.0829
77.325997 87.152 -173.4533
77.886333 87.136 -173.8230
78.450730 87.119 -174.1915
79.019216 87.101 -174.5585
79.591822 87.082 -174.9234
80.168577 87.062 -175.2862
80.749512 87.041 -175.6466
81.334656 87.020 -176.0048
81.924040 86.997 -176.3608
82.517696 86.975 -176.7148
83.115653 86.951 -177.0670
83.717943 86.927 -177.4173
84.324598 86.903 -177.7659
84.935649 86.879 -178.1125
85.551128 86.854 -178.4570
86.171066 86.829 -178.7989
86.795497 86.803 -179.1377
87.424453 86.778 -179.4730
88.057967 86.752 -179.8042
88.696071 86.726 179.8687
89.338800 86.701 179.5458
89.986185 86.675 179.2267
90.638262 86.649 178.9114
91.295065 86.623 178.5997
91.956626 86.598 178.2920
92.622982 86.571 177.9883
93.294166 86.545 177.6890
93.970214 86.518 177.3943
94.651161 86.492 177.1043
95.337042 86.465 176.8194
96.027894 86.439 176.5394
96.723752 86.412 176.2643
97.424652 86.386 175.9936
98.130631 86.360 175.7267
98.841726 86.334 175.4629
99.557974 86.308 175.2015
100.279412 86.283 174.9421
101.006078 86.259 174.6843
101.738010 86.235 174.4278
102.475245 86.213 174.1728
103.217823 86.191 173.9194
103.965782 86.170 173.6675
104.719161 86.150 173.4170
105.477999 86.130 173.1669
106.242336 86.111 172.9165
107.012212 86.092 172.6654
107.787666 86.074 172.4140
108.568740 86.056 172.1628
109.355474 86.039 171.9130
110.147909 86.023 171.6652
110.946086 86.007 171.4203
111.750047 85.993 171.1788
112.559834 85.979 170.9409
113.375489 85.965 170.7063
114.197055 85.951 170.4743
115.024574 85.937 170.2441
115.858089 85.924 170.0154
116.697645 85.910 169.7882
117.543284 85.897 169.5630
118.395051 85.883 169.3411
119.252990 85.869 169.1235
120.117147 85.855 168.9114
120.987565 85.840 168.7051
121.864291 85.824 168.5042
122.747370 85.807 168.3083
123.636848 85.789 168.1168
124.532771 85.770 167.9295
125.435187 85.750 167.7468
126.344142 85.729 167.5697
127.259684 85.706 167.3994
128.181860 85.681 167.2369
129.110718 85.656 167.0833
130.046308 85.630 166.9393
130.988677 85.602 166.8051
131.937875 85.574 166.6803
132.893951 85.545 166.5641
133.856956 85.516 166.4551
134.826938 85.486 166.3517
135.803950 85.456 166.2517
136.788041 85.425 166.1526
137.779264 85.394 166.0518
138.777669 85.363 165.9473
139.783309 85.332 165.8377
140.796237 85.301 165.7226
141.816504 85.269 165.6028
142.844165 85.237 165.4799
143.879273 85.204 165.3564
144.921881 85.170 165.2348
145.972045 85.136 165.1170
147.029819 85.100 165.0047
148.095257 85.063 164.8992
149.168417 85.024 164.8019
150.249353 84.984 164.7140
151.338121 84.942 164.6370
152.434780 84.899 164.5722
153.539385 84.855 164.5207
154.651995 84.809 164.4833
155.772667 84.764 164.4601
156.901460 84.719 164.4511
158.038432 84.674 164.4559
159.183644 84.630 164.4742
160.337154 84.588 164.5059
161.499023 84.547 164.5510
162.669312 84.509 164.6097
163.848081 84.475 164.6823
165.035392 84.444 164.7685
166.231306 84.417 164.8673
167.435887 84.394 164.9771
168.649196 84.375 165.0952
169.871298 84.362 165.2181
171.102255 84.352 165.3417
172.342133 84.347 165.4617
173.590995 84.345 165.5739
174.848907 84.346 165.6747
176.115934 84.350 165.7612
177.392143 84.356 165.8311
178.677599 84.363 165.8826
179.972371 84.371 165.9149
181.276525 84.379 165.9273
182.590129 84.387 165.9199
183.913252 84.395 165.8933
185.245964 84.402 165.8485
186.588332 84.408 165.7867
187.940428 84.414 165.7098
189.302322 84.417 165.6196
190.674085 84.420 165.5183
192.055788 84.421 165.4083
193.447503 84.420 165.2914
194.849303 84.418 165.1692
196.261262 84.414 165.0424
197.683452 84.409 164.9110
199.115948 84.403 164.7748
200.558824 84.395 164.6335
202.012156 84.386 164.4869
203.476019 84.376 164.3360
204.950490 84.364 164.1825
206.435646 84.351 164.0285
207.931564 84.336 163.8762
209.438322 84.320 163.7274
210.955998 84.304 163.5826
212.484672 84.287 163.4420
214.024424 84.270 163.3051
215.575333 84.254 163.1711
217.137481 84.239 163.0392
218.710948 84.225 162.9090
220.295818 84.212 162.7796
221.892172 84.201 162.6506
223.500094 84.191 162.5222
225.119668 84.183 162.3950
226.750978 84.176 162.2702
228.394109 84.171 162.1492
230.049147 84.166 162.0330
231.716178 84.162 161.9219
233.395289 84.158 161.8159
235.086567 84.155 161.7148
236.790102 84.152 161.6179
238.505980 84.149 161.5249
240.234293 84.147 161.4352
241.975130 84.145 161.3483
243.728581 84.143 161.2633
245.494739 84.142 161.1790
247.273695 84.141 161.0944
249.065542 84.140 161.0084
250.870374 84.140 160.9208
252.688284 84.140 160.8320
254.519367 84.141 160.7427
256.363720 84.141 160.6542
258.221437 84.142 160.5675
260.092616 84.142 160.4837
261.977354 84.143 160.4040
263.875750 84.144 160.3292
265.787903 84.146 160.2595
267.713911 84.147 160.1945
269.653877 84.150 160.1328
271.607900 84.152 160.0729
273.576083 84.155 160.0135
275.558528 84.158 159.9539
277.555338 84.160 159.8938
279.566619 84.163 159.8336
281.592474 84.166 159.7739
283.633009 84.168 159.7147
285.688331 84.170 159.6564
287.758546 84.173 159.5988
289.843763 84.175 159.5414
291.944090 84.179 159.4838
294.059638 84.183 159.4257
296.190515 84.188 159.3674
298.336833 84.194 159.3093
300.498705 84.201 159.2517
302.676243 84.209 159.1951
304.869559 84.218 159.1396
307.078770 84.228 159.0854
309.303989 84.239 159.0331
311.545334 84.250 158.9829
313.802919 84.261 158.9354
316.076865 84.272 158.8909
318.367288 84.284 158.8491
320.674309 84.295 158.8096
322.998047 84.306 158.7715
325.338624 84.316 158.7338
327.696162 84.326 158.6954
330.070783 84.335 158.6556
332.462612 84.344 158.6140
334.871773 84.352 158.5706
337.298392 84.359 158.5256
339.742595 84.365 158.4796
342.204510 84.371 158.4330
344.684265 84.376 158.3868
347.181989 84.381 158.3413
349.697813 84.385 158.2966
352.231868 84.388 158.2526
354.784285 84.391 158.2089
357.355198 84.392 158.1653
359.944741 84.393 158.1216
362.553049 84.393 158.0776
365.180258 84.391 158.0334
367.826505 84.389 157.9889
370.491927 84.386 157.9440
373.176665 84.383 157.8986
375.880856 84.379 157.8524
378.604644 84.375 157.8055
381.348169 84.371 157.7575
384.111575 84.366 157.7082
386.895006 84.362 157.6573
389.698607 84.357 157.6049
392.522524 84.351 157.5514
395.366904 84.345 157.4974
398.231895 84.339 157.4434
401.117648 84.332 157.3903
404.024312 84.324 157.3388
406.952038 84.316 157.2897
409.900981 84.306 157.2440
412.871292 84.295 157.2027
415.863128 84.283 157.1671
418.876643 84.269 157.1378
421.911996 84.255 157.1152
424.969344 84.239 157.0987
428.048847 84.223 157.0865
431.150666 84.206 157.0766
434.274961 84.189 157.0663
437.421897 84.172 157.0535
440.591636 84.154 157.0365
443.784345 84.135 157.0145
447.000189 84.116 156.9873
450.239337 84.097 156.9555
453.501956 84.077 156.9202
456.788219 84.056 156.8823
460.098294 84.036 156.8430
463.432356 84.015 156.8029
466.790578 83.994 156.7627
470.173135 83.973 156.7225
473.580203 83.953 156.6825
477.011961 83.934 156.6426
480.468586 83.915 156.6032
483.950259 83.898 156.5645
487.457163 83.881 156.5269
490.989478 83.866 156.4910
494.547390 83.853 156.4573
498.131084 83.840 156.4261
501.740748 83.830 156.3977
505.376568 83.821 156.3719
509.038735 83.815 156.3485
512.727439 83.810 156.3269
516.442874 83.807 156.3062
520.185232 83.807 156.2857
523.954708 83.808 156.2645
527.751500 83.813 156.2419
531.575805 83.820 156.2174
535.427822 83.829 156.1904
539.307753 83.841 156.1606
543.215800 83.855 156.1276
547.152165 83.872 156.0912
551.117055 83.891 156.0511
555.110677 83.913 156.0069
559.133237 83.937 155.9582
563.184947 83.963 155.9048
567.266018 83.991 155.8468
571.376661 84.020 155.7845
575.517092 84.051 155.7184
579.687526 84.083 155.6493
583.888181 84.115 155.5777
588.119275 84.147 155.5045
592.381030 84.180 155.4301
596.673667 84.213 155.3546
600.997410 84.246 155.2778
605.352485 84.279 155.1988
609.739119 84.311 155.1166
614.157540 84.343 155.0302
618.607979 84.373 154.9387
623.090667 84.402 154.8416
627.605839 84.430 154.7389
632.153730 84.457 154.6310
636.734576 84.481 154.5182
641.348617 84.505 154.4012
645.996094 84.526 154.2805
650.677248 84.546 154.1569
655.392323 84.565 154.0305
660.141566 84.583 153.9012
664.925224 84.600 153.7688
669.743546 84.615 153.6325
674.596784 84.630 153.4917
679.485191 84.644 153.3459
684.409020 84.657 153.1948
689.368530 84.668 153.0385
694.363979 84.677 152.8776
699.395626 84.685 152.7129
704.463736 84.691 152.5456
709.568570 84.695 152.3772
714.710396 84.697 152.2090
719.889483 84.698 152.0419
725.106099 84.697 151.8762
730.360516 84.696 151.7114
735.653010 84.694 151.5463
740.983855 84.691 151.3794
746.353329 84.687 151.2096
751.761713 84.683 151.0360
757.209288 84.677 150.8579
762.696339 84.671 150.6750
768.223151 84.663 150.4868
773.790013 84.654 150.2926
779.397214 84.645 150.0918
785.045047 84.635 149.8839
790.733808 84.624 149.6687
796.463791 84.612 149.4465
802.235296 84.600 149.2179
808.048623 84.587 148.9836
813.904077 84.574 148.7445
819.801961 84.560 148.5013
825.742584 84.546 148.2544
831.726255 84.533 148.0040
837.753287 84.519 147.7499
843.823992 84.506 147.4923
849.938689 84.493 147.2307
856.097695 84.481 146.9648
862.301332 84.469 146.6943
868.549922 84.457 146.4189
874.843793 84.446 146.1387
881.183272 84.435 145.8541
887.568689 84.424 145.5654
894.000378 84.414 145.2733
900.478673 84.404 144.9781
907.003913 84.394 144.6796
913.576437 84.386 144.3774
920.196588 84.378 144.0713
926.864712 84.370 143.7613
933.581156 84.364 143.4481
940.346270 84.357 143.1328
947.160407 84.352 142.8165
954.023921 84.347 142.5002
960.937172 84.343 142.1844
967.900519 84.340 141.8691
974.914325 84.339 141.5537
981.978956 84.340 141.2375
989.094780 84.343 140.9194
996.262169 84.347 140.5988
1003.481495 84.352 140.2756
1010.753136 84.359 139.9496
1018.077470 84.368 139.6211
1025.454879 84.377 139.2899
1032.885748 84.388 138.9557
1040.370463 84.400 138.6179
1047.909417 84.412 138.2755
1055.503000 84.425 137.9285
1063.151610 84.437 137.5772
1070.855645 84.448 137.2234
1078.615506 84.458 136.8693
1086.431599 84.467 136.5174
1094.304330 84.474 136.1702
1102.234110 84.480 135.8293
1110.221353 84.485 135.4958
1118.266475 84.488 135.1700
1126.369895 84.491 134.8516
1134.532035 84.492 134.5403
1142.753322 84.492 134.2359
1151.034184 84.492 133.9385
1159.375052 84.490 133.6487
1167.776361 84.487 133.3669
1176.238550 84.483 133.0937
1184.762060 84.478 132.8294
1193.347334 84.472 132.5740
1201.994821 84.466 132.3276
1210.704971 84.458 132.0901
1219.478238 84.451 131.8622
1228.315080 84.442 131.6443
1237.215957 84.434 131.4371
1246.181334 84.425 131.2408
1255.211678 84.416 131.0550
1264.307459 84.409 130.8787
1273.469152 84.401 130.7101
1282.697235 84.395 130.5471
1291.992188 84.389 130.3875
1301.354495 84.384 130.2300
1310.784647 84.378 130.0741
1320.283132 84.372 129.9205
1329.850448 84.365 129.7706
1339.487093 84.358 129.6261
1349.193569 84.350 129.4882
1358.970381 84.341 129.3578
1368.818041 84.332 129.2351
1378.737061 84.324 129.1207
1388.727958 84.315 129.0146
1398.791253 84.306 128.9170
1408.927471 84.298 128.8278
1419.137140 84.291 128.7467
1429.420793 84.285 128.6740
1439.778965 84.279 128.6104
1450.212197 84.274 128.5568
1460.721033 84.270 128.5145
1471.306019 84.267 128.4841
1481.967709 84.264 128.4663
1492.706658 84.262 128.4614
1503.523426 84.261 128.4704
1514.418576 84.259 128.4944
1525.392678 84.257 128.5350
1536.446302 84.255 128.5938
1547.580025 84.251 128.6719
1558.794428 84.246 128.7703
1570.090095 84.240 128.8893
1581.467615 84.233 129.0294
1592.927581 84.223 129.1910
1604.470591 84.212 129.3745
1616.097246 84.199 129.5805
1627.808153 84.184 129.8093
1639.603922 84.168 130.0613
1651.485168 84.151 130.3364
1663.452510 84.133 130.6337
1675.506573 84.115 130.9522
1687.647984 84.098 131.2897
1699.877377 84.081 131.6433
1712.195390 84.065 132.0103
1724.602663 84.051 132.3878
1737.099845 84.038 132.7737
1749.687587 84.028 133.1657
1762.366544 84.020 133.5620
1775.137379 84.014 133.9612
1788.000756 84.010 134.3621
1800.957346 84.008 134.7636
1814.007826 84.010 135.1643
1827.152874 84.013 135.5620
1840.393177 84.020 135.9540
1853.729425 84.029 136.3366
1867.162312 84.040 136.7059
1880.692540 84.054 137.0575
1894.320813 84.069 137.3879
1908.047843 84.085 137.6942
1921.874344 84.101 137.9741
1935.801038 84.116 138.2263
1949.828650 84.131 138.4503
1963.957912 84.144 138.6470
1978.189561 84.154 138.8185
1992.524338 84.162 138.9674
2006.962991 84.168 139.0960
2021.506272 84.172 139.2055
2036.154940 84.175 139.2955
2050.909758 84.175 139.3649
2065.771495 84.175 139.4119
2080.740927 84.173 139.4354
2095.818833 84.170 139.4345
2111.006001 84.166 139.4085
2126.303220 84.160 139.3573
2141.711290 84.152 139.2814
2157.231013 84.142 139.1818
2172.863198 84.131 139.0603
2188.608660 84.116 138.9192
2204.468221 84.100 138.7612
2220.442706 84.080 138.5895
2236.532950 84.059 138.4075
2252.739789 84.034 138.2185
2269.064070 84.008 138.0250
2285.506644 83.980 137.8286
2302.068367 83.951 137.6301
2318.750104 83.920 137.4302
2335.552723 83.889 137.2297
2352.477101 83.857 137.0291
2369.524119 83.824 136.8288
2386.694668 83.792 136.6286
2403.989641 83.760 136.4285
2421.409941 83.728 136.2282
2438.956476 83.697 136.0278
2456.630160 83.667 135.8270
2474.431915 83.638 135.6255
2492.362668 83.611 135.4225
2510.423356 83.584 135.2169
2528.614918 83.559 135.0068
2546.938304 83.535 134.7902
2565.394469 83.511 134.5656
2583.984375 83.488 134.3326
2602.708991 83.463 134.0932
2621.569293 83.436 133.8511
2640.566265 83.406 133.6123
2659.700897 83.373 133.3840
2678.974186 83.337 133.1745
2698.387137 83.297 132.9923
2717.940763 83.254 132.8452
2737.636082 83.209 132.7397
2757.474121 83.162 132.6804
2777.455915 83.114 132.6706
2797.582506 83.066 132.7124
2817.854942 83.019 132.8073
2838.274281 82.972 132.9566
2858.841586 82.927 133.1621
2879.557931 82.884 133.4260
2900.424394 82.843 133.7503
2921.442065 82.805 134.1366
2942.612039 82.771 134.5852
2963.935418 82.742 135.0949
2985.413316 82.718 135.6624
3007.046852 82.700 136.2823
3028.837153 82.689 136.9474
3050.785356 82.685 137.6490
3072.892604 82.688 138.3769
3095.160050 82.697 139.1201
3117.588856 82.713 139.8667
3140.180190 82.734 140.6041
3162.935230 82.760 141.3199
3185.855163 82.788 142.0035
3208.941182 82.817 142.6466
3232.194493 82.845 143.2456
3255.616307 82.870 143.8015
3279.207844 82.890 144.3205
3302.970336 82.903 144.8133
3326.905021 82.909 145.2935
3351.013146 82.908 145.7763
3375.295969 82.901 146.2764
3399.754755 82.891 146.8057
3424.390779 82.879 147.3708
3449.205326 82.870 147.9711
3474.199690 82.866 148.5980
3499.375173 82.871 149.2347
3524.733088 82.887 149.8577
3550.274757 82.916 150.4397
