* Measurement data measured by REW V5.31.3
* Source: EXCL: Headset (USB-C to 3.5mm Headphone Jack Adapter), MICROPHONE (Master Volume), 0, volume: 0.750
* Format: 256k Log Swept Sine, 1 sweep at -12.0 dBFS with no timing reference
* Dated: Apr 7, 2025 4:48:06 PM
* REW Settings:
*  C-weighting compensation: Off
*  Target level: 75.0 dB
* Note: ; 
* Measurement: Satyr 3 (Forward) R1
* Smoothing: 1/6 octave
* Frequency Step: 96 ppo
* Start Frequency: 20.0 Hz
*
* Freq(Hz) SPL(dB) Phase(degrees)
20.187378 80.877 -100.2909
20.333664 80.916 -100.4056
20.481010 80.967 -100.5611
20.629424 81.028 -100.7555
20.778913 81.098 -100.9864
20.929486 81.173 -101.2512
21.081150 81.251 -101.5471
21.233912 81.332 -101.8711
21.387782 81.413 -102.2202
21.542767 81.494 -102.5914
21.698874 81.574 -102.9815
21.856113 81.652 -103.3883
22.014492 81.730 -103.8095
22.174018 81.807 -104.2438
22.334700 81.883 -104.6902
22.496546 81.959 -105.1483
22.659566 82.036 -105.6179
22.823766 82.112 -106.0987
22.989157 82.189 -106.5900
23.155745 82.264 -107.0903
23.323542 82.339 -107.5970
23.492554 82.411 -108.1062
23.662790 82.480 -108.6133
23.834261 82.545 -109.1125
24.006973 82.606 -109.5978
24.180938 82.662 -110.0632
24.356163 82.713 -110.5038
24.532658 82.760 -110.9161
24.710431 82.803 -111.2984
24.889493 82.842 -111.6518
25.069853 82.879 -111.9794
25.251519 82.915 -112.2870
25.434502 82.950 -112.5821
25.618811 82.985 -112.8733
25.804456 83.019 -113.1696
25.991445 83.055 -113.4795
26.179790 83.090 -113.8100
26.369500 83.125 -114.1659
26.560584 83.159 -114.5501
26.753053 83.192 -114.9627
26.946917 83.224 -115.4018
27.142185 83.255 -115.8638
27.338869 83.284 -116.3440
27.536977 83.311 -116.8372
27.736522 83.337 -117.3382
27.937512 83.363 -117.8425
28.139959 83.388 -118.3463
28.343872 83.413 -118.8468
28.549264 83.439 -119.3421
28.756143 83.466 -119.8312
28.964522 83.494 -120.3139
29.174411 83.524 -120.7902
29.385821 83.556 -121.2610
29.598763 83.590 -121.7273
29.813248 83.627 -122.1902
30.029287 83.666 -122.6512
30.246891 83.708 -123.1118
30.466073 83.753 -123.5732
30.686842 83.800 -124.0361
30.909212 83.849 -124.5009
31.133193 83.901 -124.9673
31.358797 83.955 -125.4345
31.586035 84.010 -125.9010
31.814921 84.068 -126.3655
32.045465 84.128 -126.8269
32.277680 84.191 -127.2844
32.511577 84.257 -127.7382
32.747169 84.325 -128.1886
32.984469 84.396 -128.6364
33.223488 84.471 -129.0825
33.464239 84.547 -129.5271
33.706735 84.626 -129.9699
33.950987 84.706 -130.4097
34.197010 84.787 -130.8447
34.444816 84.868 -131.2730
34.694417 84.949 -131.6928
34.945827 85.030 -132.1032
35.199059 85.110 -132.5041
35.454126 85.189 -132.8962
35.711041 85.268 -133.2812
35.969818 85.345 -133.6611
36.230470 85.422 -134.0379
36.493011 85.498 -134.4137
36.757455 85.573 -134.7898
37.023814 85.648 -135.1675
37.292104 85.723 -135.5475
37.562338 85.798 -135.9303
37.834530 85.874 -136.3163
38.108695 85.950 -136.7052
38.384846 86.026 -137.0965
38.662999 86.102 -137.4893
38.943167 86.176 -137.8823
39.225365 86.248 -138.2743
39.509608 86.317 -138.6644
39.795911 86.384 -139.0524
40.084289 86.447 -139.4388
40.374756 86.507 -139.8249
40.667328 86.565 -140.2126
40.962020 86.619 -140.6035
41.258848 86.672 -140.9992
41.557827 86.723 -141.4003
41.858972 86.773 -141.8069
42.162299 86.823 -142.2181
42.467824 86.873 -142.6324
42.775564 86.923 -143.0483
43.085533 86.974 -143.4638
43.397749 87.025 -143.8773
43.712227 87.076 -144.2874
44.028983 87.126 -144.6930
44.348036 87.175 -145.0935
44.669400 87.222 -145.4891
44.993093 87.266 -145.8807
45.319131 87.308 -146.2702
45.647532 87.348 -146.6604
45.978313 87.386 -147.0552
46.311491 87.422 -147.4591
46.647083 87.456 -147.8764
46.985107 87.489 -148.3106
47.325581 87.520 -148.7635
47.668521 87.549 -149.2345
48.013947 87.576 -149.7203
48.361876 87.601 -150.2155
48.712326 87.623 -150.7133
49.065315 87.644 -151.2069
49.420863 87.662 -151.6907
49.778987 87.678 -152.1611
50.139706 87.692 -152.6169
50.503039 87.703 -153.0591
50.869005 87.712 -153.4902
51.237623 87.718 -153.9142
51.608912 87.722 -154.3351
51.982891 87.724 -154.7569
52.359580 87.724 -155.1827
52.739000 87.723 -155.6146
53.121168 87.722 -156.0531
53.506106 87.721 -156.4976
53.893833 87.720 -156.9462
54.284370 87.718 -157.3958
54.677737 87.716 -157.8425
55.073955 87.713 -158.2811
55.473043 87.708 -158.7054
55.875024 87.700 -159.1090
56.279917 87.689 -159.4858
56.687745 87.675 -159.8319
57.098527 87.657 -160.1467
57.512287 87.636 -160.4333
57.929045 87.613 -160.6991
58.348822 87.590 -160.9558
58.771642 87.571 -161.2195
59.197525 87.558 -161.5089
59.626495 87.556 -161.8438
60.058573 87.566 -162.2399
60.493782 87.587 -162.7043
60.932145 87.619 -163.2327
61.373685 87.658 -163.8104
61.818424 87.702 -164.4167
62.266386 87.747 -165.0313
62.717593 87.791 -165.6386
63.172071 87.834 -166.2296
63.629842 87.875 -166.8004
64.090930 87.913 -167.3510
64.555359 87.949 -167.8821
65.023154 87.983 -168.3949
65.494339 88.014 -168.8906
65.968938 88.044 -169.3701
66.446976 88.072 -169.8351
66.928478 88.098 -170.2873
67.413469 88.122 -170.7294
67.901975 88.145 -171.1639
68.394021 88.167 -171.5928
68.889632 88.187 -172.0173
69.388835 88.206 -172.4383
69.891655 88.223 -172.8559
70.398118 88.238 -173.2703
70.908252 88.252 -173.6816
71.422083 88.264 -174.0896
71.939636 88.273 -174.4938
72.460941 88.280 -174.8937
72.986023 88.284 -175.2888
73.514909 88.285 -175.6787
74.047629 88.284 -176.0635
74.584208 88.279 -176.4433
75.124676 88.271 -176.8183
75.669061 88.260 -177.1885
76.217390 88.247 -177.5540
76.769692 88.231 -177.9154
77.325997 88.212 -178.2737
77.886333 88.192 -178.6304
78.450730 88.170 -178.9866
79.019216 88.146 -179.3434
79.591822 88.121 -179.7009
80.168577 88.096 179.9416
80.749512 88.070 179.5852
81.334656 88.043 179.2314
81.924040 88.016 178.8817
82.517696 87.989 178.5372
83.115653 87.962 178.1987
83.717943 87.935 177.8665
84.324598 87.907 177.5406
84.935649 87.880 177.2204
85.551128 87.852 176.9052
86.171066 87.825 176.5938
86.795497 87.797 176.2849
87.424453 87.768 175.9773
88.057967 87.739 175.6696
88.696071 87.710 175.3609
89.338800 87.680 175.0510
89.986185 87.650 174.7400
90.638262 87.620 174.4286
91.295065 87.589 174.1180
91.956626 87.559 173.8092
92.622982 87.527 173.5035
93.294166 87.496 173.2020
93.970214 87.464 172.9055
94.651161 87.432 172.6141
95.337042 87.400 172.3280
96.027894 87.368 172.0470
96.723752 87.336 171.7709
97.424652 87.305 171.4995
98.130631 87.273 171.2325
98.841726 87.243 170.9694
99.557974 87.212 170.7098
100.279412 87.181 170.4527
101.006078 87.151 170.1974
101.738010 87.121 169.9431
102.475245 87.090 169.6897
103.217823 87.061 169.4374
103.965782 87.031 169.1870
104.719161 87.003 168.9396
105.477999 86.976 168.6966
106.242336 86.951 168.4589
107.012212 86.928 168.2269
107.787666 86.907 168.0007
108.568740 86.887 167.7798
109.355474 86.869 167.5637
110.147909 86.853 167.3515
110.946086 86.837 167.1425
111.750047 86.822 166.9357
112.559834 86.808 166.7305
113.375489 86.793 166.5263
114.197055 86.780 166.3229
115.024574 86.766 166.1204
115.858089 86.752 165.9190
116.697645 86.738 165.7191
117.543284 86.723 165.5207
118.395051 86.709 165.3240
119.252990 86.694 165.1287
120.117147 86.679 164.9344
120.987565 86.663 164.7408
121.864291 86.646 164.5480
122.747370 86.628 164.3563
123.636848 86.610 164.1661
124.532771 86.591 163.9781
125.435187 86.571 163.7926
126.344142 86.551 163.6100
127.259684 86.531 163.4304
128.181860 86.510 163.2537
129.110718 86.488 163.0797
130.046308 86.465 162.9087
130.988677 86.441 162.7408
131.937875 86.416 162.5767
132.893951 86.390 162.4167
133.856956 86.361 162.2614
134.826938 86.331 162.1112
135.803950 86.299 161.9663
136.788041 86.264 161.8267
137.779264 86.228 161.6919
138.777669 86.190 161.5618
139.783309 86.150 161.4360
140.796237 86.109 161.3141
141.816504 86.066 161.1960
142.844165 86.023 161.0817
143.879273 85.978 160.9714
144.921881 85.933 160.8655
145.972045 85.886 160.7648
147.029819 85.839 160.6700
148.095257 85.791 160.5820
149.168417 85.742 160.5017
150.249353 85.693 160.4302
151.338121 85.643 160.3687
152.434780 85.594 160.3185
153.539385 85.544 160.2808
154.651995 85.494 160.2566
155.772667 85.444 160.2465
156.901460 85.396 160.2510
158.038432 85.348 160.2704
159.183644 85.302 160.3047
160.337154 85.257 160.3538
161.499023 85.214 160.4177
162.669312 85.173 160.4961
163.848081 85.135 160.5887
165.035392 85.098 160.6951
166.231306 85.065 160.8146
167.435887 85.034 160.9465
168.649196 85.006 161.0900
169.871298 84.982 161.2441
171.102255 84.961 161.4078
172.342133 84.943 161.5795
173.590995 84.929 161.7575
174.848907 84.918 161.9388
176.115934 84.910 162.1191
177.392143 84.905 162.2929
178.677599 84.901 162.4542
179.972371 84.900 162.5973
181.276525 84.900 162.7178
182.590129 84.900 162.8140
183.913252 84.902 162.8859
185.245964 84.905 162.9350
186.588332 84.908 162.9633
187.940428 84.912 162.9728
189.302322 84.916 162.9657
190.674085 84.922 162.9441
192.055788 84.927 162.9102
193.447503 84.933 162.8660
194.849303 84.939 162.8129
196.261262 84.944 162.7517
197.683452 84.948 162.6827
199.115948 84.951 162.6060
200.558824 84.953 162.5214
202.012156 84.954 162.4286
203.476019 84.953 162.3271
204.950490 84.952 162.2165
206.435646 84.951 162.0970
207.931564 84.949 161.9691
209.438322 84.946 161.8340
210.955998 84.944 161.6932
212.484672 84.941 161.5481
214.024424 84.938 161.3998
215.575333 84.935 161.2494
217.137481 84.932 161.0979
218.710948 84.929 160.9467
220.295818 84.926 160.7968
221.892172 84.924 160.6492
223.500094 84.922 160.5045
225.119668 84.920 160.3625
226.750978 84.919 160.2230
228.394109 84.919 160.0852
230.049147 84.920 159.9482
231.716178 84.922 159.8110
233.395289 84.925 159.6730
235.086567 84.928 159.5334
236.790102 84.933 159.3920
238.505980 84.938 159.2486
240.234293 84.943 159.1034
241.975130 84.949 158.9571
243.728581 84.954 158.8106
245.494739 84.960 158.6648
247.273695 84.966 158.5206
249.065542 84.971 158.3784
250.870374 84.976 158.2387
252.688284 84.979 158.1019
254.519367 84.983 157.9683
256.363720 84.985 157.8386
258.221437 84.986 157.7135
260.092616 84.988 157.5939
261.977354 84.988 157.4804
263.875750 84.989 157.3734
265.787903 84.989 157.2725
267.713911 84.990 157.1768
269.653877 84.990 157.0848
271.607900 84.990 156.9947
273.576083 84.991 156.9042
275.558528 84.991 156.8118
277.555338 84.991 156.7160
279.566619 84.991 156.6166
281.592474 84.991 156.5136
283.633009 84.991 156.4081
285.688331 84.992 156.3009
287.758546 84.993 156.1934
289.843763 84.996 156.0862
291.944090 84.999 155.9799
294.059638 85.003 155.8748
296.190515 85.007 155.7710
298.336833 85.012 155.6682
300.498705 85.017 155.5665
302.676243 85.023 155.4656
304.869559 85.030 155.3659
307.078770 85.036 155.2679
309.303989 85.043 155.1719
311.545334 85.050 155.0784
313.802919 85.057 154.9877
316.076865 85.064 154.8998
318.367288 85.071 154.8145
320.674309 85.077 154.7314
322.998047 85.083 154.6502
325.338624 85.089 154.5702
327.696162 85.095 154.4911
330.070783 85.101 154.4128
332.462612 85.106 154.3349
334.871773 85.112 154.2573
337.298392 85.116 154.1800
339.742595 85.120 154.1031
342.204510 85.123 154.0266
344.684265 85.125 153.9505
347.181989 85.126 153.8745
349.697813 85.126 153.7979
352.231868 85.124 153.7197
354.784285 85.121 153.6393
357.355198 85.117 153.5563
359.944741 85.113 153.4709
362.553049 85.108 153.3837
365.180258 85.102 153.2952
367.826505 85.097 153.2064
370.491927 85.092 153.1177
373.176665 85.087 153.0294
375.880856 85.082 152.9415
378.604644 85.077 152.8539
381.348169 85.072 152.7659
384.111575 85.066 152.6763
386.895006 85.059 152.5840
389.698607 85.052 152.4885
392.522524 85.045 152.3891
395.366904 85.036 152.2860
398.231895 85.027 152.1793
401.117648 85.017 152.0693
404.024312 85.006 151.9562
406.952038 84.992 151.8403
409.900981 84.977 151.7220
412.871292 84.959 151.6019
415.863128 84.939 151.4810
418.876643 84.916 151.3610
421.911996 84.889 151.2447
424.969344 84.859 151.1354
428.048847 84.827 151.0372
431.150666 84.792 150.9539
434.274961 84.755 150.8881
437.421897 84.717 150.8407
440.591636 84.679 150.8097
443.784345 84.642 150.7911
447.000189 84.606 150.7798
450.239337 84.572 150.7708
453.501956 84.538 150.7599
456.788219 84.506 150.7449
460.098294 84.474 150.7243
463.432356 84.443 150.6981
466.790578 84.412 150.6667
470.173135 84.382 150.6308
473.580203 84.352 150.5913
477.011961 84.322 150.5490
480.468586 84.293 150.5045
483.950259 84.265 150.4589
487.457163 84.238 150.4128
490.989478 84.212 150.3670
494.547390 84.187 150.3223
498.131084 84.164 150.2792
501.740748 84.142 150.2384
505.376568 84.123 150.2003
509.038735 84.105 150.1648
512.727439 84.090 150.1319
516.442874 84.076 150.1013
520.185232 84.065 150.0728
523.954708 84.056 150.0457
527.751500 84.050 150.0196
531.575805 84.045 149.9935
535.427822 84.043 149.9666
539.307753 84.042 149.9374
543.215800 84.044 149.9048
547.152165 84.048 149.8679
551.117055 84.054 149.8261
555.110677 84.062 149.7796
559.133237 84.072 149.7291
563.184947 84.083 149.6752
567.266018 84.096 149.6188
571.376661 84.111 149.5605
575.517092 84.126 149.5007
579.687526 84.143 149.4395
583.888181 84.161 149.3772
588.119275 84.180 149.3139
592.381030 84.199 149.2498
596.673667 84.218 149.1851
600.997410 84.236 149.1201
605.352485 84.255 149.0549
609.739119 84.272 148.9897
614.157540 84.289 148.9246
618.607979 84.305 148.8593
623.090667 84.321 148.7932
627.605839 84.335 148.7257
632.153730 84.349 148.6561
636.734576 84.363 148.5831
641.348617 84.375 148.5057
645.996094 84.387 148.4229
650.677248 84.397 148.3336
655.392323 84.407 148.2377
660.141566 84.415 148.1351
664.925224 84.421 148.0264
669.743546 84.425 147.9125
674.596784 84.427 147.7949
679.485191 84.428 147.6753
684.409020 84.426 147.5557
689.368530 84.423 147.4382
694.363979 84.418 147.3245
699.395626 84.413 147.2149
704.463736 84.406 147.1091
709.568570 84.398 147.0051
714.710396 84.391 146.9007
719.889483 84.383 146.7933
725.106099 84.374 146.6808
730.360516 84.365 146.5615
735.653010 84.355 146.4342
740.983855 84.343 146.2989
746.353329 84.331 146.1560
751.761713 84.316 146.0067
757.209288 84.300 145.8523
762.696339 84.281 145.6942
768.223151 84.261 145.5337
773.790013 84.239 145.3716
779.397214 84.215 145.2086
785.045047 84.189 145.0453
790.733808 84.162 144.8824
796.463791 84.135 144.7205
802.235296 84.106 144.5601
808.048623 84.078 144.4017
813.904077 84.050 144.2452
819.801961 84.022 144.0901
825.742584 83.996 143.9349
831.726255 83.970 143.7776
837.753287 83.947 143.6159
843.823992 83.925 143.4474
849.938689 83.904 143.2706
856.097695 83.885 143.0843
862.301332 83.866 142.8880
868.549922 83.848 142.6820
874.843793 83.830 142.4669
881.183272 83.812 142.2432
887.568689 83.794 142.0120
894.000378 83.776 141.7741
900.478673 83.758 141.5305
907.003913 83.740 141.2822
913.576437 83.722 141.0305
920.196588 83.703 140.7769
926.864712 83.685 140.5231
933.581156 83.666 140.2708
940.346270 83.648 140.0217
947.160407 83.631 139.7769
954.023921 83.614 139.5376
960.937172 83.599 139.3040
967.900519 83.586 139.0761
974.914325 83.574 138.8530
981.978956 83.565 138.6336
989.094780 83.559 138.4161
996.262169 83.555 138.1989
1003.481495 83.553 137.9798
1010.753136 83.555 137.7568
1018.077470 83.558 137.5277
1025.454879 83.563 137.2904
1032.885748 83.570 137.0435
1040.370463 83.578 136.7864
1047.909417 83.585 136.5195
1055.503000 83.593 136.2441
1063.151610 83.600 135.9625
1070.855645 83.605 135.6770
1078.615506 83.610 135.3905
1086.431599 83.613 135.1060
1094.304330 83.614 134.8259
1102.234110 83.614 134.5530
1110.221353 83.612 134.2894
1118.266475 83.608 134.0368
1126.369895 83.604 133.7964
1134.532035 83.598 133.5685
1142.753322 83.592 133.3527
1151.034184 83.585 133.1483
1159.375052 83.576 132.9540
1167.776361 83.568 132.7685
1176.238550 83.558 132.5909
1184.762060 83.547 132.4203
1193.347334 83.535 132.2563
1201.994821 83.522 132.0988
1210.704971 83.508 131.9481
1219.478238 83.493 131.8046
1228.315080 83.477 131.6695
1237.215957 83.460 131.5443
1246.181334 83.441 131.4311
1255.211678 83.423 131.3317
1264.307459 83.403 131.2476
1273.469152 83.384 131.1798
1282.697235 83.365 131.1284
1291.992188 83.347 131.0930
1301.354495 83.329 131.0727
1310.784647 83.311 131.0670
1320.283132 83.294 131.0755
1329.850448 83.278 131.0978
1339.487093 83.262 131.1337
1349.193569 83.248 131.1832
1358.970381 83.235 131.2463
1368.818041 83.223 131.3227
1378.737061 83.213 131.4119
1388.727958 83.205 131.5133
1398.791253 83.199 131.6262
1408.927471 83.196 131.7493
1419.137140 83.195 131.8814
1429.420793 83.198 132.0207
1439.778965 83.204 132.1650
1450.212197 83.213 132.3127
1460.721033 83.225 132.4621
1471.306019 83.239 132.6124
1481.967709 83.256 132.7632
1492.706658 83.274 132.9148
1503.523426 83.294 133.0684
1514.418576 83.313 133.2255
1525.392678 83.333 133.3878
1536.446302 83.352 133.5571
1547.580025 83.370 133.7347
1558.794428 83.386 133.9228
1570.090095 83.401 134.1237
1581.467615 83.413 134.3401
1592.927581 83.423 134.5749
1604.470591 83.431 134.8301
1616.097246 83.438 135.1071
1627.808153 83.444 135.4055
1639.603922 83.450 135.7234
1651.485168 83.456 136.0570
1663.452510 83.462 136.4013
1675.506573 83.470 136.7504
1687.647984 83.478 137.0990
1699.877377 83.487 137.4429
1712.195390 83.497 137.7798
1724.602663 83.506 138.1086
1737.099845 83.516 138.4298
1749.687587 83.526 138.7442
1762.366544 83.536 139.0528
1775.137379 83.547 139.3563
1788.000756 83.558 139.6545
1800.957346 83.569 139.9466
1814.007826 83.581 140.2311
1827.152874 83.594 140.5063
1840.393177 83.607 140.7704
1853.729425 83.619 141.0217
1867.162312 83.632 141.2585
1880.692540 83.643 141.4796
1894.320813 83.654 141.6840
1908.047843 83.662 141.8716
1921.874344 83.668 142.0428
1935.801038 83.672 142.1991
1949.828650 83.673 142.3427
1963.957912 83.670 142.4758
1978.189561 83.665 142.6003
1992.524338 83.657 142.7171
2006.962991 83.646 142.8262
2021.506272 83.634 142.9266
2036.154940 83.619 143.0167
2050.909758 83.603 143.0948
2065.771495 83.586 143.1595
2080.740927 83.567 143.2098
2095.818833 83.547 143.2449
2111.006001 83.525 143.2654
2126.303220 83.501 143.2719
2141.711290 83.477 143.2661
2157.231013 83.450 143.2496
2172.863198 83.423 143.2246
2188.608660 83.394 143.1931
2204.468221 83.365 143.1570
2220.442706 83.335 143.1174
2236.532950 83.305 143.0747
2252.739789 83.275 143.0283
2269.064070 83.247 142.9764
2285.506644 83.219 142.9168
2302.068367 83.193 142.8470
2318.750104 83.169 142.7643
2335.552723 83.145 142.6664
2352.477101 83.123 142.5514
2369.524119 83.102 142.4179
2386.694668 83.081 142.2650
2403.989641 83.061 142.0925
2421.409941 83.040 141.9009
2438.956476 83.019 141.6907
2456.630160 82.996 141.4634
2474.431915 82.973 141.2207
2492.362668 82.947 140.9653
2510.423356 82.919 140.7009
2528.614918 82.888 140.4322
2546.938304 82.854 140.1653
2565.394469 82.817 139.9068
2583.984375 82.777 139.6640
2602.708991 82.734 139.4435
2621.569293 82.688 139.2510
2640.566265 82.641 139.0907
2659.700897 82.594 138.9653
2678.974186 82.546 138.8758
2698.387137 82.499 138.8220
2717.940763 82.453 138.8028
2737.636082 82.409 138.8169
2757.474121 82.366 138.8633
2777.455915 82.325 138.9413
2797.582506 82.284 139.0515
2817.854942 82.245 139.1949
2838.274281 82.206 139.3737
2858.841586 82.168 139.5906
2879.557931 82.131 139.8492
2900.424394 82.094 140.1529
2921.442065 82.058 140.5055
2942.612039 82.023 140.9104
2963.935418 81.990 141.3707
2985.413316 81.959 141.8885
3007.046852 81.930 142.4649
3028.837153 81.905 143.0992
3050.785356 81.884 143.7888
3072.892604 81.869 144.5284
3095.160050 81.859 145.3105
3117.588856 81.855 146.1254
3140.180190 81.858 146.9618
3162.935230 81.867 147.8074
3185.855163 81.881 148.6497
3208.941182 81.901 149.4769
3232.194493 81.925 150.2780
3255.616307 81.951 151.0436
3279.207844 81.980 151.7666
3302.970336 82.010 152.4423
3326.905021 82.039 153.0684
3351.013146 82.066 153.6456
3375.295969 82.092 154.1765
3399.754755 82.114 154.6652
3424.390779 82.135 155.1157
3449.205326 82.154 155.5304
3474.199690 82.172 155.9097
3499.375173 82.190 156.2505
3524.733088 82.209 156.5467
3550.274757 82.230 156.7897
