* Measurement data measured by REW V5.31.3
* Source: EXCL: Headset (USB-C to 3.5mm Headphone Jack Adapter), MICROPHONE (Master Volume), 0, volume: 0.260
* Format: 256k Log Swept Sine, 1 sweep at -12.0 dBFS with no timing reference
* Dated: Mar 7, 2025 11:58:00 AM
* REW Settings:
*  C-weighting compensation: Off
*  Target level: 75.0 dB
* Note: ; 
* Measurement: Massive Mod V1 R9
* Smoothing: 1/6 octave
* Frequency Step: 96 ppo
* Start Frequency: 20.0 Hz
*
* Freq(Hz) SPL(dB) Phase(degrees)
20.141602 93.399 -41.7925
20.287556 93.385 -42.0874
20.434568 93.367 -42.4757
20.582645 93.343 -42.9375
20.731796 93.316 -43.4515
20.882027 93.287 -43.9979
21.033346 93.255 -44.5595
21.185763 93.225 -45.1231
21.339284 93.196 -45.6800
21.493917 93.172 -46.2261
21.649671 93.154 -46.7612
21.806553 93.143 -47.2884
21.964572 93.142 -47.8129
22.123737 93.150 -48.3409
22.284054 93.167 -48.8787
22.445534 93.194 -49.4318
22.608183 93.229 -50.0039
22.772012 93.272 -50.5971
22.937027 93.321 -51.2117
23.103238 93.376 -51.8462
23.270654 93.434 -52.4982
23.439282 93.495 -53.1645
23.609133 93.559 -53.8413
23.780215 93.623 -54.5251
23.952536 93.688 -55.2123
24.126106 93.753 -55.8997
24.300934 93.816 -56.5841
24.477028 93.878 -57.2629
24.654399 93.937 -57.9335
24.833055 93.996 -58.5939
25.013005 94.052 -59.2427
25.194260 94.108 -59.8797
25.376828 94.163 -60.5059
25.560719 94.220 -61.1239
25.745942 94.278 -61.7378
25.932508 94.340 -62.3532
26.120426 94.406 -62.9763
26.309705 94.476 -63.6135
26.500356 94.550 -64.2703
26.692388 94.629 -64.9504
26.885812 94.710 -65.6550
27.080638 94.793 -66.3824
27.276876 94.877 -67.1284
27.474535 94.961 -67.8864
27.673627 95.043 -68.6483
27.874161 95.122 -69.4059
28.076149 95.199 -70.1521
28.279600 95.272 -70.8811
28.484526 95.341 -71.5902
28.690937 95.405 -72.2788
28.898843 95.464 -72.9490
29.108256 95.517 -73.6048
29.319186 95.565 -74.2511
29.531645 95.606 -74.8927
29.745644 95.642 -75.5340
29.961193 95.672 -76.1784
30.178304 95.698 -76.8274
30.396989 95.721 -77.4814
30.617258 95.742 -78.1393
30.839123 95.764 -78.7988
31.062596 95.788 -79.4569
31.287688 95.817 -80.1098
31.514412 95.852 -80.7532
31.742778 95.894 -81.3827
31.972800 95.945 -81.9938
32.204488 96.003 -82.5828
32.437855 96.070 -83.1464
32.672913 96.144 -83.6828
32.909674 96.225 -84.1910
33.148151 96.310 -84.6717
33.388356 96.398 -85.1267
33.630302 96.489 -85.5589
33.874001 96.581 -85.9724
34.119466 96.674 -86.3728
34.366710 96.766 -86.7668
34.615745 96.858 -87.1628
34.866585 96.950 -87.5702
35.119243 97.041 -87.9992
35.373731 97.130 -88.4597
35.630064 97.218 -88.9599
35.888254 97.303 -89.5056
36.148315 97.383 -90.0986
36.410261 97.458 -90.7374
36.674104 97.526 -91.4170
36.939860 97.587 -92.1307
37.207542 97.639 -92.8708
37.477163 97.685 -93.6304
37.748738 97.724 -94.4044
38.022281 97.757 -95.1891
38.297806 97.787 -95.9830
38.575327 97.813 -96.7853
38.854860 97.837 -97.5953
39.136419 97.860 -98.4123
39.420017 97.884 -99.2348
39.705671 97.907 -100.0607
39.993395 97.932 -100.8876
40.283203 97.957 -101.7132
40.575112 97.982 -102.5354
40.869136 98.007 -103.3531
41.165290 98.030 -104.1654
41.463591 98.052 -104.9726
41.764053 98.072 -105.7754
42.066693 98.089 -106.5754
42.371525 98.104 -107.3743
42.678567 98.118 -108.1743
42.987834 98.131 -108.9771
43.299341 98.145 -109.7834
43.613106 98.161 -110.5928
43.929145 98.179 -111.4035
44.247473 98.201 -112.2120
44.568109 98.225 -113.0138
44.891068 98.254 -113.8044
45.216367 98.285 -114.5798
45.544023 98.319 -115.3375
45.874054 98.355 -116.0774
46.206476 98.394 -116.8013
46.541307 98.434 -117.5127
46.878565 98.475 -118.2161
47.218266 98.517 -118.9153
47.560429 98.559 -119.6134
47.905072 98.601 -120.3120
48.252212 98.644 -121.0118
48.601867 98.686 -121.7130
48.954056 98.727 -122.4163
49.308798 98.768 -123.1233
49.666109 98.808 -123.8362
50.026010 98.846 -124.5572
50.388520 98.882 -125.2883
50.753656 98.916 -126.0301
51.121437 98.947 -126.7818
51.491884 98.975 -127.5412
51.865016 99.000 -128.3047
52.240851 99.022 -129.0683
52.619410 99.042 -129.8282
53.000712 99.058 -130.5816
53.384777 99.071 -131.3270
53.771625 99.080 -132.0648
54.161276 99.086 -132.7968
54.553751 99.088 -133.5256
54.949070 99.087 -134.2539
55.347254 99.081 -134.9835
55.748323 99.072 -135.7153
56.152298 99.060 -136.4488
56.559201 99.046 -137.1830
56.969052 99.029 -137.9163
57.381873 99.010 -138.6474
57.797686 98.991 -139.3752
58.216512 98.972 -140.0987
58.638373 98.953 -140.8168
59.063291 98.937 -141.5281
59.491288 98.924 -142.2310
59.922386 98.915 -142.9238
60.356608 98.911 -143.6054
60.793977 98.911 -144.2754
61.234515 98.914 -144.9346
61.678246 98.920 -145.5844
62.125192 98.926 -146.2267
62.575377 98.931 -146.8638
63.028824 98.933 -147.4976
63.485557 98.932 -148.1295
63.945599 98.928 -148.7603
64.408975 98.920 -149.3899
64.875709 98.909 -150.0175
65.345825 98.895 -150.6420
65.819348 98.878 -151.2621
66.296302 98.859 -151.8768
66.776713 98.838 -152.4853
67.260604 98.814 -153.0869
67.748002 98.789 -153.6815
68.238932 98.763 -154.2690
68.733420 98.736 -154.8497
69.231490 98.707 -155.4245
69.733170 98.678 -155.9942
70.238485 98.648 -156.5596
70.747463 98.617 -157.1215
71.260128 98.586 -157.6799
71.776508 98.554 -158.2347
72.296630 98.522 -158.7852
72.820521 98.490 -159.3308
73.348209 98.458 -159.8708
73.879720 98.427 -160.4043
74.415083 98.395 -160.9306
74.954326 98.363 -161.4488
75.497475 98.331 -161.9581
76.044561 98.299 -162.4581
76.595612 98.267 -162.9484
77.150655 98.234 -163.4293
77.709720 98.202 -163.9010
78.272837 98.169 -164.3642
78.840034 98.136 -164.8191
79.411342 98.103 -165.2663
79.986789 98.069 -165.7060
80.566406 98.036 -166.1381
81.150224 98.002 -166.5625
81.738272 97.968 -166.9792
82.330581 97.934 -167.3881
82.927182 97.899 -167.7895
83.528107 97.864 -168.1837
84.133386 97.829 -168.5711
84.743051 97.793 -168.9523
85.357134 97.758 -169.3280
85.975667 97.723 -169.6989
86.598682 97.689 -170.0658
87.226212 97.655 -170.4293
87.858289 97.623 -170.7901
88.494946 97.591 -171.1485
89.136217 97.561 -171.5047
89.782135 97.533 -171.8584
90.432733 97.506 -172.2092
91.088046 97.480 -172.5567
91.748108 97.455 -172.9003
92.412952 97.430 -173.2396
93.082615 97.406 -173.5745
93.757130 97.382 -173.9050
94.436533 97.358 -174.2309
95.120859 97.332 -174.5525
95.810144 97.306 -174.8700
96.504423 97.277 -175.1838
97.203734 97.247 -175.4942
97.908112 97.215 -175.8014
98.617595 97.182 -176.1059
99.332219 97.146 -176.4079
100.052021 97.108 -176.7076
100.777039 97.069 -177.0054
101.507311 97.029 -177.3012
102.242875 96.989 -177.5951
102.983769 96.948 -177.8871
103.730032 96.908 -178.1772
104.481702 96.868 -178.4654
105.238820 96.829 -178.7515
106.001424 96.792 -179.0351
106.769554 96.755 -179.3156
107.543250 96.720 -179.5925
108.322553 96.686 -179.8652
109.107503 96.652 179.8667
109.898141 96.619 179.6037
110.694508 96.587 179.3459
111.496646 96.555 179.0935
112.304596 96.523 178.8464
113.118402 96.490 178.6041
113.938104 96.457 178.3658
114.763747 96.424 178.1308
115.595372 96.390 177.8983
116.433024 96.355 177.6675
117.276746 96.320 177.4378
118.126581 96.284 177.2086
118.982575 96.247 176.9794
119.844772 96.211 176.7501
120.713217 96.173 176.5205
121.587954 96.136 176.2910
122.469031 96.098 176.0624
123.356492 96.060 175.8356
124.250384 96.022 175.6120
125.150753 95.984 175.3929
126.057647 95.946 175.1797
126.971113 95.908 174.9728
127.891198 95.871 174.7723
128.817950 95.835 174.5779
129.751418 95.800 174.3887
130.691651 95.765 174.2042
131.638696 95.732 174.0239
132.592604 95.701 173.8476
133.553425 95.670 173.6752
134.521208 95.639 173.5065
135.496004 95.609 173.3415
136.477864 95.578 173.1802
137.466839 95.546 173.0228
138.462981 95.512 172.8693
139.466340 95.476 172.7201
140.476971 95.437 172.5755
141.494925 95.396 172.4361
142.520256 95.351 172.3025
143.553016 95.304 172.1754
144.593260 95.254 172.0556
145.641043 95.201 171.9439
146.696418 95.146 171.8412
147.759441 95.090 171.7485
148.830166 95.034 171.6667
149.908651 94.977 171.5963
150.994951 94.920 171.5375
152.089123 94.864 171.4903
153.191223 94.810 171.4539
154.301310 94.757 171.4272
155.419441 94.707 171.4093
156.545674 94.657 171.3994
157.680069 94.610 171.3968
158.822683 94.564 171.4019
159.973578 94.520 171.4153
161.132813 94.477 171.4380
162.300447 94.435 171.4711
163.476543 94.394 171.5159
164.661162 94.354 171.5738
165.854364 94.316 171.6457
167.056213 94.278 171.7322
168.266772 94.242 171.8333
169.486102 94.207 171.9489
170.714268 94.174 172.0781
171.951334 94.143 172.2200
173.197364 94.114 172.3731
174.452424 94.086 172.5359
175.716578 94.061 172.7066
176.989893 94.037 172.8833
178.272434 94.016 173.0638
179.564270 93.996 173.2457
180.865467 93.978 173.4263
182.176092 93.961 173.6030
183.496216 93.946 173.7736
184.825905 93.933 173.9361
186.165229 93.920 174.0894
187.514259 93.908 174.2324
188.873065 93.896 174.3638
190.241717 93.884 174.4826
191.620287 93.871 174.5875
193.008847 93.857 174.6776
194.407468 93.843 174.7523
195.816225 93.827 174.8113
197.235190 93.810 174.8544
198.664438 93.792 174.8820
200.104042 93.772 174.8942
201.554078 93.752 174.8920
203.014622 93.731 174.8759
204.485750 93.710 174.8469
205.967538 93.690 174.8057
207.460064 93.671 174.7533
208.963405 93.654 174.6903
210.477640 93.639 174.6177
212.002848 93.626 174.5363
213.539108 93.617 174.4475
215.086500 93.611 174.3522
216.645105 93.608 174.2518
218.215005 93.609 174.1475
219.796281 93.613 174.0402
221.389015 93.621 173.9306
222.993292 93.631 173.8194
224.609193 93.645 173.7070
226.236804 93.660 173.5939
227.876209 93.677 173.4808
229.527494 93.696 173.3686
231.190745 93.716 173.2581
232.866048 93.736 173.1505
234.553491 93.758 173.0463
236.253163 93.780 172.9460
237.965150 93.803 172.8496
239.689544 93.826 172.7565
241.426433 93.849 172.6659
243.175909 93.872 172.5770
244.938062 93.894 172.4891
246.712984 93.915 172.4019
248.500768 93.934 172.3149
250.301507 93.953 172.2285
252.115295 93.970 172.1428
253.942226 93.985 172.0582
255.782396 93.999 171.9748
257.635901 94.012 171.8928
259.502837 94.024 171.8129
261.383301 94.034 171.7356
263.277392 94.043 171.6623
265.185209 94.051 171.5938
267.106850 94.056 171.5311
269.042417 94.060 171.4744
270.992009 94.061 171.4237
272.955729 94.058 171.3785
274.933678 94.052 171.3383
276.925961 94.042 171.3022
278.932681 94.028 171.2690
280.953942 94.010 171.2379
282.989850 93.988 171.2075
285.040511 93.961 171.1772
287.106032 93.930 171.1465
289.186521 93.896 171.1152
291.282086 93.858 171.0836
293.392836 93.816 171.0519
295.518881 93.771 171.0208
297.660333 93.724 170.9908
299.817302 93.675 170.9627
301.989902 93.623 170.9365
304.178245 93.571 170.9123
306.382446 93.518 170.8895
308.602620 93.466 170.8677
310.838882 93.413 170.8464
313.091348 93.362 170.8252
315.360137 93.313 170.8039
317.645367 93.267 170.7820
319.947156 93.223 170.7593
322.265625 93.183 170.7356
324.600895 93.146 170.7106
326.953086 93.114 170.6843
329.322323 93.087 170.6566
331.708729 93.065 170.6275
334.112427 93.049 170.5967
336.533543 93.038 170.5642
338.972204 93.032 170.5298
341.428536 93.032 170.4938
343.902668 93.037 170.4563
346.394729 93.047 170.4176
348.904848 93.061 170.3784
351.433156 93.077 170.3397
353.979786 93.096 170.3029
356.544869 93.116 170.2703
359.128540 93.136 170.2440
361.730934 93.155 170.2259
364.352185 93.173 170.2169
366.992431 93.188 170.2163
369.651810 93.200 170.2225
372.330459 93.208 170.2331
375.028519 93.212 170.2454
377.746130 93.212 170.2574
380.483434 93.206 170.2678
383.240574 93.195 170.2759
386.017693 93.179 170.2822
388.814937 93.158 170.2874
391.632450 93.134 170.2925
394.470380 93.106 170.2988
397.328875 93.077 170.3072
400.208084 93.046 170.3185
403.108157 93.015 170.3334
406.029245 92.985 170.3524
408.971500 92.957 170.3755
411.935076 92.932 170.4025
414.920127 92.911 170.4331
417.926810 92.894 170.4668
420.955280 92.882 170.5032
424.005695 92.874 170.5421
427.078215 92.870 170.5831
430.173000 92.870 170.6262
433.290211 92.873 170.6711
436.430010 92.877 170.7178
439.592562 92.884 170.7664
442.778031 92.890 170.8169
445.986583 92.896 170.8696
449.218386 92.901 170.9245
452.473607 92.903 170.9816
455.752418 92.904 171.0405
459.054987 92.903 171.1009
462.381489 92.899 171.1623
465.732096 92.894 171.2250
469.106983 92.887 171.2891
472.506325 92.879 171.3550
475.930301 92.870 171.4231
479.379088 92.860 171.4932
482.852867 92.851 171.5652
486.351817 92.842 171.6389
489.876123 92.833 171.7137
493.425968 92.825 171.7893
497.001536 92.819 171.8652
500.603014 92.816 171.9409
504.230589 92.815 172.0163
507.884452 92.819 172.0909
511.564792 92.827 172.1647
515.271802 92.841 172.2372
519.005673 92.861 172.3083
522.766602 92.888 172.3775
526.554785 92.922 172.4446
530.370418 92.962 172.5091
534.213700 93.008 172.5709
538.084833 93.060 172.6299
541.984018 93.115 172.6859
545.911457 93.173 172.7390
549.867357 93.231 172.7891
553.851922 93.290 172.8361
557.865362 93.346 172.8802
561.907884 93.399 172.9213
565.979700 93.447 172.9598
570.081022 93.489 172.9959
574.212064 93.524 173.0297
578.373042 93.551 173.0612
582.564171 93.570 173.0898
586.785671 93.580 173.1146
591.037762 93.581 173.1348
595.320665 93.572 173.1497
599.634604 93.554 173.1585
603.979804 93.526 173.1614
608.356491 93.490 173.1584
612.764893 93.446 173.1499
617.205240 93.395 173.1362
621.677763 93.339 173.1177
626.182696 93.279 173.0946
630.720274 93.218 173.0669
635.290733 93.158 173.0346
639.894312 93.100 172.9974
644.531250 93.045 172.9554
649.201789 92.996 172.9084
653.906173 92.953 172.8565
658.644647 92.917 172.7999
663.417457 92.889 172.7387
668.224854 92.869 172.6730
673.067086 92.858 172.6028
677.944408 92.856 172.5278
682.857073 92.862 172.4480
687.805336 92.877 172.3632
692.789457 92.899 172.2732
697.809695 92.929 172.1780
702.866312 92.965 172.0777
707.959571 93.006 171.9728
713.089738 93.050 171.8640
718.257080 93.096 171.7521
723.461867 93.143 171.6383
728.704370 93.188 171.5237
733.984862 93.231 171.4091
739.303619 93.271 171.2950
744.660918 93.308 171.1813
750.057038 93.339 171.0673
755.492260 93.367 170.9520
760.966869 93.391 170.8341
766.481148 93.410 170.7125
772.035387 93.426 170.5865
777.629873 93.439 170.4560
783.264900 93.447 170.3214
788.940760 93.452 170.1834
794.657750 93.452 170.0426
800.416168 93.448 169.8996
806.216313 93.437 169.7549
812.058489 93.419 169.6085
817.943000 93.394 169.4608
823.870152 93.360 169.3121
829.840255 93.318 169.1633
835.853619 93.268 169.0154
841.910559 93.211 168.8694
848.011390 93.148 168.7261
854.156430 93.081 168.5858
860.346000 93.013 168.4487
866.580422 92.946 168.3141
872.860020 92.883 168.1816
879.185124 92.825 168.0508
885.556062 92.775 167.9213
891.973166 92.735 167.7925
898.436771 92.705 167.6639
904.947215 92.685 167.5352
911.504835 92.677 167.4055
918.109975 92.678 167.2744
924.762978 92.688 167.1414
931.464192 92.705 167.0061
938.213966 92.727 166.8683
945.012651 92.753 166.7280
951.860602 92.780 166.5854
958.758176 92.807 166.4410
965.705733 92.833 166.2955
972.703635 92.856 166.1503
979.752246 92.876 166.0068
986.851935 92.892 165.8667
994.003071 92.905 165.7308
1001.206027 92.916 165.5997
1008.461179 92.924 165.4729
1015.768904 92.932 165.3488
1023.129584 92.941 165.2255
1030.543603 92.950 165.1008
1038.011347 92.962 164.9728
1045.533205 92.977 164.8409
1053.109569 92.996 164.7050
1060.740836 93.018 164.5661
1068.427401 93.043 164.4256
1076.169666 93.072 164.2849
1083.968035 93.104 164.1454
1091.822915 93.137 164.0078
1099.734713 93.170 163.8725
1107.703844 93.202 163.7400
1115.730723 93.230 163.6110
1123.815768 93.254 163.4871
1131.959400 93.272 163.3701
1140.162045 93.284 163.2621
1148.424129 93.289 163.1650
1156.746083 93.288 163.0798
1165.128342 93.281 163.0064
1173.571343 93.271 162.9434
1182.075524 93.258 162.8889
1190.641331 93.244 162.8403
1199.269209 93.230 162.7956
1207.959608 93.218 162.7530
1216.712981 93.208 162.7114
1225.529785 93.202 162.6704
1234.410479 93.200 162.6304
1243.355526 93.202 162.5927
1252.365393 93.208 162.5591
1261.440549 93.217 162.5322
1270.581467 93.231 162.5148
1279.788624 93.247 162.5101
1289.062500 93.265 162.5210
1298.403578 93.286 162.5500
1307.812346 93.308 162.5983
1317.289293 93.331 162.6667
1326.834914 93.354 162.7556
1336.449707 93.377 162.8651
1346.134173 93.399 162.9952
1355.888816 93.420 163.1445
1365.714145 93.441 163.3107
1375.610673 93.459 163.4910
1385.578915 93.476 163.6822
1395.619391 93.491 163.8814
1405.732624 93.504 164.0864
1415.919142 93.515 164.2955
1426.179476 93.524 164.5081
1436.514160 93.530 164.7245
1446.923734 93.534 164.9456
1457.408740 93.536 165.1729
1467.969724 93.536 165.4082
1478.607238 93.535 165.6529
1489.321836 93.534 165.9080
1500.114076 93.531 166.1740
1510.984521 93.528 166.4512
1521.933737 93.524 166.7395
1532.962297 93.520 167.0375
1544.070773 93.516 167.3422
1555.259747 93.513 167.6490
1566.529800 93.509 167.9526
1577.881521 93.507 168.2482
1589.315501 93.504 168.5327
1600.832336 93.502 168.8051
1612.432627 93.501 169.0665
1624.116978 93.500 169.3183
1635.886000 93.501 169.5619
1647.740304 93.503 169.7972
1659.680509 93.507 170.0233
1671.707238 93.513 170.2382
1683.821118 93.521 170.4406
1696.022780 93.531 170.6291
1708.312860 93.541 170.8029
1720.692000 93.553 170.9606
1733.160843 93.566 171.1009
1745.720041 93.581 171.2227
1758.370248 93.596 171.3261
1771.112124 93.612 171.4131
1783.946332 93.629 171.4868
1796.873543 93.647 171.5502
1809.894429 93.667 171.6063
1823.009670 93.687 171.6571
1836.219950 93.709 171.7042
1849.525956 93.733 171.7485
1862.928384 93.756 171.7903
1876.427931 93.780 171.8288
1890.025301 93.804 171.8621
1903.721204 93.826 171.8872
1917.516352 93.847 171.9012
1931.411466 93.865 171.9016
1945.407270 93.880 171.8873
1959.504493 93.892 171.8585
1973.703870 93.900 171.8157
1988.006142 93.904 171.7600
2002.412054 93.906 171.6926
2016.922357 93.904 171.6151
2031.537808 93.901 171.5290
2046.259169 93.897 171.4356
2061.087206 93.892 171.3354
2076.022694 93.888 171.2279
2091.066410 93.885 171.1133
2106.219139 93.883 170.9928
2121.481671 93.883 170.8684
2136.854802 93.885 170.7425
2152.339333 93.889 170.6173
2167.936071 93.897 170.4948
2183.645829 93.908 170.3765
2199.469427 93.923 170.2639
2215.407689 93.943 170.1575
2231.461446 93.968 170.0577
2247.631536 93.999 169.9639
2263.918800 94.036 169.8759
2280.324089 94.078 169.7933
2296.848258 94.126 169.7162
2313.492167 94.180 169.6453
2330.256685 94.238 169.5820
2347.142685 94.301 169.5284
2364.151049 94.368 169.4869
2381.282662 94.439 169.4595
2398.538418 94.513 169.4473
2415.919216 94.591 169.4500
2433.425962 94.671 169.4656
2451.059570 94.753 169.4908
2468.820958 94.836 169.5215
2486.711052 94.920 169.5532
2504.730786 95.004 169.5811
2522.881098 95.086 169.6006
2541.162934 95.166 169.6070
2559.577248 95.243 169.5959
2578.125000 95.314 169.5631
2596.807157 95.380 169.5054
2615.624692 95.438 169.4203
2634.578586 95.488 169.3072
2653.669829 95.527 169.1671
2672.899414 95.556 169.0031
2692.268345 95.573 168.8204
2711.777632 95.576 168.6257
2731.428290 95.567 168.4269
2751.221345 95.544 168.2325
2771.157829 95.508 168.0515
2791.238781 95.459 167.8927
2811.465248 95.398 167.7647
2831.838284 95.326 167.6757
2852.358952 95.242 167.6336
2873.028321 95.150 167.6457
2893.847468 95.049 167.7185
2914.817480 94.941 167.8572
2935.939449 94.829 168.0656
2957.214476 94.713 168.3459
2978.643672 94.595 168.6980
3000.228152 94.478 169.1201
3021.969041 94.364 169.6085
3043.867475 94.253 170.1583
3065.924593 94.149 170.7637
3088.141547 94.051 171.4186
3110.519493 93.962 172.1169
3133.059600 93.884 172.8520
3155.763041 93.816 173.6158
3178.631001 93.762 174.3990
3201.664672 93.721 175.1896
3224.865254 93.695 175.9738
3248.233957 93.684 176.7364
3271.771999 93.689 177.4623
3295.480608 93.709 178.1379
3319.361019 93.742 178.7530
3343.414477 93.787 179.3006
3367.642236 93.844 179.7781
3392.045560 93.911 -179.8141
3416.625721 93.986 -179.4733
3441.383999 94.070 -179.1962
3466.321686 94.162 -178.9799
3491.440082 94.262 -178.8234
3516.740496 94.369 -178.7284
3542.224247 94.483 -178.6989
3567.892664 94.604 -178.7412
