* Measurement data measured by REW V5.31.3
* Source: EXCL: Headset (USB-C to 3.5mm Headphone Jack Adapter), MICROPHONE (Master Volume), 0, volume: 0.750
* Format: 256k Log Swept Sine, 1 sweep at -12.0 dBFS with no timing reference
* Dated: Apr 7, 2025 4:50:09 PM
* REW Settings:
*  C-weighting compensation: Off
*  Target level: 75.0 dB
* Note: ; 
* Measurement: Satyr 3 (Forward) R8
* Smoothing: 1/6 octave
* Frequency Step: 96 ppo
* Start Frequency: 20.0 Hz
*
* Freq(Hz) SPL(dB) Phase(degrees)
20.187378 80.177 -99.2784
20.333664 80.208 -99.3856
20.481010 80.251 -99.5296
20.629424 80.303 -99.7069
20.778913 80.365 -99.9139
20.929486 80.434 -100.1472
21.081150 80.511 -100.4040
21.233912 80.595 -100.6824
21.387782 80.684 -100.9811
21.542767 80.778 -101.2998
21.698874 80.876 -101.6381
21.856113 80.977 -101.9956
22.014492 81.080 -102.3714
22.174018 81.184 -102.7634
22.334700 81.287 -103.1685
22.496546 81.388 -103.5824
22.659566 81.487 -103.9997
22.823766 81.583 -104.4147
22.989157 81.676 -104.8216
23.155745 81.765 -105.2156
23.323542 81.852 -105.5934
23.492554 81.936 -105.9540
23.662790 82.018 -106.2989
23.834261 82.098 -106.6320
24.006973 82.178 -106.9597
24.180938 82.256 -107.2897
24.356163 82.332 -107.6304
24.532658 82.406 -107.9895
24.710431 82.477 -108.3733
24.889493 82.543 -108.7859
25.069853 82.604 -109.2283
25.251519 82.659 -109.6991
25.434502 82.707 -110.1942
25.618811 82.747 -110.7080
25.804456 82.782 -111.2336
25.991445 82.810 -111.7645
26.179790 82.833 -112.2949
26.369500 82.853 -112.8209
26.560584 82.871 -113.3402
26.753053 82.888 -113.8528
26.946917 82.907 -114.3602
27.142185 82.926 -114.8651
27.338869 82.948 -115.3703
27.536977 82.971 -115.8782
27.736522 82.996 -116.3898
27.937512 83.021 -116.9049
28.139959 83.047 -117.4218
28.343872 83.073 -117.9374
28.549264 83.098 -118.4485
28.756143 83.122 -118.9519
28.964522 83.146 -119.4452
29.174411 83.170 -119.9274
29.385821 83.195 -120.3990
29.598763 83.222 -120.8621
29.813248 83.250 -121.3197
30.029287 83.280 -121.7753
30.246891 83.313 -122.2322
30.466073 83.349 -122.6932
30.686842 83.388 -123.1602
30.909212 83.430 -123.6338
31.133193 83.475 -124.1138
31.358797 83.523 -124.5992
31.586035 83.574 -125.0888
31.814921 83.629 -125.5813
32.045465 83.687 -126.0755
32.277680 83.749 -126.5702
32.511577 83.815 -127.0644
32.747169 83.883 -127.5570
32.984469 83.955 -128.0466
33.223488 84.029 -128.5316
33.464239 84.105 -129.0098
33.706735 84.183 -129.4788
33.950987 84.262 -129.9362
34.197010 84.342 -130.3794
34.444816 84.423 -130.8065
34.694417 84.504 -131.2159
34.945827 84.586 -131.6070
35.199059 84.668 -131.9801
35.454126 84.750 -132.3366
35.711041 84.833 -132.6790
35.969818 84.916 -133.0109
36.230470 85.000 -133.3362
36.493011 85.084 -133.6590
36.757455 85.167 -133.9833
37.023814 85.250 -134.3119
37.292104 85.332 -134.6466
37.562338 85.412 -134.9876
37.834530 85.490 -135.3344
38.108695 85.566 -135.6856
38.384846 85.639 -136.0397
38.662999 85.710 -136.3958
38.943167 85.779 -136.7540
39.225365 85.845 -137.1156
39.509608 85.910 -137.4827
39.795911 85.974 -137.8582
40.084289 86.035 -138.2447
40.374756 86.095 -138.6445
40.667328 86.154 -139.0585
40.962020 86.211 -139.4859
41.258848 86.267 -139.9244
41.557827 86.321 -140.3702
41.858972 86.374 -140.8187
42.162299 86.425 -141.2644
42.467824 86.475 -141.7026
42.775564 86.522 -142.1294
43.085533 86.568 -142.5424
43.397749 86.612 -142.9418
43.712227 86.655 -143.3299
44.028983 86.696 -143.7117
44.348036 86.737 -144.0938
44.669400 86.777 -144.4842
44.993093 86.817 -144.8905
45.319131 86.858 -145.3195
45.647532 86.900 -145.7753
45.978313 86.942 -146.2590
46.311491 86.986 -146.7687
46.647083 87.029 -147.2994
46.985107 87.073 -147.8445
47.325581 87.116 -148.3966
47.668521 87.157 -148.9489
48.013947 87.197 -149.4960
48.361876 87.233 -150.0344
48.712326 87.266 -150.5626
49.065315 87.295 -151.0804
49.420863 87.319 -151.5890
49.778987 87.340 -152.0898
50.139706 87.356 -152.5848
50.503039 87.368 -153.0757
50.869005 87.378 -153.5640
51.237623 87.385 -154.0507
51.608912 87.389 -154.5360
51.982891 87.392 -155.0190
52.359580 87.393 -155.4978
52.739000 87.393 -155.9701
53.121168 87.391 -156.4334
53.506106 87.388 -156.8858
53.893833 87.383 -157.3267
54.284370 87.378 -157.7565
54.677737 87.373 -158.1761
55.073955 87.367 -158.5863
55.473043 87.361 -158.9876
55.875024 87.355 -159.3797
56.279917 87.348 -159.7622
56.687745 87.342 -160.1353
57.098527 87.336 -160.5005
57.512287 87.330 -160.8608
57.929045 87.325 -161.2200
58.348822 87.320 -161.5833
58.771642 87.318 -161.9564
59.197525 87.319 -162.3456
59.626495 87.325 -162.7565
60.058573 87.336 -163.1930
60.493782 87.354 -163.6554
60.932145 87.376 -164.1403
61.373685 87.402 -164.6407
61.818424 87.431 -165.1487
62.266386 87.461 -165.6567
62.717593 87.492 -166.1598
63.172071 87.522 -166.6553
63.629842 87.552 -167.1423
64.090930 87.581 -167.6209
64.555359 87.610 -168.0915
65.023154 87.639 -168.5541
65.494339 87.667 -169.0088
65.968938 87.695 -169.4554
66.446976 87.721 -169.8941
66.928478 87.747 -170.3252
67.413469 87.771 -170.7495
67.901975 87.793 -171.1682
68.394021 87.813 -171.5821
68.889632 87.831 -171.9922
69.388835 87.847 -172.3990
69.891655 87.860 -172.8033
70.398118 87.871 -173.2057
70.908252 87.880 -173.6074
71.422083 87.887 -174.0092
71.939636 87.893 -174.4115
72.460941 87.896 -174.8144
72.986023 87.897 -175.2171
73.514909 87.897 -175.6185
74.047629 87.894 -176.0174
74.584208 87.890 -176.4124
75.124676 87.884 -176.8028
75.669061 87.875 -177.1881
76.217390 87.865 -177.5685
76.769692 87.853 -177.9446
77.325997 87.839 -178.3168
77.886333 87.823 -178.6858
78.450730 87.805 -179.0519
79.019216 87.785 -179.4155
79.591822 87.764 -179.7765
80.168577 87.741 179.8648
80.749512 87.717 179.5085
81.334656 87.692 179.1544
81.924040 87.667 178.8022
82.517696 87.641 178.4518
83.115653 87.614 178.1030
83.717943 87.587 177.7563
84.324598 87.559 177.4123
84.935649 87.531 177.0717
85.551128 87.502 176.7355
86.171066 87.472 176.4043
86.795497 87.442 176.0783
87.424453 87.411 175.7576
88.057967 87.379 175.4419
88.696071 87.348 175.1312
89.338800 87.316 174.8253
89.986185 87.284 174.5242
90.638262 87.251 174.2281
91.295065 87.219 173.9368
91.956626 87.187 173.6503
92.622982 87.154 173.3684
93.294166 87.122 173.0911
93.970214 87.090 172.8180
94.651161 87.058 172.5488
95.337042 87.025 172.2827
96.027894 86.993 172.0192
96.723752 86.961 171.7573
97.424652 86.929 171.4966
98.130631 86.898 171.2370
98.841726 86.866 170.9783
99.557974 86.834 170.7206
100.279412 86.802 170.4641
101.006078 86.771 170.2088
101.738010 86.741 169.9551
102.475245 86.711 169.7036
103.217823 86.682 169.4545
103.965782 86.654 169.2084
104.719161 86.628 168.9651
105.477999 86.604 168.7244
106.242336 86.582 168.4855
107.012212 86.562 168.2479
107.787666 86.544 168.0113
108.568740 86.528 167.7758
109.355474 86.513 167.5417
110.147909 86.499 167.3091
110.946086 86.487 167.0783
111.750047 86.474 166.8493
112.559834 86.463 166.6222
113.375489 86.451 166.3975
114.197055 86.440 166.1755
115.024574 86.428 165.9570
115.858089 86.416 165.7425
116.697645 86.403 165.5322
117.543284 86.390 165.3262
118.395051 86.376 165.1241
119.252990 86.362 164.9251
120.117147 86.346 164.7281
120.987565 86.330 164.5317
121.864291 86.313 164.3353
122.747370 86.295 164.1381
123.636848 86.277 163.9400
124.532771 86.258 163.7411
125.435187 86.238 163.5418
126.344142 86.218 163.3425
127.259684 86.196 163.1435
128.181860 86.174 162.9450
129.110718 86.150 162.7471
130.046308 86.125 162.5500
130.988677 86.098 162.3546
131.937875 86.069 162.1621
132.893951 86.039 161.9743
133.856956 86.007 161.7933
134.826938 85.974 161.6208
135.803950 85.939 161.4579
136.788041 85.904 161.3048
137.779264 85.867 161.1610
138.777669 85.830 161.0255
139.783309 85.791 160.8970
140.796237 85.751 160.7744
141.816504 85.710 160.6567
142.844165 85.668 160.5439
143.879273 85.625 160.4358
144.921881 85.581 160.3331
145.972045 85.536 160.2366
147.029819 85.489 160.1474
148.095257 85.442 160.0667
149.168417 85.394 159.9960
150.249353 85.345 159.9365
151.338121 85.295 159.8892
152.434780 85.246 159.8550
153.539385 85.196 159.8344
154.651995 85.146 159.8277
155.772667 85.096 159.8347
156.901460 85.047 159.8554
158.038432 84.999 159.8894
159.183644 84.951 159.9366
160.337154 84.906 159.9968
161.499023 84.861 160.0699
162.669312 84.820 160.1555
163.848081 84.780 160.2534
165.035392 84.743 160.3630
166.231306 84.710 160.4835
167.435887 84.679 160.6138
168.649196 84.652 160.7524
169.871298 84.628 160.8976
171.102255 84.608 161.0473
172.342133 84.591 161.1993
173.590995 84.578 161.3514
174.848907 84.568 161.5015
176.115934 84.561 161.6472
177.392143 84.557 161.7865
178.677599 84.555 161.9176
179.972371 84.554 162.0387
181.276525 84.556 162.1484
182.590129 84.558 162.2455
183.913252 84.561 162.3289
185.245964 84.566 162.3975
186.588332 84.571 162.4502
187.940428 84.577 162.4860
189.302322 84.583 162.5035
190.674085 84.590 162.5020
192.055788 84.597 162.4809
193.447503 84.605 162.4404
194.849303 84.611 162.3816
196.261262 84.618 162.3063
197.683452 84.624 162.2164
199.115948 84.629 162.1139
200.558824 84.634 162.0001
202.012156 84.638 161.8765
203.476019 84.641 161.7447
204.950490 84.645 161.6065
206.435646 84.647 161.4643
207.931564 84.649 161.3199
209.438322 84.649 161.1750
210.955998 84.649 161.0303
212.484672 84.647 160.8857
214.024424 84.643 160.7413
215.575333 84.638 160.5966
217.137481 84.632 160.4515
218.710948 84.625 160.3057
220.295818 84.618 160.1591
221.892172 84.611 160.0115
223.500094 84.604 159.8624
225.119668 84.597 159.7116
226.750978 84.592 159.5590
228.394109 84.587 159.4050
230.049147 84.583 159.2501
231.716178 84.580 159.0950
233.395289 84.577 158.9403
235.086567 84.576 158.7861
236.790102 84.575 158.6328
238.505980 84.574 158.4805
240.234293 84.574 158.3297
241.975130 84.575 158.1807
243.728581 84.577 158.0336
245.494739 84.579 157.8881
247.273695 84.582 157.7438
249.065542 84.585 157.6004
250.870374 84.589 157.4572
252.688284 84.593 157.3137
254.519367 84.598 157.1698
256.363720 84.602 157.0255
258.221437 84.607 156.8814
260.092616 84.611 156.7386
261.977354 84.615 156.5984
263.875750 84.617 156.4622
265.787903 84.619 156.3315
267.713911 84.619 156.2079
269.653877 84.619 156.0928
271.607900 84.619 155.9871
273.576083 84.618 155.8908
275.558528 84.617 155.8026
277.555338 84.617 155.7205
279.566619 84.616 155.6420
281.592474 84.617 155.5651
283.633009 84.617 155.4879
285.688331 84.619 155.4086
287.758546 84.621 155.3266
289.843763 84.623 155.2416
291.944090 84.626 155.1541
294.059638 84.630 155.0652
296.190515 84.634 154.9762
298.336833 84.639 154.8881
300.498705 84.645 154.8016
302.676243 84.651 154.7168
304.869559 84.658 154.6335
307.078770 84.665 154.5513
309.303989 84.673 154.4694
311.545334 84.681 154.3867
313.802919 84.690 154.3022
316.076865 84.699 154.2146
318.367288 84.708 154.1228
320.674309 84.717 154.0263
322.998047 84.726 153.9251
325.338624 84.735 153.8199
327.696162 84.744 153.7120
330.070783 84.753 153.6031
332.462612 84.761 153.4949
334.871773 84.768 153.3891
337.298392 84.774 153.2870
339.742595 84.779 153.1896
342.204510 84.782 153.0974
344.684265 84.783 153.0103
347.181989 84.782 152.9276
349.697813 84.779 152.8487
352.231868 84.774 152.7722
354.784285 84.768 152.6968
357.355198 84.759 152.6208
359.944741 84.750 152.5430
362.553049 84.739 152.4620
365.180258 84.728 152.3770
367.826505 84.716 152.2874
370.491927 84.703 152.1935
373.176665 84.690 152.0961
375.880856 84.678 151.9964
378.604644 84.665 151.8959
381.348169 84.652 151.7956
384.111575 84.641 151.6962
386.895006 84.629 151.5981
389.698607 84.618 151.5014
392.522524 84.608 151.4063
395.366904 84.598 151.3125
398.231895 84.588 151.2198
401.117648 84.577 151.1277
404.024312 84.565 151.0356
406.952038 84.553 150.9429
409.900981 84.538 150.8492
412.871292 84.521 150.7543
415.863128 84.501 150.6591
418.876643 84.478 150.5650
421.911996 84.452 150.4752
424.969344 84.422 150.3934
428.048847 84.389 150.3243
431.150666 84.353 150.2722
434.274961 84.315 150.2399
437.421897 84.276 150.2277
440.591636 84.237 150.2329
443.784345 84.199 150.2502
447.000189 84.163 150.2730
450.239337 84.129 150.2953
453.501956 84.097 150.3121
456.788219 84.067 150.3206
460.098294 84.038 150.3196
463.432356 84.010 150.3093
466.790578 83.984 150.2907
470.173135 83.958 150.2651
473.580203 83.934 150.2338
477.011961 83.909 150.1981
480.468586 83.886 150.1591
483.950259 83.863 150.1177
487.457163 83.841 150.0745
490.989478 83.819 150.0303
494.547390 83.798 149.9857
498.131084 83.778 149.9409
501.740748 83.758 149.8966
505.376568 83.740 149.8532
509.038735 83.722 149.8113
512.727439 83.705 149.7715
516.442874 83.690 149.7343
520.185232 83.676 149.7002
523.954708 83.664 149.6698
527.751500 83.654 149.6431
531.575805 83.647 149.6196
535.427822 83.642 149.5987
539.307753 83.641 149.5794
543.215800 83.642 149.5607
547.152165 83.647 149.5418
551.117055 83.654 149.5219
555.110677 83.664 149.5004
559.133237 83.677 149.4770
563.184947 83.691 149.4512
567.266018 83.706 149.4229
571.376661 83.724 149.3919
575.517092 83.742 149.3582
579.687526 83.761 149.3216
583.888181 83.781 149.2823
588.119275 83.802 149.2403
592.381030 83.824 149.1956
596.673667 83.846 149.1479
600.997410 83.869 149.0970
605.352485 83.891 149.0424
609.739119 83.914 148.9838
614.157540 83.935 148.9208
618.607979 83.957 148.8528
623.090667 83.977 148.7797
627.605839 83.996 148.7013
632.153730 84.014 148.6176
636.734576 84.030 148.5287
641.348617 84.045 148.4347
645.996094 84.057 148.3354
650.677248 84.069 148.2306
655.392323 84.078 148.1202
660.141566 84.085 148.0045
664.925224 84.090 147.8842
669.743546 84.092 147.7606
674.596784 84.092 147.6355
679.485191 84.090 147.5115
684.409020 84.086 147.3912
689.368530 84.080 147.2768
694.363979 84.073 147.1699
699.395626 84.066 147.0703
704.463736 84.058 146.9767
709.568570 84.050 146.8858
714.710396 84.043 146.7944
719.889483 84.035 146.6992
725.106099 84.027 146.5978
730.360516 84.018 146.4892
735.653010 84.008 146.3729
740.983855 83.997 146.2493
746.353329 83.983 146.1190
751.761713 83.968 145.9830
757.209288 83.951 145.8421
762.696339 83.932 145.6973
768.223151 83.911 145.5493
773.790013 83.889 145.3990
779.397214 83.865 145.2473
785.045047 83.840 145.0947
790.733808 83.814 144.9414
796.463791 83.788 144.7877
802.235296 83.761 144.6335
808.048623 83.735 144.4791
813.904077 83.709 144.3242
819.801961 83.683 144.1689
825.742584 83.658 144.0128
831.726255 83.634 143.8552
837.753287 83.612 143.6950
843.823992 83.590 143.5311
849.938689 83.569 143.3620
856.097695 83.548 143.1869
862.301332 83.528 143.0050
868.549922 83.508 142.8163
874.843793 83.488 142.6215
881.183272 83.467 142.4218
887.568689 83.446 142.2191
894.000378 83.425 142.0157
900.478673 83.404 141.8135
907.003913 83.383 141.6141
913.576437 83.362 141.4185
920.196588 83.341 141.2268
926.864712 83.322 141.0392
933.581156 83.304 140.8552
940.346270 83.287 140.6744
947.160407 83.272 140.4963
954.023921 83.260 140.3204
960.937172 83.250 140.1456
967.900519 83.243 139.9706
974.914325 83.239 139.7937
981.978956 83.238 139.6124
989.094780 83.240 139.4243
996.262169 83.245 139.2270
1003.481495 83.251 139.0190
1010.753136 83.260 138.7999
1018.077470 83.269 138.5698
1025.454879 83.280 138.3299
1032.885748 83.290 138.0822
1040.370463 83.300 137.8288
1047.909417 83.310 137.5721
1055.503000 83.319 137.3147
1063.151610 83.328 137.0588
1070.855645 83.335 136.8063
1078.615506 83.341 136.5590
1086.431599 83.346 136.3181
1094.304330 83.350 136.0846
1102.234110 83.353 135.8593
1110.221353 83.355 135.6427
1118.266475 83.355 135.4351
1126.369895 83.355 135.2367
1134.532035 83.354 135.0478
1142.753322 83.351 134.8685
1151.034184 83.348 134.6993
1159.375052 83.344 134.5404
1167.776361 83.339 134.3923
1176.238550 83.334 134.2554
1184.762060 83.328 134.1296
1193.347334 83.321 134.0143
1201.994821 83.314 133.9086
1210.704971 83.308 133.8119
1219.478238 83.301 133.7238
1228.315080 83.293 133.6445
1237.215957 83.286 133.5743
1246.181334 83.280 133.5139
1255.211678 83.273 133.4637
1264.307459 83.267 133.4242
1273.469152 83.261 133.3954
1282.697235 83.257 133.3775
1291.992188 83.253 133.3699
1301.354495 83.250 133.3723
1310.784647 83.248 133.3838
1320.283132 83.247 133.4034
1329.850448 83.247 133.4304
1339.487093 83.248 133.4638
1349.193569 83.250 133.5031
1358.970381 83.253 133.5475
1368.818041 83.257 133.5963
1378.737061 83.263 133.6483
1388.727958 83.269 133.7027
1398.791253 83.277 133.7586
1408.927471 83.285 133.8161
1419.137140 83.295 133.8760
1429.420793 83.305 133.9404
1439.778965 83.317 134.0115
1450.212197 83.330 134.0917
1460.721033 83.345 134.1824
1471.306019 83.361 134.2839
1481.967709 83.379 134.3959
1492.706658 83.400 134.5173
1503.523426 83.422 134.6465
1514.418576 83.445 134.7816
1525.392678 83.469 134.9209
1536.446302 83.493 135.0633
1547.580025 83.517 135.2086
1558.794428 83.539 135.3581
1570.090095 83.559 135.5142
1581.467615 83.575 135.6805
1592.927581 83.589 135.8612
1604.470591 83.599 136.0604
1616.097246 83.606 136.2818
1627.808153 83.611 136.5283
1639.603922 83.614 136.8007
1651.485168 83.616 137.0979
1663.452510 83.619 137.4165
1675.506573 83.622 137.7512
1687.647984 83.626 138.0959
1699.877377 83.633 138.4445
1712.195390 83.640 138.7915
1724.602663 83.650 139.1321
1737.099845 83.660 139.4630
1749.687587 83.671 139.7817
1762.366544 83.683 140.0876
1775.137379 83.695 140.3812
1788.000756 83.706 140.6642
1800.957346 83.717 140.9390
1814.007826 83.726 141.2080
1827.152874 83.735 141.4731
1840.393177 83.744 141.7351
1853.729425 83.752 141.9935
1867.162312 83.760 142.2468
1880.692540 83.767 142.4924
1894.320813 83.774 142.7279
1908.047843 83.779 142.9515
1921.874344 83.783 143.1621
1935.801038 83.786 143.3599
1949.828650 83.786 143.5454
1963.957912 83.785 143.7192
1978.189561 83.781 143.8817
1992.524338 83.775 144.0325
2006.962991 83.767 144.1715
2021.506272 83.757 144.2981
2036.154940 83.745 144.4120
2050.909758 83.730 144.5134
2065.771495 83.714 144.6023
2080.740927 83.696 144.6786
2095.818833 83.677 144.7427
2111.006001 83.656 144.7951
2126.303220 83.633 144.8364
2141.711290 83.610 144.8674
2157.231013 83.585 144.8892
2172.863198 83.560 144.9025
2188.608660 83.534 144.9083
2204.468221 83.508 144.9072
2220.442706 83.482 144.8997
2236.532950 83.456 144.8857
2252.739789 83.430 144.8649
2269.064070 83.405 144.8365
2285.506644 83.380 144.7993
2302.068367 83.356 144.7524
2318.750104 83.333 144.6953
2335.552723 83.310 144.6273
2352.477101 83.288 144.5476
2369.524119 83.267 144.4552
2386.694668 83.247 144.3484
2403.989641 83.228 144.2254
2421.409941 83.209 144.0840
2438.956476 83.191 143.9228
2456.630160 83.172 143.7416
2474.431915 83.152 143.5420
2492.362668 83.131 143.3274
2510.423356 83.106 143.1030
2528.614918 83.079 142.8753
2546.938304 83.049 142.6512
2565.394469 83.015 142.4376
2583.984375 82.979 142.2406
2602.708991 82.941 142.0654
2621.569293 82.901 141.9160
2640.566265 82.861 141.7949
2659.700897 82.820 141.7035
2678.974186 82.779 141.6422
2698.387137 82.739 141.6106
2717.940763 82.700 141.6080
2737.636082 82.661 141.6340
2757.474121 82.624 141.6883
2777.455915 82.587 141.7717
2797.582506 82.550 141.8854
2817.854942 82.514 142.0312
2838.274281 82.478 142.2117
2858.841586 82.442 142.4299
2879.557931 82.405 142.6895
2900.424394 82.369 142.9946
2921.442065 82.332 143.3500
2942.612039 82.296 143.7601
2963.935418 82.261 144.2287
2985.413316 82.227 144.7587
3007.046852 82.195 145.3509
3028.837153 82.166 146.0043
3050.785356 82.141 146.7157
3072.892604 82.121 147.4796
3095.160050 82.105 148.2884
3117.588856 82.096 149.1331
3140.180190 82.092 150.0035
3162.935230 82.094 150.8882
3185.855163 82.101 151.7755
3208.941182 82.113 152.6536
3232.194493 82.130 153.5117
3255.616307 82.149 154.3400
3279.207844 82.171 155.1311
3302.970336 82.193 155.8799
3326.905021 82.216 156.5840
3351.013146 82.237 157.2438
3375.295969 82.256 157.8616
3399.754755 82.273 158.4412
3424.390779 82.288 158.9863
3449.205326 82.302 159.4989
3474.199690 82.315 159.9781
3499.375173 82.329 160.4200
3524.733088 82.343 160.8178
3550.274757 82.360 161.1630
