* Measurement data measured by REW V5.31.3
* Source: EXCL: Headset (USB-C to 3.5mm Headphone Jack Adapter), MICROPHONE (Master Volume), 0, volume: 0.260
* Format: 256k Log Swept Sine, 1 sweep at -12.0 dBFS with no timing reference
* Dated: Mar 7, 2025 11:58:13 AM
* REW Settings:
*  C-weighting compensation: Off
*  Target level: 75.0 dB
* Note: ; 
* Measurement: Massive Mod V1 R10
* Smoothing: 1/6 octave
* Frequency Step: 96 ppo
* Start Frequency: 20.0 Hz
*
* Freq(Hz) SPL(dB) Phase(degrees)
20.141602 94.364 -41.9767
20.287556 94.373 -42.2224
20.434568 94.385 -42.5521
20.582645 94.398 -42.9577
20.731796 94.414 -43.4306
20.882027 94.430 -43.9623
21.033346 94.447 -44.5450
21.185763 94.465 -45.1715
21.339284 94.483 -45.8350
21.493917 94.502 -46.5294
21.649671 94.522 -47.2489
21.806553 94.544 -47.9876
21.964572 94.569 -48.7403
22.123737 94.598 -49.5018
22.284054 94.630 -50.2675
22.445534 94.668 -51.0333
22.608183 94.710 -51.7960
22.772012 94.757 -52.5531
22.937027 94.809 -53.3029
23.103238 94.864 -54.0444
23.270654 94.922 -54.7769
23.439282 94.981 -55.5002
23.609133 95.039 -56.2140
23.780215 95.097 -56.9179
23.952536 95.151 -57.6112
24.126106 95.201 -58.2935
24.300934 95.246 -58.9641
24.477028 95.286 -59.6228
24.654399 95.322 -60.2701
24.833055 95.354 -60.9072
25.013005 95.383 -61.5365
25.194260 95.410 -62.1614
25.376828 95.438 -62.7862
25.560719 95.467 -63.4154
25.745942 95.499 -64.0539
25.932508 95.535 -64.7055
26.120426 95.576 -65.3732
26.309705 95.621 -66.0583
26.500356 95.670 -66.7603
26.692388 95.724 -67.4771
26.885812 95.781 -68.2052
27.080638 95.841 -68.9402
27.276876 95.903 -69.6777
27.474535 95.965 -70.4133
27.673627 96.027 -71.1432
27.874161 96.087 -71.8648
28.076149 96.145 -72.5765
28.279600 96.199 -73.2773
28.484526 96.250 -73.9674
28.690937 96.295 -74.6469
28.898843 96.337 -75.3168
29.108256 96.373 -75.9779
29.319186 96.406 -76.6317
29.531645 96.436 -77.2799
29.745644 96.464 -77.9248
29.961193 96.492 -78.5689
30.178304 96.521 -79.2156
30.396989 96.551 -79.8679
30.617258 96.583 -80.5285
30.839123 96.619 -81.1995
31.062596 96.657 -81.8818
31.287688 96.698 -82.5747
31.514412 96.742 -83.2767
31.742778 96.789 -83.9850
31.972800 96.838 -84.6964
32.204488 96.891 -85.4075
32.437855 96.947 -86.1149
32.672913 97.008 -86.8156
32.909674 97.072 -87.5069
33.148151 97.142 -88.1862
33.388356 97.216 -88.8511
33.630302 97.294 -89.4990
33.874001 97.377 -90.1276
34.119466 97.462 -90.7348
34.366710 97.550 -91.3194
34.615745 97.640 -91.8817
34.866585 97.729 -92.4233
35.119243 97.818 -92.9477
35.373731 97.905 -93.4596
35.630064 97.988 -93.9647
35.888254 98.067 -94.4690
36.148315 98.141 -94.9776
36.410261 98.209 -95.4946
36.674104 98.271 -96.0224
36.939860 98.328 -96.5617
37.207542 98.378 -97.1122
37.477163 98.424 -97.6726
37.748738 98.465 -98.2418
38.022281 98.503 -98.8187
38.297806 98.539 -99.4032
38.575327 98.573 -99.9960
38.854860 98.605 -100.5982
39.136419 98.636 -101.2115
39.420017 98.665 -101.8374
39.705671 98.692 -102.4767
39.993395 98.717 -103.1296
40.283203 98.740 -103.7954
40.575112 98.761 -104.4728
40.869136 98.779 -105.1597
41.165290 98.795 -105.8540
41.463591 98.810 -106.5537
41.764053 98.824 -107.2571
42.066693 98.837 -107.9628
42.371525 98.851 -108.6702
42.678567 98.865 -109.3788
42.987834 98.880 -110.0885
43.299341 98.897 -110.7994
43.613106 98.916 -111.5114
43.929145 98.938 -112.2248
44.247473 98.962 -112.9397
44.568109 98.988 -113.6562
44.891068 99.017 -114.3745
45.216367 99.048 -115.0945
45.544023 99.080 -115.8162
45.874054 99.113 -116.5392
46.206476 99.148 -117.2635
46.541307 99.183 -117.9885
46.878565 99.219 -118.7141
47.218266 99.256 -119.4400
47.560429 99.294 -120.1662
47.905072 99.332 -120.8925
48.252212 99.370 -121.6194
48.601867 99.408 -122.3474
48.954056 99.446 -123.0773
49.308798 99.483 -123.8106
49.666109 99.519 -124.5485
50.026010 99.553 -125.2922
50.388520 99.586 -126.0421
50.753656 99.617 -126.7978
51.121437 99.646 -127.5581
51.491884 99.673 -128.3207
51.865016 99.698 -129.0834
52.240851 99.721 -129.8437
52.619410 99.743 -130.5997
53.000712 99.762 -131.3505
53.384777 99.779 -132.0958
53.771625 99.795 -132.8362
54.161276 99.807 -133.5730
54.553751 99.818 -134.3077
54.949070 99.825 -135.0415
55.347254 99.830 -135.7753
55.748323 99.831 -136.5097
56.152298 99.830 -137.2447
56.559201 99.826 -137.9804
56.969052 99.820 -138.7163
57.381873 99.813 -139.4516
57.797686 99.805 -140.1850
58.216512 99.796 -140.9140
58.638373 99.789 -141.6353
59.063291 99.782 -142.3446
59.491288 99.777 -143.0377
59.922386 99.772 -143.7115
60.356608 99.769 -144.3647
60.793977 99.767 -144.9985
61.234515 99.765 -145.6161
61.678246 99.763 -146.2223
62.125192 99.760 -146.8221
62.575377 99.755 -147.4196
63.028824 99.749 -148.0176
63.485557 99.741 -148.6171
63.945599 99.731 -149.2175
64.408975 99.719 -149.8174
64.875709 99.704 -150.4146
65.345825 99.688 -151.0073
65.819348 99.669 -151.5943
66.296302 99.649 -152.1750
66.776713 99.628 -152.7500
67.260604 99.605 -153.3203
67.748002 99.582 -153.8872
68.238932 99.559 -154.4518
68.733420 99.535 -155.0148
69.231490 99.511 -155.5763
69.733170 99.487 -156.1363
70.238485 99.463 -156.6940
70.747463 99.439 -157.2486
71.260128 99.415 -157.7992
71.776508 99.391 -158.3448
72.296630 99.367 -158.8849
72.820521 99.343 -159.4190
73.348209 99.318 -159.9472
73.879720 99.293 -160.4695
74.415083 99.268 -160.9862
74.954326 99.242 -161.4979
75.497475 99.215 -162.0049
76.044561 99.188 -162.5077
76.595612 99.160 -163.0067
77.150655 99.130 -163.5019
77.709720 99.100 -163.9933
78.272837 99.069 -164.4804
78.840034 99.036 -164.9626
79.411342 99.003 -165.4393
79.986789 98.969 -165.9094
80.566406 98.935 -166.3723
81.150224 98.900 -166.8277
81.738272 98.865 -167.2755
82.330581 98.829 -167.7162
82.927182 98.793 -168.1503
83.528107 98.757 -168.5787
84.133386 98.721 -169.0023
84.743051 98.685 -169.4216
85.357134 98.649 -169.8372
85.975667 98.614 -170.2493
86.598682 98.580 -170.6577
87.226212 98.546 -171.0625
87.858289 98.513 -171.4630
88.494946 98.481 -171.8588
89.136217 98.451 -172.2492
89.782135 98.421 -172.6338
90.432733 98.393 -173.0121
91.088046 98.366 -173.3840
91.748108 98.340 -173.7496
92.412952 98.315 -174.1092
93.082615 98.291 -174.4629
93.757130 98.266 -174.8111
94.436533 98.240 -175.1537
95.120859 98.213 -175.4906
95.810144 98.185 -175.8214
96.504423 98.154 -176.1460
97.203734 98.120 -176.4645
97.908112 98.084 -176.7772
98.617595 98.046 -177.0847
99.332219 98.005 -177.3870
100.052021 97.963 -177.6842
100.777039 97.920 -177.9762
101.507311 97.876 -178.2628
102.242875 97.831 -178.5440
102.983769 97.786 -178.8198
103.730032 97.741 -179.0901
104.481702 97.697 -179.3553
105.238820 97.654 -179.6159
106.001424 97.612 -179.8727
106.769554 97.572 179.8734
107.543250 97.533 179.6209
108.322553 97.496 179.3694
109.107503 97.461 179.1183
109.898141 97.428 178.8681
110.694508 97.395 178.6193
111.496646 97.364 178.3724
112.304596 97.333 178.1277
113.118402 97.302 177.8851
113.938104 97.270 177.6440
114.763747 97.238 177.4036
115.595372 97.205 177.1636
116.433024 97.170 176.9238
117.276746 97.135 176.6849
118.126581 97.098 176.4485
118.982575 97.061 176.2162
119.844772 97.023 175.9894
120.713217 96.985 175.7691
121.587954 96.947 175.5556
122.469031 96.909 175.3483
123.356492 96.872 175.1464
124.250384 96.835 174.9486
125.150753 96.799 174.7543
126.057647 96.764 174.5627
126.971113 96.730 174.3732
127.891198 96.696 174.1852
128.817950 96.664 173.9979
129.751418 96.632 173.8106
130.691651 96.601 173.6228
131.638696 96.570 173.4344
132.592604 96.540 173.2459
133.553425 96.510 173.0579
134.521208 96.481 172.8711
135.496004 96.451 172.6863
136.477864 96.421 172.5043
137.466839 96.390 172.3260
138.462981 96.358 172.1520
139.466340 96.324 171.9829
140.476971 96.287 171.8195
141.494925 96.248 171.6619
142.520256 96.206 171.5105
143.553016 96.161 171.3651
144.593260 96.113 171.2257
145.641043 96.063 171.0923
146.696418 96.011 170.9648
147.759441 95.957 170.8436
148.830166 95.902 170.7288
149.908651 95.846 170.6210
150.994951 95.791 170.5211
152.089123 95.736 170.4299
153.191223 95.683 170.3489
154.301310 95.630 170.2798
155.419441 95.579 170.2242
156.545674 95.529 170.1838
157.680069 95.480 170.1596
158.822683 95.432 170.1525
159.973578 95.385 170.1624
161.132813 95.338 170.1888
162.300447 95.291 170.2310
163.476543 95.246 170.2878
164.661162 95.201 170.3582
165.854364 95.157 170.4415
167.056213 95.115 170.5369
168.266772 95.074 170.6439
169.486102 95.036 170.7617
170.714268 94.999 170.8896
171.951334 94.965 171.0269
173.197364 94.933 171.1725
174.452424 94.904 171.3251
175.716578 94.877 171.4831
176.989893 94.853 171.6448
178.272434 94.831 171.8088
179.564270 94.811 171.9736
180.865467 94.793 172.1378
182.176092 94.777 172.3000
183.496216 94.762 172.4586
184.825905 94.749 172.6120
186.165229 94.736 172.7583
187.514259 94.723 172.8958
188.873065 94.711 173.0227
190.241717 94.699 173.1378
191.620287 94.686 173.2400
193.008847 94.672 173.3283
194.407468 94.658 173.4017
195.816225 94.642 173.4594
197.235190 94.625 173.5002
198.664438 94.607 173.5238
200.104042 94.587 173.5302
201.554078 94.568 173.5201
203.014622 94.547 173.4949
204.485750 94.527 173.4559
205.967538 94.507 173.4045
207.460064 94.487 173.3419
208.963405 94.469 173.2695
210.477640 94.452 173.1885
212.002848 94.438 173.0999
213.539108 94.425 173.0046
215.086500 94.415 172.9031
216.645105 94.409 172.7964
218.215005 94.405 172.6855
219.796281 94.404 172.5722
221.389015 94.406 172.4580
222.993292 94.412 172.3445
224.609193 94.420 172.2333
226.236804 94.431 172.1254
227.876209 94.444 172.0218
229.527494 94.459 171.9228
231.190745 94.475 171.8284
232.866048 94.493 171.7382
234.553491 94.512 171.6513
236.253163 94.531 171.5672
237.965150 94.552 171.4856
239.689544 94.572 171.4064
241.426433 94.592 171.3298
243.175909 94.612 171.2561
244.938062 94.631 171.1852
246.712984 94.648 171.1170
248.500768 94.665 171.0510
250.301507 94.680 170.9868
252.115295 94.694 170.9243
253.942226 94.706 170.8637
255.782396 94.717 170.8054
257.635901 94.726 170.7498
259.502837 94.735 170.6970
261.383301 94.742 170.6468
263.277392 94.748 170.5985
265.185209 94.752 170.5512
267.106850 94.755 170.5040
269.042417 94.757 170.4561
270.992009 94.757 170.4072
272.955729 94.754 170.3571
274.933678 94.750 170.3058
276.925961 94.743 170.2534
278.932681 94.732 170.2001
280.953942 94.718 170.1465
282.989850 94.699 170.0931
285.040511 94.676 170.0409
287.106032 94.648 169.9906
289.186521 94.615 169.9431
291.282086 94.577 169.8993
293.392836 94.535 169.8599
295.518881 94.489 169.8250
297.660333 94.439 169.7946
299.817302 94.387 169.7682
301.989902 94.334 169.7457
304.178245 94.279 169.7261
306.382446 94.223 169.7086
308.602620 94.168 169.6924
310.838882 94.113 169.6766
313.091348 94.060 169.6605
315.360137 94.009 169.6437
317.645367 93.961 169.6259
319.947156 93.916 169.6071
322.265625 93.875 169.5878
324.600895 93.839 169.5683
326.953086 93.807 169.5490
329.322323 93.780 169.5299
331.708729 93.758 169.5112
334.112427 93.742 169.4928
336.533543 93.731 169.4742
338.972204 93.724 169.4548
341.428536 93.723 169.4341
343.902668 93.726 169.4119
346.394729 93.733 169.3882
348.904848 93.744 169.3633
351.433156 93.757 169.3381
353.979786 93.773 169.3134
356.544869 93.790 169.2907
359.128540 93.808 169.2712
361.730934 93.826 169.2563
364.352185 93.842 169.2470
366.992431 93.857 169.2440
369.651810 93.869 169.2471
372.330459 93.877 169.2557
375.028519 93.881 169.2689
377.746130 93.880 169.2855
380.483434 93.874 169.3043
383.240574 93.863 169.3245
386.017693 93.847 169.3455
388.814937 93.827 169.3671
391.632450 93.802 169.3895
394.470380 93.775 169.4127
397.328875 93.745 169.4371
400.208084 93.715 169.4629
403.108157 93.684 169.4899
406.029245 93.654 169.5182
408.971500 93.627 169.5475
411.935076 93.603 169.5778
414.920127 93.582 169.6090
417.926810 93.565 169.6414
420.955280 93.553 169.6754
424.005695 93.546 169.7114
427.078215 93.542 169.7501
430.173000 93.543 169.7919
433.290211 93.546 169.8371
436.430010 93.552 169.8857
439.592562 93.558 169.9372
442.778031 93.565 169.9911
445.986583 93.572 170.0464
449.218386 93.577 170.1024
452.473607 93.581 170.1583
455.752418 93.583 170.2138
459.054987 93.583 170.2685
462.381489 93.581 170.3220
465.732096 93.576 170.3744
469.106983 93.571 170.4259
472.506325 93.564 170.4769
475.930301 93.556 170.5280
479.379088 93.547 170.5800
482.852867 93.537 170.6334
486.351817 93.528 170.6887
489.876123 93.519 170.7463
493.425968 93.510 170.8063
497.001536 93.503 170.8683
500.603014 93.499 170.9320
504.230589 93.497 170.9966
507.884452 93.499 171.0619
511.564792 93.506 171.1271
515.271802 93.518 171.1920
519.005673 93.537 171.2559
522.766602 93.562 171.3184
526.554785 93.594 171.3788
530.370418 93.634 171.4367
534.213700 93.679 171.4915
538.084833 93.730 171.5425
541.984018 93.784 171.5896
545.911457 93.842 171.6325
549.867357 93.900 171.6713
553.851922 93.958 171.7063
557.865362 94.014 171.7380
561.907884 94.065 171.7671
565.979700 94.112 171.7938
570.081022 94.153 171.8186
574.212064 94.187 171.8412
578.373042 94.213 171.8613
582.564171 94.230 171.8784
586.785671 94.238 171.8917
591.037762 94.237 171.9009
595.320665 94.226 171.9054
599.634604 94.206 171.9051
603.979804 94.175 171.9001
608.356491 94.136 171.8903
612.764893 94.089 171.8759
617.205240 94.035 171.8573
621.677763 93.975 171.8345
626.182696 93.913 171.8080
630.720274 93.848 171.7777
635.290733 93.783 171.7438
639.894312 93.721 171.7064
644.531250 93.662 171.6657
649.201789 93.608 171.6221
653.906173 93.560 171.5761
658.644647 93.520 171.5277
663.417457 93.487 171.4771
668.224854 93.463 171.4239
673.067086 93.448 171.3677
677.944408 93.442 171.3080
682.857073 93.444 171.2439
687.805336 93.455 171.1747
692.789457 93.475 171.0997
697.809695 93.501 171.0187
702.866312 93.534 170.9318
707.959571 93.572 170.8398
713.089738 93.614 170.7439
718.257080 93.658 170.6454
723.461867 93.702 170.5456
728.704370 93.746 170.4458
733.984862 93.787 170.3465
739.303619 93.825 170.2478
744.660918 93.860 170.1490
750.057038 93.891 170.0491
755.492260 93.917 169.9465
760.966869 93.940 169.8402
766.481148 93.958 169.7292
772.035387 93.972 169.6131
777.629873 93.983 169.4921
783.264900 93.991 169.3669
788.940760 93.994 169.2382
794.657750 93.992 169.1071
800.416168 93.986 168.9745
806.216313 93.973 168.8407
812.058489 93.953 168.7061
817.943000 93.926 168.5709
823.870152 93.890 168.4351
829.840255 93.846 168.2991
835.853619 93.794 168.1633
841.910559 93.734 168.0283
848.011390 93.669 167.8942
854.156430 93.600 167.7614
860.346000 93.529 167.6300
866.580422 93.460 167.5001
872.860020 93.393 167.3718
879.185124 93.333 167.2451
885.556062 93.280 167.1203
891.973166 93.237 166.9974
898.436771 93.205 166.8763
904.947215 93.183 166.7571
911.504835 93.172 166.6395
918.109975 93.171 166.5235
924.762978 93.179 166.4088
931.464192 93.194 166.2951
938.213966 93.214 166.1821
945.012651 93.238 166.0691
951.860602 93.263 165.9556
958.758176 93.289 165.8413
965.705733 93.314 165.7261
972.703635 93.336 165.6105
979.752246 93.356 165.4957
986.851935 93.373 165.3823
994.003071 93.386 165.2710
1001.206027 93.398 165.1616
1008.461179 93.408 165.0533
1015.768904 93.417 164.9444
1023.129584 93.427 164.8331
1030.543603 93.438 164.7178
1038.011347 93.451 164.5975
1045.533205 93.467 164.4723
1053.109569 93.487 164.3428
1060.740836 93.510 164.2106
1068.427401 93.536 164.0774
1076.169666 93.565 163.9449
1083.968035 93.597 163.8143
1091.822915 93.630 163.6863
1099.734713 93.662 163.5614
1107.703844 93.693 163.4400
1115.730723 93.721 163.3231
1123.815768 93.744 163.2123
1131.959400 93.762 163.1099
1140.162045 93.773 163.0180
1148.424129 93.777 162.9388
1156.746083 93.775 162.8735
1165.128342 93.768 162.8224
1173.571343 93.757 162.7848
1182.075524 93.743 162.7592
1190.641331 93.729 162.7435
1199.269209 93.716 162.7357
1207.959608 93.705 162.7332
1216.712981 93.697 162.7338
1225.529785 93.694 162.7355
1234.410479 93.696 162.7366
1243.355526 93.703 162.7364
1252.365393 93.714 162.7350
1261.440549 93.730 162.7338
1270.581467 93.750 162.7347
1279.788624 93.773 162.7407
1289.062500 93.798 162.7553
1298.403578 93.824 162.7821
1307.812346 93.851 162.8243
1317.289293 93.877 162.8847
1326.834914 93.903 162.9660
1336.449707 93.928 163.0702
1346.134173 93.952 163.1982
1355.888816 93.974 163.3497
1365.714145 93.996 163.5226
1375.610673 94.016 163.7143
1385.578915 94.034 163.9213
1395.619391 94.052 164.1403
1405.732624 94.068 164.3683
1415.919142 94.082 164.6023
1426.179476 94.096 164.8397
1436.514160 94.108 165.0783
1446.923734 94.119 165.3166
1457.408740 94.129 165.5540
1467.969724 94.138 165.7911
1478.607238 94.145 166.0291
1489.321836 94.151 166.2697
1500.114076 94.156 166.5154
1510.984521 94.159 166.7686
1521.933737 94.160 167.0316
1532.962297 94.161 167.3051
1544.070773 94.161 167.5878
1555.259747 94.161 167.8762
1566.529800 94.162 168.1650
1577.881521 94.163 168.4484
1589.315501 94.166 168.7215
1600.832336 94.169 168.9810
1612.432627 94.174 169.2249
1624.116978 94.180 169.4529
1635.886000 94.187 169.6651
1647.740304 94.196 169.8617
1659.680509 94.206 170.0431
1671.707238 94.217 170.2098
1683.821118 94.229 170.3626
1696.022780 94.242 170.5023
1708.312860 94.255 170.6295
1720.692000 94.270 170.7442
1733.160843 94.285 170.8456
1745.720041 94.301 170.9324
1758.370248 94.319 171.0041
1771.112124 94.338 171.0605
1783.946332 94.360 171.1019
1796.873543 94.383 171.1286
1809.894429 94.408 171.1407
1823.009670 94.434 171.1383
1836.219950 94.461 171.1223
1849.525956 94.488 171.0937
1862.928384 94.515 171.0544
1876.427931 94.540 171.0059
1890.025301 94.564 170.9491
1903.721204 94.584 170.8840
1917.516352 94.602 170.8104
1931.411466 94.615 170.7278
1945.407270 94.624 170.6368
1959.504493 94.629 170.5381
1973.703870 94.629 170.4326
1988.006142 94.626 170.3211
2002.412054 94.619 170.2047
2016.922357 94.609 170.0848
2031.537808 94.597 169.9626
2046.259169 94.584 169.8392
2061.087206 94.571 169.7144
2076.022694 94.559 169.5870
2091.066410 94.548 169.4564
2106.219139 94.539 169.3222
2121.481671 94.533 169.1854
2136.854802 94.528 169.0471
2152.339333 94.527 168.9090
2167.936071 94.529 168.7729
2183.645829 94.535 168.6408
2199.469427 94.545 168.5151
2215.407689 94.560 168.3973
2231.461446 94.580 168.2887
2247.631536 94.606 168.1894
2263.918800 94.638 168.0989
2280.324089 94.677 168.0164
2296.848258 94.722 167.9404
2313.492167 94.774 167.8696
2330.256685 94.831 167.8028
2347.142685 94.894 167.7399
2364.151049 94.960 167.6816
2381.282662 95.031 167.6293
2398.538418 95.104 167.5845
2415.919216 95.180 167.5477
2433.425962 95.257 167.5191
2451.059570 95.335 167.4974
2468.820958 95.414 167.4803
2486.711052 95.492 167.4649
2504.730786 95.569 167.4474
2522.881098 95.644 167.4238
2541.162934 95.716 167.3899
2559.577248 95.783 167.3417
2578.125000 95.846 167.2760
2596.807157 95.901 167.1902
2615.624692 95.949 167.0829
2634.578586 95.988 166.9543
2653.669829 96.016 166.8058
2672.899414 96.034 166.6407
2692.268345 96.040 166.4635
2711.777632 96.034 166.2801
2731.428290 96.015 166.0969
2751.221345 95.984 165.9212
2771.157829 95.940 165.7601
2791.238781 95.884 165.6211
2811.465248 95.816 165.5112
2831.838284 95.738 165.4376
2852.358952 95.649 165.4073
2873.028321 95.551 165.4272
2893.847468 95.444 165.5044
2914.817480 95.330 165.6451
2935.939449 95.211 165.8550
2957.214476 95.087 166.1380
2978.643672 94.961 166.4962
3000.228152 94.835 166.9295
3021.969041 94.711 167.4355
3043.867475 94.591 168.0098
3065.924593 94.477 168.6463
3088.141547 94.370 169.3384
3110.519493 94.273 170.0788
3133.059600 94.186 170.8597
3155.763041 94.111 171.6724
3178.631001 94.050 172.5069
3201.664672 94.003 173.3512
3224.865254 93.972 174.1913
3248.233957 93.957 175.0116
3271.771999 93.958 175.7966
3295.480608 93.975 176.5317
3319.361019 94.007 177.2050
3343.414477 94.052 177.8084
3367.642236 94.109 178.3379
3392.045560 94.177 178.7932
3416.625721 94.254 179.1769
3441.383999 94.340 179.4925
3466.321686 94.433 179.7436
3491.440082 94.534 179.9319
3516.740496 94.643 -179.9434
3542.224247 94.758 -179.8855
3567.892664 94.880 -179.8997
