* Measurement data measured by REW V5.31.3
* Source: EXCL: Headset (USB-C to 3.5mm Headphone Jack Adapter), MICROPHONE (Master Volume), 0, volume: 0.750
* Format: 256k Log Swept Sine, 1 sweep at -12.0 dBFS with no timing reference
* Dated: Apr 7, 2025 4:39:53 PM
* REW Settings:
*  C-weighting compensation: Off
*  Target level: 75.0 dB
* Note: ; 
* Measurement: Satyr 3 (Forward) L7
* Smoothing: 1/6 octave
* Frequency Step: 96 ppo
* Start Frequency: 20.0 Hz
*
* Freq(Hz) SPL(dB) Phase(degrees)
20.187378 80.318 -98.6786
20.333664 80.366 -98.8007
20.481010 80.431 -98.9616
20.629424 80.511 -99.1537
20.778913 80.605 -99.3695
20.929486 80.712 -99.6021
21.081150 80.828 -99.8460
21.233912 80.954 -100.0974
21.387782 81.085 -100.3545
21.542767 81.221 -100.6168
21.698874 81.358 -100.8853
21.856113 81.496 -101.1619
22.014492 81.632 -101.4488
22.174018 81.764 -101.7486
22.334700 81.890 -102.0637
22.496546 82.010 -102.3957
22.659566 82.121 -102.7459
22.823766 82.225 -103.1147
22.989157 82.319 -103.5016
23.155745 82.404 -103.9057
23.323542 82.480 -104.3253
23.492554 82.548 -104.7583
23.662790 82.608 -105.2025
23.834261 82.662 -105.6554
24.006973 82.710 -106.1146
24.180938 82.755 -106.5781
24.356163 82.795 -107.0438
24.532658 82.833 -107.5099
24.710431 82.869 -107.9748
24.889493 82.903 -108.4369
25.069853 82.935 -108.8946
25.251519 82.965 -109.3465
25.434502 82.993 -109.7911
25.618811 83.018 -110.2270
25.804456 83.041 -110.6531
25.991445 83.062 -111.0690
26.179790 83.080 -111.4748
26.369500 83.096 -111.8715
26.560584 83.111 -112.2613
26.753053 83.124 -112.6473
26.946917 83.137 -113.0334
27.142185 83.151 -113.4241
27.338869 83.166 -113.8241
27.536977 83.183 -114.2376
27.736522 83.201 -114.6677
27.937512 83.222 -115.1163
28.139959 83.245 -115.5833
28.343872 83.271 -116.0669
28.549264 83.298 -116.5639
28.756143 83.327 -117.0696
28.964522 83.357 -117.5791
29.174411 83.390 -118.0875
29.385821 83.424 -118.5908
29.598763 83.461 -119.0861
29.813248 83.500 -119.5721
30.029287 83.542 -120.0489
30.246891 83.587 -120.5178
30.466073 83.634 -120.9802
30.686842 83.685 -121.4380
30.909212 83.738 -121.8922
31.133193 83.794 -122.3429
31.358797 83.853 -122.7892
31.586035 83.913 -123.2294
31.814921 83.976 -123.6614
32.045465 84.040 -124.0832
32.277680 84.107 -124.4933
32.511577 84.177 -124.8914
32.747169 84.249 -125.2781
32.984469 84.323 -125.6552
33.223488 84.400 -126.0255
33.464239 84.480 -126.3923
33.706735 84.561 -126.7592
33.950987 84.644 -127.1296
34.197010 84.729 -127.5065
34.444816 84.816 -127.8924
34.694417 84.904 -128.2891
34.945827 84.993 -128.6974
35.199059 85.082 -129.1170
35.454126 85.171 -129.5466
35.711041 85.259 -129.9836
35.969818 85.346 -130.4242
36.230470 85.431 -130.8641
36.493011 85.514 -131.2986
36.757455 85.594 -131.7235
37.023814 85.672 -132.1354
37.292104 85.748 -132.5322
37.562338 85.823 -132.9132
37.834530 85.896 -133.2793
38.108695 85.968 -133.6322
38.384846 86.040 -133.9743
38.662999 86.110 -134.3080
38.943167 86.180 -134.6357
39.225365 86.250 -134.9594
39.509608 86.318 -135.2813
39.795911 86.385 -135.6032
40.084289 86.451 -135.9273
40.374756 86.516 -136.2561
40.667328 86.580 -136.5919
40.962020 86.643 -136.9371
41.258848 86.705 -137.2936
41.557827 86.766 -137.6625
41.858972 86.827 -138.0440
42.162299 86.888 -138.4375
42.467824 86.948 -138.8412
42.775564 87.006 -139.2526
43.085533 87.063 -139.6687
43.397749 87.118 -140.0864
43.712227 87.171 -140.5034
44.028983 87.220 -140.9184
44.348036 87.267 -141.3316
44.669400 87.310 -141.7447
44.993093 87.351 -142.1604
45.319131 87.389 -142.5816
45.647532 87.425 -143.0106
45.978313 87.460 -143.4487
46.311491 87.493 -143.8957
46.647083 87.526 -144.3505
46.985107 87.559 -144.8115
47.325581 87.591 -145.2773
47.668521 87.624 -145.7464
48.013947 87.657 -146.2178
48.361876 87.689 -146.6906
48.712326 87.719 -147.1633
49.065315 87.747 -147.6343
49.420863 87.771 -148.1023
49.778987 87.792 -148.5662
50.139706 87.810 -149.0256
50.503039 87.824 -149.4811
50.869005 87.835 -149.9338
51.237623 87.844 -150.3854
51.608912 87.851 -150.8383
51.982891 87.857 -151.2950
52.359580 87.862 -151.7581
52.739000 87.867 -152.2298
53.121168 87.872 -152.7111
53.506106 87.876 -153.2020
53.893833 87.879 -153.7008
54.284370 87.881 -154.2054
54.677737 87.882 -154.7135
55.073955 87.882 -155.2235
55.473043 87.880 -155.7348
55.875024 87.876 -156.2479
56.279917 87.870 -156.7637
56.687745 87.862 -157.2833
57.098527 87.853 -157.8076
57.512287 87.844 -158.3364
57.929045 87.834 -158.8682
58.348822 87.826 -159.3990
58.771642 87.821 -159.9223
59.197525 87.819 -160.4303
59.626495 87.823 -160.9151
60.058573 87.832 -161.3716
60.493782 87.849 -161.7988
60.932145 87.872 -162.2001
61.373685 87.900 -162.5817
61.818424 87.933 -162.9510
62.266386 87.968 -163.3144
62.717593 88.005 -163.6769
63.172071 88.042 -164.0416
63.629842 88.079 -164.4103
64.090930 88.114 -164.7841
64.555359 88.148 -165.1635
65.023154 88.181 -165.5484
65.494339 88.211 -165.9393
65.968938 88.240 -166.3359
66.446976 88.267 -166.7382
66.928478 88.293 -167.1453
67.413469 88.316 -167.5559
67.901975 88.339 -167.9685
68.394021 88.360 -168.3812
68.889632 88.380 -168.7926
69.388835 88.398 -169.2015
69.891655 88.416 -169.6073
70.398118 88.431 -170.0095
70.908252 88.445 -170.4078
71.422083 88.457 -170.8016
71.939636 88.466 -171.1904
72.460941 88.473 -171.5736
72.986023 88.477 -171.9510
73.514909 88.478 -172.3230
74.047629 88.476 -172.6902
74.584208 88.471 -173.0536
75.124676 88.462 -173.4140
75.669061 88.451 -173.7722
76.217390 88.438 -174.1289
76.769692 88.422 -174.4845
77.325997 88.404 -174.8391
77.886333 88.384 -175.1930
78.450730 88.363 -175.5459
79.019216 88.341 -175.8975
79.591822 88.317 -176.2469
80.168577 88.293 -176.5935
80.749512 88.268 -176.9362
81.334656 88.243 -177.2746
81.924040 88.217 -177.6083
82.517696 88.191 -177.9375
83.115653 88.164 -178.2626
83.717943 88.138 -178.5839
84.324598 88.111 -178.9018
84.935649 88.084 -179.2164
85.551128 88.058 -179.5273
86.171066 88.031 -179.8341
86.795497 88.005 179.8638
87.424453 87.978 179.5672
88.057967 87.952 179.2764
88.696071 87.925 178.9917
89.338800 87.899 178.7127
89.986185 87.872 178.4388
90.638262 87.845 178.1689
91.295065 87.818 177.9020
91.956626 87.791 177.6374
92.622982 87.763 177.3747
93.294166 87.736 177.1138
93.970214 87.708 176.8547
94.651161 87.680 176.5978
95.337042 87.653 176.3431
96.027894 87.625 176.0903
96.723752 87.598 175.8392
97.424652 87.571 175.5889
98.130631 87.544 175.3387
98.841726 87.518 175.0879
99.557974 87.492 174.8360
100.279412 87.467 174.5826
101.006078 87.442 174.3276
101.738010 87.417 174.0713
102.475245 87.393 173.8141
103.217823 87.370 173.5568
103.965782 87.348 173.3006
104.719161 87.326 173.0468
105.477999 87.305 172.7966
106.242336 87.285 172.5508
107.012212 87.266 172.3095
107.787666 87.248 172.0720
108.568740 87.231 171.8375
109.355474 87.214 171.6051
110.147909 87.199 171.3746
110.946086 87.185 171.1461
111.750047 87.171 170.9205
112.559834 87.159 170.6988
113.375489 87.146 170.4819
114.197055 87.134 170.2706
115.024574 87.122 170.0649
115.858089 87.109 169.8649
116.697645 87.096 169.6705
117.543284 87.083 169.4816
118.395051 87.068 169.2983
119.252990 87.052 169.1212
120.117147 87.036 168.9510
120.987565 87.018 168.7885
121.864291 86.998 168.6350
122.747370 86.978 168.4919
123.636848 86.957 168.3606
124.532771 86.936 168.2421
125.435187 86.913 168.1372
126.344142 86.891 168.0461
127.259684 86.869 167.9682
128.181860 86.847 167.9024
129.110718 86.825 167.8470
130.046308 86.805 167.7995
130.988677 86.786 167.7570
131.937875 86.768 167.7159
132.893951 86.753 167.6716
133.856956 86.739 167.6193
134.826938 86.727 167.5541
135.803950 86.717 167.4724
136.788041 86.707 167.3721
137.779264 86.697 167.2531
138.777669 86.687 167.1170
139.783309 86.675 166.9662
140.796237 86.660 166.8037
141.816504 86.643 166.6327
142.844165 86.622 166.4562
143.879273 86.598 166.2773
144.921881 86.570 166.0984
145.972045 86.540 165.9218
147.029819 86.506 165.7496
148.095257 86.470 165.5839
149.168417 86.433 165.4267
150.249353 86.394 165.2801
151.338121 86.354 165.1463
152.434780 86.313 165.0272
153.539385 86.272 164.9242
154.651995 86.230 164.8382
155.772667 86.189 164.7693
156.901460 86.149 164.7176
158.038432 86.109 164.6827
159.183644 86.071 164.6642
160.337154 86.034 164.6616
161.499023 86.000 164.6742
162.669312 85.967 164.7007
163.848081 85.938 164.7396
165.035392 85.911 164.7887
166.231306 85.888 164.8455
167.435887 85.867 164.9067
168.649196 85.850 164.9695
169.871298 85.835 165.0305
171.102255 85.824 165.0868
172.342133 85.814 165.1357
173.590995 85.807 165.1755
174.848907 85.802 165.2050
176.115934 85.798 165.2236
177.392143 85.795 165.2314
178.677599 85.793 165.2288
179.972371 85.791 165.2160
181.276525 85.789 165.1929
182.590129 85.787 165.1590
183.913252 85.783 165.1137
185.245964 85.779 165.0563
186.588332 85.774 164.9863
187.940428 85.768 164.9040
189.302322 85.761 164.8097
190.674085 85.753 164.7042
192.055788 85.744 164.5885
193.447503 85.734 164.4639
194.849303 85.723 164.3319
196.261262 85.711 164.1945
197.683452 85.699 164.0538
199.115948 85.686 163.9117
200.558824 85.673 163.7702
202.012156 85.659 163.6307
203.476019 85.645 163.4943
204.950490 85.631 163.3618
206.435646 85.616 163.2340
207.931564 85.601 163.1110
209.438322 85.587 162.9924
210.955998 85.572 162.8776
212.484672 85.558 162.7657
214.024424 85.543 162.6559
215.575333 85.529 162.5469
217.137481 85.516 162.4377
218.710948 85.502 162.3278
220.295818 85.489 162.2168
221.892172 85.476 162.1050
223.500094 85.465 161.9930
225.119668 85.453 161.8815
226.750978 85.443 161.7714
228.394109 85.434 161.6635
230.049147 85.426 161.5580
231.716178 85.420 161.4550
233.395289 85.415 161.3541
235.086567 85.411 161.2549
236.790102 85.409 161.1570
238.505980 85.408 161.0600
240.234293 85.408 160.9636
241.975130 85.409 160.8677
243.728581 85.411 160.7726
245.494739 85.412 160.6784
247.273695 85.414 160.5856
249.065542 85.417 160.4943
250.870374 85.420 160.4046
252.688284 85.423 160.3167
254.519367 85.426 160.2305
256.363720 85.430 160.1461
258.221437 85.434 160.0637
260.092616 85.439 159.9834
261.977354 85.443 159.9053
263.875750 85.446 159.8295
265.787903 85.449 159.7561
267.713911 85.451 159.6847
269.653877 85.452 159.6144
271.607900 85.452 159.5439
273.576083 85.452 159.4719
275.558528 85.451 159.3973
277.555338 85.450 159.3199
279.566619 85.450 159.2397
281.592474 85.450 159.1580
283.633009 85.450 159.0761
285.688331 85.450 158.9958
287.758546 85.451 158.9188
289.843763 85.452 158.8460
291.944090 85.454 158.7779
294.059638 85.457 158.7143
296.190515 85.461 158.6544
298.336833 85.466 158.5970
300.498705 85.472 158.5411
302.676243 85.479 158.4855
304.869559 85.486 158.4294
307.078770 85.495 158.3720
309.303989 85.504 158.3132
311.545334 85.513 158.2531
313.802919 85.523 158.1919
316.076865 85.532 158.1299
318.367288 85.541 158.0675
320.674309 85.551 158.0049
322.998047 85.560 157.9423
325.338624 85.569 157.8799
327.696162 85.578 157.8182
330.070783 85.587 157.7574
332.462612 85.595 157.6979
334.871773 85.603 157.6400
337.298392 85.610 157.5836
339.742595 85.617 157.5286
342.204510 85.623 157.4748
344.684265 85.628 157.4221
347.181989 85.631 157.3702
349.697813 85.634 157.3193
352.231868 85.635 157.2692
354.784285 85.636 157.2193
357.355198 85.635 157.1694
359.944741 85.634 157.1190
362.553049 85.631 157.0678
365.180258 85.628 157.0156
367.826505 85.624 156.9624
370.491927 85.619 156.9084
373.176665 85.614 156.8538
375.880856 85.609 156.7985
378.604644 85.603 156.7425
381.348169 85.598 156.6854
384.111575 85.593 156.6266
386.895006 85.588 156.5663
389.698607 85.583 156.5046
392.522524 85.578 156.4418
395.366904 85.572 156.3786
398.231895 85.566 156.3155
401.117648 85.559 156.2532
404.024312 85.551 156.1923
406.952038 85.542 156.1337
409.900981 85.531 156.0782
412.871292 85.519 156.0269
415.863128 85.506 155.9807
418.876643 85.491 155.9403
421.911996 85.475 155.9059
424.969344 85.458 155.8771
428.048847 85.439 155.8525
431.150666 85.421 155.8306
434.274961 85.401 155.8096
437.421897 85.381 155.7878
440.591636 85.361 155.7642
443.784345 85.339 155.7382
447.000189 85.318 155.7096
450.239337 85.295 155.6788
453.501956 85.272 155.6463
456.788219 85.249 155.6126
460.098294 85.226 155.5781
463.432356 85.203 155.5430
466.790578 85.179 155.5072
470.173135 85.157 155.4704
473.580203 85.135 155.4323
477.011961 85.114 155.3923
480.468586 85.094 155.3505
483.950259 85.075 155.3068
487.457163 85.058 155.2614
490.989478 85.042 155.2144
494.547390 85.027 155.1663
498.131084 85.015 155.1172
501.740748 85.003 155.0678
505.376568 84.994 155.0180
509.038735 84.986 154.9680
512.727439 84.979 154.9175
516.442874 84.975 154.8667
520.185232 84.972 154.8151
523.954708 84.971 154.7628
527.751500 84.973 154.7096
531.575805 84.976 154.6553
535.427822 84.982 154.5998
539.307753 84.990 154.5431
543.215800 85.001 154.4851
547.152165 85.013 154.4258
551.117055 85.029 154.3651
555.110677 85.046 154.3027
559.133237 85.066 154.2385
563.184947 85.089 154.1722
567.266018 85.113 154.1041
571.376661 85.139 154.0342
575.517092 85.166 153.9626
579.687526 85.195 153.8892
583.888181 85.224 153.8140
588.119275 85.254 153.7368
592.381030 85.285 153.6574
596.673667 85.315 153.5758
600.997410 85.346 153.4917
605.352485 85.377 153.4047
609.739119 85.407 153.3147
614.157540 85.437 153.2214
618.607979 85.466 153.1249
623.090667 85.494 153.0249
627.605839 85.520 152.9215
632.153730 85.546 152.8148
636.734576 85.570 152.7049
641.348617 85.592 152.5916
645.996094 85.614 152.4749
650.677248 85.634 152.3542
655.392323 85.654 152.2289
660.141566 85.672 152.0983
664.925224 85.691 151.9615
669.743546 85.708 151.8174
674.596784 85.725 151.6653
679.485191 85.741 151.5047
684.409020 85.757 151.3352
689.368530 85.771 151.1569
694.363979 85.784 150.9702
699.395626 85.796 150.7759
704.463736 85.806 150.5751
709.568570 85.814 150.3694
714.710396 85.821 150.1602
719.889483 85.825 149.9482
725.106099 85.829 149.7336
730.360516 85.831 149.5155
735.653010 85.832 149.2929
740.983855 85.831 149.0644
746.353329 85.829 148.8292
751.761713 85.826 148.5871
757.209288 85.821 148.3381
762.696339 85.814 148.0825
768.223151 85.806 147.8204
773.790013 85.796 147.5519
779.397214 85.784 147.2770
785.045047 85.772 146.9955
790.733808 85.758 146.7081
796.463791 85.742 146.4153
802.235296 85.726 146.1179
808.048623 85.709 145.8164
813.904077 85.691 145.5112
819.801961 85.673 145.2020
825.742584 85.655 144.8882
831.726255 85.638 144.5691
837.753287 85.620 144.2438
843.823992 85.602 143.9116
849.938689 85.585 143.5722
856.097695 85.567 143.2256
862.301332 85.549 142.8723
868.549922 85.531 142.5131
874.843793 85.512 142.1492
881.183272 85.493 141.7818
887.568689 85.474 141.4119
894.000378 85.455 141.0400
900.478673 85.435 140.6664
907.003913 85.416 140.2905
913.576437 85.397 139.9122
920.196588 85.378 139.5311
926.864712 85.360 139.1477
933.581156 85.341 138.7627
940.346270 85.323 138.3768
947.160407 85.305 137.9910
954.023921 85.288 137.6058
960.937172 85.272 137.2213
967.900519 85.257 136.8372
974.914325 85.243 136.4530
981.978956 85.231 136.0684
989.094780 85.219 135.6831
996.262169 85.209 135.2971
1003.481495 85.200 134.9106
1010.753136 85.192 134.5237
1018.077470 85.185 134.1360
1025.454879 85.180 133.7470
1032.885748 85.174 133.3563
1040.370463 85.170 132.9637
1047.909417 85.165 132.5698
1055.503000 85.160 132.1759
1063.151610 85.154 131.7841
1070.855645 85.147 131.3968
1078.615506 85.140 131.0158
1086.431599 85.132 130.6424
1094.304330 85.123 130.2770
1102.234110 85.113 129.9192
1110.221353 85.102 129.5686
1118.266475 85.091 129.2250
1126.369895 85.078 128.8885
1134.532035 85.064 128.5598
1142.753322 85.048 128.2394
1151.034184 85.031 127.9281
1159.375052 85.013 127.6262
1167.776361 84.994 127.3333
1176.238550 84.974 127.0489
1184.762060 84.953 126.7721
1193.347334 84.931 126.5028
1201.994821 84.908 126.2411
1210.704971 84.884 125.9879
1219.478238 84.859 125.7443
1228.315080 84.833 125.5117
1237.215957 84.806 125.2915
1246.181334 84.779 125.0847
1255.211678 84.752 124.8920
1264.307459 84.725 124.7131
1273.469152 84.698 124.5475
1282.697235 84.671 124.3941
1291.992188 84.645 124.2517
1301.354495 84.620 124.1194
1310.784647 84.594 123.9962
1320.283132 84.569 123.8816
1329.850448 84.545 123.7748
1339.487093 84.520 123.6756
1349.193569 84.496 123.5837
1358.970381 84.471 123.4993
1368.818041 84.447 123.4227
1378.737061 84.423 123.3540
1388.727958 84.399 123.2935
1398.791253 84.376 123.2414
1408.927471 84.353 123.1982
1419.137140 84.331 123.1651
1429.420793 84.309 123.1436
1439.778965 84.288 123.1351
1450.212197 84.268 123.1411
1460.721033 84.249 123.1629
1471.306019 84.230 123.2026
1481.967709 84.213 123.2622
1492.706658 84.197 123.3435
1503.523426 84.183 123.4474
1514.418576 84.170 123.5737
1525.392678 84.159 123.7209
1536.446302 84.149 123.8867
1547.580025 84.141 124.0685
1558.794428 84.133 124.2644
1570.090095 84.125 124.4730
1581.467615 84.116 124.6944
1592.927581 84.107 124.9288
1604.470591 84.097 125.1770
1616.097246 84.085 125.4391
1627.808153 84.072 125.7149
1639.603922 84.058 126.0040
1651.485168 84.042 126.3060
1663.452510 84.025 126.6208
1675.506573 84.007 126.9493
1687.647984 83.988 127.2922
1699.877377 83.970 127.6504
1712.195390 83.952 128.0237
1724.602663 83.935 128.4104
1737.099845 83.920 128.8073
1749.687587 83.907 129.2101
1762.366544 83.897 129.6145
1775.137379 83.890 130.0164
1788.000756 83.884 130.4127
1800.957346 83.881 130.8015
1814.007826 83.879 131.1824
1827.152874 83.879 131.5556
1840.393177 83.880 131.9220
1853.729425 83.882 132.2822
1867.162312 83.885 132.6357
1880.692540 83.890 132.9810
1894.320813 83.896 133.3144
1908.047843 83.904 133.6315
1921.874344 83.913 133.9273
1935.801038 83.922 134.1975
1949.828650 83.931 134.4387
1963.957912 83.940 134.6488
1978.189561 83.947 134.8277
1992.524338 83.951 134.9767
2006.962991 83.953 135.0992
2021.506272 83.952 135.1990
2036.154940 83.948 135.2800
2050.909758 83.941 135.3447
2065.771495 83.932 135.3937
2080.740927 83.922 135.4266
2095.818833 83.911 135.4415
2111.006001 83.899 135.4365
2126.303220 83.886 135.4096
2141.711290 83.872 135.3593
2157.231013 83.857 135.2853
2172.863198 83.841 135.1888
2188.608660 83.822 135.0723
2204.468221 83.801 134.9392
2220.442706 83.778 134.7933
2236.532950 83.753 134.6379
2252.739789 83.726 134.4761
2269.064070 83.697 134.3107
2285.506644 83.666 134.1442
2302.068367 83.635 133.9782
2318.750104 83.604 133.8133
2335.552723 83.572 133.6491
2352.477101 83.541 133.4841
2369.524119 83.511 133.3168
2386.694668 83.483 133.1454
2403.989641 83.455 132.9689
2421.409941 83.428 132.7867
2438.956476 83.403 132.5992
2456.630160 83.380 132.4066
2474.431915 83.358 132.2086
2492.362668 83.338 132.0039
2510.423356 83.320 131.7908
2528.614918 83.303 131.5669
2546.938304 83.289 131.3301
2565.394469 83.275 131.0789
2583.984375 83.262 130.8128
2602.708991 83.249 130.5330
2621.569293 83.233 130.2424
2640.566265 83.216 129.9459
2659.700897 83.195 129.6497
2678.974186 83.171 129.3615
2698.387137 83.144 129.0894
2717.940763 83.112 128.8417
2737.636082 83.078 128.6257
2757.474121 83.041 128.4474
2777.455915 83.003 128.3113
2797.582506 82.963 128.2206
2817.854942 82.923 128.1783
2838.274281 82.884 128.1864
2858.841586 82.845 128.2465
2879.557931 82.808 128.3595
2900.424394 82.773 128.5256
2921.442065 82.742 128.7443
2942.612039 82.713 129.0137
2963.935418 82.689 129.3313
2985.413316 82.670 129.6934
3007.046852 82.655 130.0948
3028.837153 82.645 130.5294
3050.785356 82.641 130.9895
3072.892604 82.642 131.4665
3095.160050 82.648 131.9506
3117.588856 82.658 132.4311
3140.180190 82.671 132.8970
3162.935230 82.686 133.3382
3185.855163 82.702 133.7462
3208.941182 82.716 134.1159
3232.194493 82.726 134.4465
3255.616307 82.730 134.7423
3279.207844 82.727 135.0120
3302.970336 82.715 135.2682
3326.905021 82.694 135.5262
3351.013146 82.665 135.8013
3375.295969 82.630 136.1075
3399.754755 82.590 136.4545
3424.390779 82.549 136.8460
3449.205326 82.511 137.2782
3474.199690 82.479 137.7386
3499.375173 82.456 138.2073
3524.733088 82.444 138.6584
