* Measurement data measured by REW V5.31.3
* Source: EXCL: Headset (USB-C to 3.5mm Headphone Jack Adapter), MICROPHONE (Master Volume), 0, volume: 0.260
* Format: 256k Log Swept Sine, 1 sweep at -12.0 dBFS with no timing reference
* Dated: Feb 19, 2025 7:46:53 PM
* REW Settings:
*  C-weighting compensation: Off
*  Target level: 75.0 dB
* Note: ; 
* Measurement: Satyr 3 L10
* Smoothing: 1/6 octave
* Frequency Step: 96 ppo
* Start Frequency: 20.0 Hz
*
* Freq(Hz) SPL(dB) Phase(degrees)
20.141602 94.329 -29.9906
20.287556 94.347 -30.2050
20.434568 94.372 -30.4933
20.582645 94.401 -30.8492
20.731796 94.432 -31.2658
20.882027 94.465 -31.7357
21.033346 94.498 -32.2514
21.185763 94.530 -32.8051
21.339284 94.559 -33.3889
21.493917 94.586 -33.9948
21.649671 94.611 -34.6148
21.806553 94.634 -35.2412
21.964572 94.656 -35.8668
22.123737 94.677 -36.4853
22.284054 94.699 -37.0918
22.445534 94.722 -37.6829
22.608183 94.749 -38.2572
22.772012 94.781 -38.8154
22.937027 94.817 -39.3601
23.103238 94.860 -39.8954
23.270654 94.908 -40.4266
23.439282 94.962 -40.9595
23.609133 95.022 -41.4996
23.780215 95.086 -42.0518
23.952536 95.154 -42.6198
24.126106 95.225 -43.2055
24.300934 95.297 -43.8093
24.477028 95.371 -44.4299
24.654399 95.445 -45.0650
24.833055 95.520 -45.7112
25.013005 95.596 -46.3647
25.194260 95.672 -47.0217
25.376828 95.750 -47.6788
25.560719 95.830 -48.3331
25.745942 95.913 -48.9822
25.932508 95.999 -49.6247
26.120426 96.088 -50.2598
26.309705 96.182 -50.8871
26.500356 96.279 -51.5069
26.692388 96.380 -52.1198
26.885812 96.484 -52.7268
27.080638 96.590 -53.3290
27.276876 96.699 -53.9280
27.474535 96.808 -54.5257
27.673627 96.917 -55.1240
27.874161 97.025 -55.7253
28.076149 97.130 -56.3316
28.279600 97.231 -56.9451
28.484526 97.328 -57.5675
28.690937 97.418 -58.2002
28.898843 97.502 -58.8438
29.108256 97.579 -59.4985
29.319186 97.649 -60.1634
29.531645 97.712 -60.8373
29.745644 97.769 -61.5182
29.961193 97.821 -62.2035
30.178304 97.868 -62.8903
30.396989 97.913 -63.5752
30.617258 97.956 -64.2549
30.839123 98.000 -64.9260
31.062596 98.046 -65.5852
31.287688 98.095 -66.2301
31.514412 98.149 -66.8589
31.742778 98.208 -67.4711
31.972800 98.273 -68.0674
32.204488 98.345 -68.6501
32.437855 98.423 -69.2225
32.672913 98.506 -69.7890
32.909674 98.595 -70.3543
33.148151 98.687 -70.9229
33.388356 98.782 -71.4985
33.630302 98.878 -72.0836
33.874001 98.974 -72.6791
34.119466 99.069 -73.2846
34.366710 99.161 -73.8986
34.615745 99.251 -74.5189
34.866585 99.339 -75.1433
35.119243 99.423 -75.7699
35.373731 99.505 -76.3978
35.630064 99.584 -77.0266
35.888254 99.659 -77.6570
36.148315 99.732 -78.2898
36.410261 99.801 -78.9261
36.674104 99.866 -79.5665
36.939860 99.927 -80.2111
37.207542 99.985 -80.8593
37.477163 100.038 -81.5101
37.748738 100.087 -82.1624
38.022281 100.134 -82.8148
38.297806 100.178 -83.4662
38.575327 100.219 -84.1160
38.854860 100.260 -84.7639
39.136419 100.299 -85.4098
39.420017 100.338 -86.0539
39.705671 100.376 -86.6963
39.993395 100.413 -87.3373
40.283203 100.450 -87.9768
40.575112 100.485 -88.6154
40.869136 100.520 -89.2535
41.165290 100.554 -89.8925
41.463591 100.588 -90.5343
41.764053 100.623 -91.1813
42.066693 100.658 -91.8361
42.371525 100.694 -92.5012
42.678567 100.733 -93.1784
42.987834 100.773 -93.8685
43.299341 100.816 -94.5714
43.613106 100.862 -95.2860
43.929145 100.910 -96.0111
44.247473 100.962 -96.7453
44.568109 101.016 -97.4876
44.891068 101.072 -98.2372
45.216367 101.131 -98.9932
45.544023 101.191 -99.7548
45.874054 101.251 -100.5203
46.206476 101.312 -101.2881
46.541307 101.374 -102.0560
46.878565 101.435 -102.8224
47.218266 101.496 -103.5858
47.560429 101.557 -104.3453
47.905072 101.617 -105.1007
48.252212 101.678 -105.8521
48.601867 101.738 -106.5998
48.954056 101.797 -107.3447
49.308798 101.856 -108.0882
49.666109 101.914 -108.8320
50.026010 101.972 -109.5786
50.388520 102.028 -110.3305
50.753656 102.083 -111.0897
51.121437 102.137 -111.8580
51.491884 102.189 -112.6358
51.865016 102.239 -113.4229
52.240851 102.287 -114.2183
52.619410 102.332 -115.0205
53.000712 102.375 -115.8276
53.384777 102.415 -116.6376
53.771625 102.453 -117.4484
54.161276 102.487 -118.2581
54.553751 102.519 -119.0650
54.949070 102.547 -119.8676
55.347254 102.571 -120.6651
55.748323 102.593 -121.4567
56.152298 102.611 -122.2423
56.559201 102.627 -123.0219
56.969052 102.640 -123.7956
57.381873 102.651 -124.5637
57.797686 102.660 -125.3267
58.216512 102.669 -126.0856
58.638373 102.677 -126.8420
59.063291 102.685 -127.5976
59.491288 102.694 -128.3544
59.922386 102.703 -129.1137
60.356608 102.713 -129.8759
60.793977 102.723 -130.6408
61.234515 102.733 -131.4069
61.678246 102.744 -132.1727
62.125192 102.754 -132.9364
62.575377 102.763 -133.6965
63.028824 102.771 -134.4519
63.485557 102.778 -135.2016
63.945599 102.782 -135.9453
64.408975 102.785 -136.6830
64.875709 102.784 -137.4148
65.345825 102.781 -138.1411
65.819348 102.776 -138.8622
66.296302 102.769 -139.5781
66.776713 102.760 -140.2889
67.260604 102.749 -140.9946
67.748002 102.737 -141.6948
68.238932 102.723 -142.3895
68.733420 102.709 -143.0782
69.231490 102.694 -143.7609
69.733170 102.678 -144.4373
70.238485 102.661 -145.1073
70.747463 102.645 -145.7710
71.260128 102.627 -146.4285
71.776508 102.610 -147.0804
72.296630 102.591 -147.7273
72.820521 102.573 -148.3701
73.348209 102.553 -149.0094
73.879720 102.534 -149.6460
74.415083 102.514 -150.2801
74.954326 102.493 -150.9115
75.497475 102.472 -151.5396
76.044561 102.451 -152.1636
76.595612 102.428 -152.7824
77.150655 102.406 -153.3954
77.709720 102.383 -154.0019
78.272837 102.359 -154.6017
78.840034 102.334 -155.1946
79.411342 102.309 -155.7805
79.986789 102.284 -156.3596
80.566406 102.258 -156.9316
81.150224 102.231 -157.4968
81.738272 102.204 -158.0550
82.330581 102.176 -158.6066
82.927182 102.148 -159.1516
83.528107 102.119 -159.6902
84.133386 102.090 -160.2225
84.743051 102.060 -160.7488
85.357134 102.030 -161.2690
85.975667 101.999 -161.7831
86.598682 101.969 -162.2910
87.226212 101.939 -162.7923
87.858289 101.910 -163.2868
88.494946 101.881 -163.7743
89.136217 101.853 -164.2546
89.782135 101.826 -164.7277
90.432733 101.801 -165.1936
91.088046 101.776 -165.6525
91.748108 101.752 -166.1044
92.412952 101.728 -166.5496
93.082615 101.705 -166.9883
93.757130 101.681 -167.4206
94.436533 101.656 -167.8470
95.120859 101.631 -168.2679
95.810144 101.603 -168.6837
96.504423 101.574 -169.0949
97.203734 101.543 -169.5016
97.908112 101.509 -169.9038
98.617595 101.473 -170.3014
99.332219 101.434 -170.6941
100.052021 101.394 -171.0818
100.777039 101.352 -171.4641
101.507311 101.309 -171.8412
102.242875 101.265 -172.2128
102.983769 101.221 -172.5792
103.730032 101.176 -172.9405
104.481702 101.132 -173.2970
105.238820 101.088 -173.6493
106.001424 101.046 -173.9978
106.769554 101.004 -174.3430
107.543250 100.964 -174.6855
108.322553 100.925 -175.0256
109.107503 100.887 -175.3634
109.898141 100.851 -175.6989
110.694508 100.816 -176.0318
111.496646 100.782 -176.3617
112.304596 100.749 -176.6882
113.118402 100.717 -177.0107
113.938104 100.684 -177.3287
114.763747 100.652 -177.6418
115.595372 100.618 -177.9495
116.433024 100.584 -178.2516
117.276746 100.550 -178.5480
118.126581 100.514 -178.8385
118.982575 100.477 -179.1230
119.844772 100.439 -179.4017
120.713217 100.401 -179.6749
121.587954 100.363 -179.9431
122.469031 100.324 179.7926
123.356492 100.285 179.5315
124.250384 100.246 179.2727
125.150753 100.208 179.0158
126.057647 100.171 178.7605
126.971113 100.135 178.5065
127.891198 100.100 178.2535
128.817950 100.066 178.0016
129.751418 100.033 177.7508
130.691651 100.002 177.5010
131.638696 99.971 177.2524
132.592604 99.941 177.0053
133.553425 99.910 176.7601
134.521208 99.879 176.5174
135.496004 99.846 176.2777
136.477864 99.812 176.0419
137.466839 99.776 175.8109
138.462981 99.736 175.5862
139.466340 99.693 175.3690
140.476971 99.647 175.1612
141.494925 99.597 174.9643
142.520256 99.544 174.7802
143.553016 99.488 174.6103
144.593260 99.429 174.4561
145.641043 99.367 174.3182
146.696418 99.305 174.1970
147.759441 99.242 174.0916
148.830166 99.179 174.0005
149.908651 99.117 173.9220
150.994951 99.057 173.8537
152.089123 98.999 173.7936
153.191223 98.943 173.7401
154.301310 98.889 173.6921
155.419441 98.838 173.6491
156.545674 98.788 173.6114
157.680069 98.740 173.5799
158.822683 98.692 173.5559
159.973578 98.645 173.5412
161.132813 98.598 173.5376
162.300447 98.551 173.5471
163.476543 98.504 173.5716
164.661162 98.457 173.6130
165.854364 98.411 173.6733
167.056213 98.364 173.7541
168.266772 98.318 173.8569
169.486102 98.273 173.9826
170.714268 98.230 174.1315
171.951334 98.188 174.3033
173.197364 98.148 174.4968
174.452424 98.112 174.7101
175.716578 98.078 174.9406
176.989893 98.049 175.1846
178.272434 98.024 175.4379
179.564270 98.002 175.6954
180.865467 97.986 175.9519
182.176092 97.973 176.2015
183.496216 97.964 176.4387
184.825905 97.959 176.6583
186.165229 97.958 176.8556
187.514259 97.958 177.0271
188.873065 97.960 177.1702
190.241717 97.962 177.2834
191.620287 97.964 177.3661
193.008847 97.966 177.4188
194.407468 97.965 177.4424
195.816225 97.962 177.4387
197.235190 97.957 177.4099
198.664438 97.948 177.3585
200.104042 97.937 177.2874
201.554078 97.922 177.1996
203.014622 97.905 177.0981
204.485750 97.885 176.9856
205.967538 97.863 176.8647
207.460064 97.841 176.7378
208.963405 97.818 176.6068
210.477640 97.796 176.4735
212.002848 97.776 176.3395
213.539108 97.757 176.2061
215.086500 97.742 176.0742
216.645105 97.729 175.9446
218.215005 97.720 175.8181
219.796281 97.714 175.6950
221.389015 97.712 175.5757
222.993292 97.713 175.4603
224.609193 97.718 175.3488
226.236804 97.725 175.2412
227.876209 97.734 175.1374
229.527494 97.746 175.0373
231.190745 97.759 174.9410
232.866048 97.774 174.8487
234.553491 97.790 174.7603
236.253163 97.807 174.6757
237.965150 97.824 174.5949
239.689544 97.842 174.5176
241.426433 97.859 174.4438
243.175909 97.876 174.3732
244.938062 97.893 174.3059
246.712984 97.908 174.2421
248.500768 97.922 174.1820
250.301507 97.935 174.1259
252.115295 97.947 174.0739
253.942226 97.957 174.0262
255.782396 97.966 173.9829
257.635901 97.974 173.9439
259.502837 97.981 173.9089
261.383301 97.987 173.8775
263.277392 97.992 173.8491
265.185209 97.996 173.8230
267.106850 97.999 173.7986
269.042417 98.000 173.7754
270.992009 98.000 173.7529
272.955729 97.997 173.7307
274.933678 97.992 173.7089
276.925961 97.983 173.6875
278.932681 97.972 173.6667
280.953942 97.956 173.6470
282.989850 97.937 173.6285
285.040511 97.913 173.6117
287.106032 97.885 173.5966
289.186521 97.852 173.5834
291.282086 97.816 173.5721
293.392836 97.775 173.5627
295.518881 97.732 173.5551
297.660333 97.685 173.5491
299.817302 97.636 173.5446
301.989902 97.586 173.5414
304.178245 97.534 173.5394
306.382446 97.482 173.5385
308.602620 97.430 173.5385
310.838882 97.378 173.5394
313.091348 97.329 173.5412
315.360137 97.281 173.5439
317.645367 97.237 173.5475
319.947156 97.195 173.5520
322.265625 97.158 173.5573
324.600895 97.124 173.5635
326.953086 97.096 173.5706
329.322323 97.072 173.5787
331.708729 97.054 173.5880
334.112427 97.042 173.5984
336.533543 97.035 173.6099
338.972204 97.033 173.6225
341.428536 97.037 173.6360
343.902668 97.046 173.6502
346.394729 97.060 173.6650
348.904848 97.077 173.6803
351.433156 97.098 173.6957
353.979786 97.121 173.7111
356.544869 97.146 173.7262
359.128540 97.171 173.7408
361.730934 97.196 173.7547
364.352185 97.220 173.7677
366.992431 97.241 173.7796
369.651810 97.259 173.7902
372.330459 97.274 173.7993
375.028519 97.285 173.8068
377.746130 97.291 173.8124
380.483434 97.292 173.8162
383.240574 97.288 173.8178
386.017693 97.279 173.8173
388.814937 97.265 173.8145
391.632450 97.248 173.8098
394.470380 97.227 173.8035
397.328875 97.203 173.7962
400.208084 97.178 173.7890
403.108157 97.153 173.7832
406.029245 97.128 173.7803
408.971500 97.104 173.7820
411.935076 97.083 173.7899
414.920127 97.066 173.8051
417.926810 97.053 173.8280
420.955280 97.045 173.8578
424.005695 97.042 173.8931
427.078215 97.044 173.9319
430.173000 97.051 173.9718
433.290211 97.060 174.0110
436.430010 97.073 174.0482
439.592562 97.086 174.0824
442.778031 97.100 174.1135
445.986583 97.112 174.1419
449.218386 97.123 174.1683
452.473607 97.131 174.1935
455.752418 97.137 174.2184
459.054987 97.139 174.2442
462.381489 97.139 174.2714
465.732096 97.136 174.3004
469.106983 97.131 174.3315
472.506325 97.124 174.3646
475.930301 97.115 174.3996
479.379088 97.105 174.4362
482.852867 97.095 174.4743
486.351817 97.084 174.5139
489.876123 97.073 174.5551
493.425968 97.063 174.5977
497.001536 97.054 174.6418
500.603014 97.047 174.6875
504.230589 97.042 174.7349
507.884452 97.041 174.7839
511.564792 97.045 174.8349
515.271802 97.053 174.8879
519.005673 97.068 174.9431
522.766602 97.088 175.0009
526.554785 97.116 175.0613
530.370418 97.150 175.1242
534.213700 97.190 175.1895
538.084833 97.236 175.2567
541.984018 97.286 175.3254
545.911457 97.339 175.3955
549.867357 97.393 175.4664
553.851922 97.447 175.5378
557.865362 97.500 175.6093
561.907884 97.550 175.6802
565.979700 97.595 175.7503
570.081022 97.634 175.8189
574.212064 97.667 175.8858
578.373042 97.692 175.9504
582.564171 97.709 176.0125
586.785671 97.717 176.0716
591.037762 97.716 176.1275
595.320665 97.704 176.1804
599.634604 97.684 176.2302
603.979804 97.653 176.2772
608.356491 97.614 176.3215
612.764893 97.568 176.3635
617.205240 97.515 176.4031
621.677763 97.457 176.4405
626.182696 97.396 176.4758
630.720274 97.334 176.5088
635.290733 97.273 176.5396
639.894312 97.214 176.5683
644.531250 97.159 176.5950
649.201789 97.109 176.6199
653.906173 97.066 176.6426
658.644647 97.031 176.6628
663.417457 97.004 176.6797
668.224854 96.986 176.6929
673.067086 96.977 176.7021
677.944408 96.976 176.7074
682.857073 96.985 176.7094
687.805336 97.002 176.7089
692.789457 97.027 176.7074
697.809695 97.059 176.7061
702.866312 97.099 176.7061
707.959571 97.144 176.7080
713.089738 97.194 176.7118
718.257080 97.247 176.7164
723.461867 97.303 176.7203
728.704370 97.359 176.7219
733.984862 97.414 176.7195
739.303619 97.467 176.7117
744.660918 97.518 176.6973
750.057038 97.565 176.6757
755.492260 97.608 176.6463
760.966869 97.647 176.6094
766.481148 97.682 176.5653
772.035387 97.714 176.5149
777.629873 97.743 176.4590
783.264900 97.768 176.3983
788.940760 97.790 176.3332
794.657750 97.809 176.2637
800.416168 97.823 176.1892
806.216313 97.832 176.1089
812.058489 97.835 176.0220
817.943000 97.831 175.9276
823.870152 97.820 175.8253
829.840255 97.801 175.7152
835.853619 97.775 175.5973
841.910559 97.742 175.4718
848.011390 97.705 175.3390
854.156430 97.664 175.1987
860.346000 97.622 175.0509
866.580422 97.582 174.8955
872.860020 97.546 174.7325
879.185124 97.515 174.5620
885.556062 97.492 174.3840
891.973166 97.479 174.1988
898.436771 97.475 174.0069
904.947215 97.481 173.8090
911.504835 97.497 173.6063
918.109975 97.522 173.3998
924.762978 97.554 173.1905
931.464192 97.593 172.9789
938.213966 97.635 172.7650
945.012651 97.681 172.5485
951.860602 97.727 172.3287
958.758176 97.772 172.1055
965.705733 97.816 171.8788
972.703635 97.856 171.6496
979.752246 97.893 171.4196
986.851935 97.926 171.1906
994.003071 97.955 170.9646
1001.206027 97.981 170.7424
1008.461179 98.005 170.5240
1015.768904 98.028 170.3085
1023.129584 98.051 170.0942
1030.543603 98.076 169.8795
1038.011347 98.104 169.6628
1045.533205 98.135 169.4430
1053.109569 98.170 169.2195
1060.740836 98.209 168.9920
1068.427401 98.252 168.7604
1076.169666 98.300 168.5243
1083.968035 98.350 168.2830
1091.822915 98.402 168.0355
1099.734713 98.454 167.7809
1107.703844 98.504 167.5189
1115.730723 98.550 167.2504
1123.815768 98.592 166.9768
1131.959400 98.626 166.7001
1140.162045 98.654 166.4227
1148.424129 98.673 166.1462
1156.746083 98.685 165.8725
1165.128342 98.690 165.6031
1173.571343 98.689 165.3400
1182.075524 98.683 165.0848
1190.641331 98.674 164.8395
1199.269209 98.664 164.6056
1207.959608 98.653 164.3838
1216.712981 98.645 164.1740
1225.529785 98.640 163.9751
1234.410479 98.640 163.7852
1243.355526 98.645 163.6021
1252.365393 98.655 163.4238
1261.440549 98.671 163.2490
1270.581467 98.690 163.0770
1279.788624 98.714 162.9077
1289.062500 98.741 162.7410
1298.403578 98.769 162.5768
1307.812346 98.798 162.4153
1317.289293 98.827 162.2575
1326.834914 98.854 162.1048
1336.449707 98.878 161.9593
1346.134173 98.900 161.8228
1355.888816 98.918 161.6967
1365.714145 98.932 161.5815
1375.610673 98.941 161.4771
1385.578915 98.946 161.3834
1395.619391 98.946 161.3004
1405.732624 98.942 161.2281
1415.919142 98.933 161.1671
1426.179476 98.919 161.1183
1436.514160 98.901 161.0829
1446.923734 98.879 161.0620
1457.408740 98.854 161.0563
1467.969724 98.827 161.0656
1478.607238 98.797 161.0890
1489.321836 98.764 161.1260
1500.114076 98.729 161.1761
1510.984521 98.691 161.2401
1521.933737 98.650 161.3185
1532.962297 98.606 161.4123
1544.070773 98.559 161.5213
1555.259747 98.509 161.6450
1566.529800 98.457 161.7823
1577.881521 98.401 161.9328
1589.315501 98.344 162.0970
1600.832336 98.285 162.2768
1612.432627 98.224 162.4747
1624.116978 98.163 162.6933
1635.886000 98.103 162.9344
1647.740304 98.044 163.1987
1659.680509 97.987 163.4854
1671.707238 97.933 163.7924
1683.821118 97.882 164.1168
1696.022780 97.835 164.4546
1708.312860 97.791 164.8015
1720.692000 97.750 165.1533
1733.160843 97.713 165.5069
1745.720041 97.680 165.8615
1758.370248 97.649 166.2186
1771.112124 97.622 166.5814
1783.946332 97.599 166.9530
1796.873543 97.581 167.3351
1809.894429 97.569 167.7274
1823.009670 97.562 168.1280
1836.219950 97.562 168.5334
1849.525956 97.567 168.9396
1862.928384 97.577 169.3427
1876.427931 97.592 169.7385
1890.025301 97.610 170.1231
1903.721204 97.630 170.4928
1917.516352 97.651 170.8448
1931.411466 97.672 171.1783
1945.407270 97.693 171.4941
1959.504493 97.714 171.7934
1973.703870 97.734 172.0764
1988.006142 97.754 172.3419
2002.412054 97.776 172.5877
2016.922357 97.799 172.8109
2031.537808 97.824 173.0080
2046.259169 97.852 173.1753
2061.087206 97.884 173.3096
2076.022694 97.918 173.4094
2091.066410 97.955 173.4752
2106.219139 97.995 173.5090
2121.481671 98.038 173.5135
2136.854802 98.085 173.4918
2152.339333 98.134 173.4467
2167.936071 98.187 173.3805
2183.645829 98.244 173.2950
2199.469427 98.305 173.1906
2215.407689 98.370 173.0671
2231.461446 98.440 172.9240
2247.631536 98.514 172.7611
2263.918800 98.592 172.5794
2280.324089 98.673 172.3809
2296.848258 98.757 172.1685
2313.492167 98.844 171.9454
2330.256685 98.933 171.7147
2347.142685 99.024 171.4792
2364.151049 99.116 171.2410
2381.282662 99.209 171.0019
2398.538418 99.302 170.7633
2415.919216 99.394 170.5260
2433.425962 99.486 170.2902
2451.059570 99.576 170.0555
2468.820958 99.663 169.8210
2486.711052 99.747 169.5849
2504.730786 99.826 169.3450
2522.881098 99.901 169.0992
2541.162934 99.969 168.8453
2559.577248 100.030 168.5820
2578.125000 100.083 168.3086
2596.807157 100.125 168.0259
2615.624692 100.158 167.7358
2634.578586 100.179 167.4414
2653.669829 100.187 167.1461
2672.899414 100.184 166.8544
2692.268345 100.167 166.5712
2711.777632 100.138 166.3021
2731.428290 100.096 166.0534
2751.221345 100.040 165.8323
2771.157829 99.973 165.6462
2791.238781 99.893 165.5023
2811.465248 99.802 165.4081
2831.838284 99.701 165.3702
2852.358952 99.591 165.3948
2873.028321 99.473 165.4873
2893.847468 99.349 165.6520
2914.817480 99.221 165.8914
2935.939449 99.090 166.2065
2957.214476 98.958 166.5967
2978.643672 98.827 167.0602
3000.228152 98.698 167.5933
3021.969041 98.574 168.1911
3043.867475 98.457 168.8470
3065.924593 98.347 169.5525
3088.141547 98.248 170.2972
3110.519493 98.160 171.0688
3133.059600 98.084 171.8532
3155.763041 98.022 172.6353
3178.631001 97.973 173.3995
3201.664672 97.937 174.1309
3224.865254 97.913 174.8159
3248.233957 97.900 175.4439
3271.771999 97.897 176.0082
3295.480608 97.900 176.5062
3319.361019 97.909 176.9404
3343.414477 97.922 177.3177
3367.642236 97.937 177.6493
3392.045560 97.953 177.9487
3416.625721 97.972 178.2305
