* Measurement data measured by REW V5.31.3
* Source: EXCL: Headset (USB-C to 3.5mm Headphone Jack Adapter), MICROPHONE (Master Volume), 0, volume: 0.260
* Format: 256k Log Swept Sine, 1 sweep at -12.0 dBFS with no timing reference
* Dated: Feb 14, 2025 8:26:58 PM
* REW Settings:
*  C-weighting compensation: Off
*  Target level: 75.0 dB
* Note: ; 
* Measurement: Satyr 3 R3
* Smoothing: 1/6 octave
* Frequency Step: 96 ppo
* Start Frequency: 20.0 Hz
*
* Freq(Hz) SPL(dB) Phase(degrees)
20.141602 91.444 -24.9832
20.287556 91.463 -25.2140
20.434568 91.486 -25.5220
20.582645 91.511 -25.8975
20.731796 91.536 -26.3304
20.882027 91.558 -26.8105
21.033346 91.574 -27.3290
21.185763 91.584 -27.8779
21.339284 91.588 -28.4508
21.493917 91.585 -29.0425
21.649671 91.576 -29.6487
21.806553 91.561 -30.2660
21.964572 91.543 -30.8917
22.123737 91.522 -31.5232
22.284054 91.500 -32.1584
22.445534 91.479 -32.7953
22.608183 91.459 -33.4323
22.772012 91.442 -34.0678
22.937027 91.429 -34.7008
23.103238 91.422 -35.3309
23.270654 91.422 -35.9581
23.439282 91.429 -36.5832
23.609133 91.445 -37.2079
23.780215 91.471 -37.8342
23.952536 91.508 -38.4647
24.126106 91.556 -39.1024
24.300934 91.615 -39.7499
24.477028 91.685 -40.4094
24.654399 91.765 -41.0824
24.833055 91.852 -41.7695
25.013005 91.947 -42.4699
25.194260 92.047 -43.1816
25.376828 92.149 -43.9017
25.560719 92.253 -44.6262
25.745942 92.356 -45.3507
25.932508 92.457 -46.0706
26.120426 92.555 -46.7816
26.309705 92.649 -47.4802
26.500356 92.737 -48.1636
26.692388 92.821 -48.8304
26.885812 92.899 -49.4801
27.080638 92.972 -50.1134
27.276876 93.040 -50.7320
27.474535 93.105 -51.3380
27.673627 93.167 -51.9341
27.874161 93.228 -52.5228
28.076149 93.290 -53.1068
28.279600 93.356 -53.6883
28.484526 93.428 -54.2692
28.690937 93.509 -54.8513
28.898843 93.603 -55.4359
29.108256 93.710 -56.0241
29.319186 93.834 -56.6170
29.531645 93.974 -57.2152
29.745644 94.129 -57.8195
29.961193 94.297 -58.4301
30.178304 94.476 -59.0470
30.396989 94.660 -59.6698
30.617258 94.846 -60.2979
30.839123 95.027 -60.9301
31.062596 95.200 -61.5650
31.287688 95.359 -62.2009
31.514412 95.500 -62.8364
31.742778 95.619 -63.4700
31.972800 95.714 -64.1006
32.204488 95.783 -64.7276
32.437855 95.824 -65.3507
32.672913 95.838 -65.9700
32.909674 95.825 -66.5859
33.148151 95.786 -67.1992
33.388356 95.726 -67.8105
33.630302 95.645 -68.4202
33.874001 95.549 -69.0288
34.119466 95.439 -69.6365
34.366710 95.322 -70.2431
34.615745 95.200 -70.8487
34.866585 95.078 -71.4531
35.119243 94.960 -72.0564
35.373731 94.850 -72.6589
35.630064 94.751 -73.2610
35.888254 94.666 -73.8635
36.148315 94.599 -74.4669
36.410261 94.551 -75.0720
36.674104 94.524 -75.6791
36.939860 94.519 -76.2884
37.207542 94.538 -76.9000
37.477163 94.579 -77.5138
37.748738 94.645 -78.1295
38.022281 94.733 -78.7470
38.297806 94.843 -79.3666
38.575327 94.975 -79.9885
38.854860 95.127 -80.6132
39.136419 95.297 -81.2416
39.420017 95.486 -81.8742
39.705671 95.690 -82.5117
39.993395 95.909 -83.1548
40.283203 96.142 -83.8038
40.575112 96.387 -84.4589
40.869136 96.643 -85.1204
41.165290 96.908 -85.7881
41.463591 97.181 -86.4620
41.764053 97.460 -87.1420
42.066693 97.742 -87.8279
42.371525 98.026 -88.5194
42.678567 98.309 -89.2167
42.987834 98.589 -89.9197
43.299341 98.863 -90.6286
43.613106 99.129 -91.3437
43.929145 99.385 -92.0650
44.247473 99.629 -92.7927
44.568109 99.859 -93.5265
44.891068 100.074 -94.2662
45.216367 100.273 -95.0111
45.544023 100.454 -95.7604
45.874054 100.617 -96.5134
46.206476 100.763 -97.2693
46.541307 100.890 -98.0274
46.878565 101.000 -98.7867
47.218266 101.093 -99.5468
47.560429 101.169 -100.3068
47.905072 101.229 -101.0663
48.252212 101.275 -101.8249
48.601867 101.309 -102.5826
48.954056 101.330 -103.3394
49.308798 101.342 -104.0956
49.666109 101.346 -104.8515
50.026010 101.344 -105.6073
50.388520 101.337 -106.3634
50.753656 101.327 -107.1200
51.121437 101.315 -107.8778
51.491884 101.303 -108.6375
51.865016 101.293 -109.3995
52.240851 101.285 -110.1645
52.619410 101.279 -110.9325
53.000712 101.276 -111.7034
53.384777 101.276 -112.4764
53.771625 101.278 -113.2508
54.161276 101.282 -114.0255
54.553751 101.286 -114.7998
54.949070 101.291 -115.5731
55.347254 101.295 -116.3450
55.748323 101.297 -117.1153
56.152298 101.297 -117.8839
56.559201 101.293 -118.6510
56.969052 101.286 -119.4167
57.381873 101.274 -120.1811
57.797686 101.259 -120.9442
58.216512 101.240 -121.7062
58.638373 101.218 -122.4671
59.063291 101.192 -123.2268
59.491288 101.163 -123.9853
59.922386 101.132 -124.7426
60.356608 101.099 -125.4990
60.793977 101.063 -126.2547
61.234515 101.027 -127.0105
61.678246 100.989 -127.7665
62.125192 100.951 -128.5232
62.575377 100.913 -129.2802
63.028824 100.874 -130.0373
63.485557 100.837 -130.7937
63.945599 100.800 -131.5487
64.408975 100.765 -132.3013
64.875709 100.732 -133.0507
65.345825 100.700 -133.7965
65.819348 100.671 -134.5384
66.296302 100.644 -135.2763
66.776713 100.618 -136.0104
67.260604 100.595 -136.7407
67.748002 100.574 -137.4672
68.238932 100.555 -138.1897
68.733420 100.538 -138.9077
69.231490 100.522 -139.6206
69.733170 100.506 -140.3277
70.238485 100.492 -141.0284
70.747463 100.478 -141.7224
71.260128 100.464 -142.4091
71.776508 100.450 -143.0884
72.296630 100.436 -143.7601
72.820521 100.422 -144.4243
73.348209 100.408 -145.0807
73.879720 100.394 -145.7293
74.415083 100.380 -146.3699
74.954326 100.367 -147.0024
75.497475 100.353 -147.6266
76.044561 100.338 -148.2424
76.595612 100.323 -148.8499
77.150655 100.306 -149.4495
77.709720 100.287 -150.0416
78.272837 100.266 -150.6266
78.840034 100.242 -151.2050
79.411342 100.215 -151.7769
79.986789 100.184 -152.3427
80.566406 100.149 -152.9023
81.150224 100.111 -153.4558
81.738272 100.069 -154.0032
82.330581 100.024 -154.5445
82.927182 99.977 -155.0798
83.528107 99.929 -155.6092
84.133386 99.881 -156.1329
84.743051 99.837 -156.6513
85.357134 99.797 -157.1648
85.975667 99.766 -157.6738
86.598682 99.746 -158.1786
87.226212 99.742 -158.6795
87.858289 99.756 -159.1762
88.494946 99.791 -159.6685
89.136217 99.849 -160.1561
89.782135 99.932 -160.6385
90.432733 100.037 -161.1154
91.088046 100.165 -161.5863
91.748108 100.311 -162.0511
92.412952 100.471 -162.5094
93.082615 100.639 -162.9612
93.757130 100.811 -163.4065
94.436533 100.980 -163.8456
95.120859 101.143 -164.2785
95.810144 101.294 -164.7053
96.504423 101.431 -165.1260
97.203734 101.552 -165.5405
97.908112 101.655 -165.9488
98.617595 101.740 -166.3510
99.332219 101.810 -166.7470
100.052021 101.864 -167.1370
100.777039 101.906 -167.5211
101.507311 101.937 -167.8994
102.242875 101.959 -168.2720
102.983769 101.975 -168.6389
103.730032 101.985 -169.0004
104.481702 101.990 -169.3567
105.238820 101.990 -169.7081
106.001424 101.984 -170.0551
106.769554 101.973 -170.3978
107.543250 101.953 -170.7369
108.322553 101.923 -171.0724
109.107503 101.882 -171.4048
109.898141 101.829 -171.7341
110.694508 101.762 -172.0602
111.496646 101.682 -172.3832
112.304596 101.589 -172.7029
113.118402 101.483 -173.0188
113.938104 101.366 -173.3307
114.763747 101.241 -173.6382
115.595372 101.110 -173.9410
116.433024 100.974 -174.2390
117.276746 100.836 -174.5322
118.126581 100.698 -174.8204
118.982575 100.561 -175.1038
119.844772 100.426 -175.3826
120.713217 100.295 -175.6567
121.587954 100.167 -175.9264
122.469031 100.040 -176.1914
123.356492 99.915 -176.4518
124.250384 99.790 -176.7073
125.150753 99.664 -176.9579
126.057647 99.535 -177.2036
126.971113 99.401 -177.4445
127.891198 99.263 -177.6810
128.817950 99.118 -177.9131
129.751418 98.967 -178.1415
130.691651 98.810 -178.3662
131.638696 98.648 -178.5876
132.592604 98.482 -178.8058
133.553425 98.314 -179.0207
134.521208 98.148 -179.2321
135.496004 97.985 -179.4401
136.477864 97.829 -179.6446
137.466839 97.683 -179.8458
138.462981 97.552 179.9559
139.466340 97.437 179.7602
140.476971 97.340 179.5665
141.494925 97.262 179.3745
142.520256 97.202 179.1839
143.553016 97.158 178.9948
144.593260 97.128 178.8074
145.641043 97.107 178.6224
146.696418 97.092 178.4409
147.759441 97.079 178.2637
148.830166 97.063 178.0923
149.908651 97.043 177.9281
150.994951 97.016 177.7724
152.089123 96.980 177.6267
153.191223 96.937 177.4922
154.301310 96.885 177.3702
155.419441 96.828 177.2616
156.545674 96.766 177.1674
157.680069 96.701 177.0883
158.822683 96.635 177.0249
159.973578 96.571 176.9777
161.132813 96.508 176.9467
162.300447 96.449 176.9319
163.476543 96.394 176.9333
164.661162 96.343 176.9505
165.854364 96.296 176.9833
167.056213 96.255 177.0315
168.266772 96.219 177.0949
169.486102 96.189 177.1733
170.714268 96.165 177.2663
171.951334 96.148 177.3735
173.197364 96.138 177.4942
174.452424 96.135 177.6275
175.716578 96.138 177.7725
176.989893 96.149 177.9278
178.272434 96.165 178.0921
179.564270 96.186 178.2637
180.865467 96.211 178.4408
182.176092 96.239 178.6215
183.496216 96.269 178.8034
184.825905 96.300 178.9842
186.165229 96.331 179.1613
187.514259 96.362 179.3321
188.873065 96.393 179.4940
190.241717 96.424 179.6443
191.620287 96.457 179.7810
193.008847 96.491 179.9021
194.407468 96.526 -179.9939
195.816225 96.563 -179.9080
197.235190 96.600 -179.8410
198.664438 96.639 -179.7932
200.104042 96.678 -179.7650
201.554078 96.717 -179.7561
203.014622 96.754 -179.7665
204.485750 96.789 -179.7955
205.967538 96.821 -179.8420
207.460064 96.848 -179.9049
208.963405 96.872 -179.9826
210.477640 96.891 179.9265
212.002848 96.906 179.8235
213.539108 96.917 179.7102
215.086500 96.924 179.5877
216.645105 96.928 179.4575
218.215005 96.928 179.3209
219.796281 96.925 179.1791
221.389015 96.918 179.0336
222.993292 96.908 178.8852
224.609193 96.893 178.7349
226.236804 96.874 178.5836
227.876209 96.849 178.4317
229.527494 96.818 178.2797
231.190745 96.781 178.1281
232.866048 96.737 177.9769
234.553491 96.689 177.8262
236.253163 96.634 177.6761
237.965150 96.576 177.5263
239.689544 96.514 177.3770
241.426433 96.449 177.2279
243.175909 96.383 177.0792
244.938062 96.317 176.9311
246.712984 96.250 176.7839
248.500768 96.185 176.6378
250.301507 96.123 176.4930
252.115295 96.062 176.3500
253.942226 96.006 176.2087
255.782396 95.953 176.0694
257.635901 95.906 175.9322
259.502837 95.863 175.7973
261.383301 95.826 175.6649
263.277392 95.794 175.5352
265.185209 95.769 175.4086
267.106850 95.749 175.2851
269.042417 95.735 175.1649
270.992009 95.726 175.0480
272.955729 95.723 174.9343
274.933678 95.724 174.8237
276.925961 95.728 174.7162
278.932681 95.736 174.6119
280.953942 95.746 174.5107
282.989850 95.758 174.4126
285.040511 95.773 174.3177
287.106032 95.791 174.2256
289.186521 95.812 174.1364
291.282086 95.838 174.0496
293.392836 95.868 173.9652
295.518881 95.904 173.8831
297.660333 95.946 173.8032
299.817302 95.993 173.7254
301.989902 96.045 173.6499
304.178245 96.101 173.5766
306.382446 96.159 173.5054
308.602620 96.218 173.4364
310.838882 96.274 173.3694
313.091348 96.328 173.3044
315.360137 96.377 173.2411
317.645367 96.419 173.1797
319.947156 96.455 173.1198
322.265625 96.482 173.0615
324.600895 96.500 173.0046
326.953086 96.509 172.9492
329.322323 96.508 172.8950
331.708729 96.497 172.8420
334.112427 96.475 172.7901
336.533543 96.443 172.7392
338.972204 96.401 172.6894
341.428536 96.350 172.6406
343.902668 96.290 172.5931
346.394729 96.224 172.5468
348.904848 96.152 172.5018
351.433156 96.076 172.4583
353.979786 95.999 172.4162
356.544869 95.923 172.3758
359.128540 95.851 172.3371
361.730934 95.786 172.3000
364.352185 95.730 172.2646
366.992431 95.687 172.2307
369.651810 95.659 172.1977
372.330459 95.647 172.1654
375.028519 95.653 172.1335
377.746130 95.676 172.1018
380.483434 95.718 172.0702
383.240574 95.774 172.0389
386.017693 95.845 172.0080
388.814937 95.927 171.9778
391.632450 96.017 171.9483
394.470380 96.113 171.9196
397.328875 96.212 171.8915
400.208084 96.312 171.8638
403.108157 96.411 171.8362
406.029245 96.507 171.8085
408.971500 96.601 171.7805
411.935076 96.692 171.7522
414.920127 96.780 171.7234
417.926810 96.865 171.6945
420.955280 96.949 171.6655
424.005695 97.031 171.6367
427.078215 97.112 171.6082
430.173000 97.194 171.5803
433.290211 97.276 171.5532
436.430010 97.358 171.5270
439.592562 97.440 171.5018
442.778031 97.520 171.4777
445.986583 97.598 171.4546
449.218386 97.672 171.4325
452.473607 97.740 171.4114
455.752418 97.800 171.3912
459.054987 97.852 171.3718
462.381489 97.894 171.3535
465.732096 97.926 171.3363
469.106983 97.947 171.3204
472.506325 97.957 171.3062
475.930301 97.958 171.2936
479.379088 97.950 171.2831
482.852867 97.934 171.2746
486.351817 97.911 171.2685
489.876123 97.882 171.2648
493.425968 97.849 171.2634
497.001536 97.813 171.2641
500.603014 97.773 171.2664
504.230589 97.731 171.2696
507.884452 97.686 171.2730
511.564792 97.638 171.2759
515.271802 97.589 171.2775
519.005673 97.538 171.2773
522.766602 97.486 171.2748
526.554785 97.434 171.2697
530.370418 97.384 171.2617
534.213700 97.338 171.2506
538.084833 97.296 171.2366
541.984018 97.262 171.2197
545.911457 97.236 171.2001
549.867357 97.218 171.1781
553.851922 97.209 171.1542
557.865362 97.208 171.1294
561.907884 97.214 171.1047
565.979700 97.224 171.0821
570.081022 97.237 171.0642
574.212064 97.251 171.0540
578.373042 97.263 171.0547
582.564171 97.274 171.0687
586.785671 97.280 171.0970
591.037762 97.283 171.1389
595.320665 97.281 171.1921
599.634604 97.274 171.2533
603.979804 97.262 171.3186
608.356491 97.246 171.3845
612.764893 97.226 171.4482
617.205240 97.201 171.5073
621.677763 97.174 171.5600
626.182696 97.146 171.6050
630.720274 97.117 171.6411
635.290733 97.091 171.6672
639.894312 97.067 171.6829
644.531250 97.049 171.6874
649.201789 97.037 171.6809
653.906173 97.031 171.6633
658.644647 97.034 171.6352
663.417457 97.043 171.5970
668.224854 97.059 171.5496
673.067086 97.080 171.4937
677.944408 97.105 171.4301
682.857073 97.132 171.3594
687.805336 97.160 171.2817
692.789457 97.186 171.1974
697.809695 97.211 171.1065
702.866312 97.231 171.0092
707.959571 97.247 170.9055
713.089738 97.259 170.7957
718.257080 97.265 170.6801
723.461867 97.265 170.5593
728.704370 97.261 170.4338
733.984862 97.252 170.3043
739.303619 97.240 170.1712
744.660918 97.224 170.0353
750.057038 97.206 169.8970
755.492260 97.186 169.7570
760.966869 97.165 169.6154
766.481148 97.142 169.4724
772.035387 97.117 169.3280
777.629873 97.090 169.1821
783.264900 97.060 169.0350
788.940760 97.027 168.8868
794.657750 96.989 168.7378
800.416168 96.946 168.5881
806.216313 96.897 168.4375
812.058489 96.841 168.2854
817.943000 96.780 168.1307
823.870152 96.712 167.9725
829.840255 96.637 167.8097
835.853619 96.558 167.6416
841.910559 96.474 167.4674
848.011390 96.385 167.2865
854.156430 96.295 167.0984
860.346000 96.202 166.9031
866.580422 96.108 166.7004
872.860020 96.014 166.4910
879.185124 95.922 166.2756
885.556062 95.831 166.0551
891.973166 95.744 165.8310
898.436771 95.660 165.6046
904.947215 95.581 165.3776
911.504835 95.508 165.1517
918.109975 95.442 164.9289
924.762978 95.384 164.7108
931.464192 95.334 164.4985
938.213966 95.292 164.2926
945.012651 95.260 164.0931
951.860602 95.236 163.8994
958.758176 95.221 163.7114
965.705733 95.214 163.5289
972.703635 95.213 163.3524
979.752246 95.219 163.1828
986.851935 95.231 163.0208
994.003071 95.248 162.8662
1001.206027 95.270 162.7182
1008.461179 95.299 162.5742
1015.768904 95.334 162.4302
1023.129584 95.375 162.2818
1030.543603 95.423 162.1242
1038.011347 95.478 161.9538
1045.533205 95.539 161.7682
1053.109569 95.607 161.5671
1060.740836 95.681 161.3516
1068.427401 95.759 161.1239
1076.169666 95.842 160.8870
1083.968035 95.927 160.6434
1091.822915 96.014 160.3958
1099.734713 96.100 160.1460
1107.703844 96.184 159.8954
1115.730723 96.264 159.6454
1123.815768 96.338 159.3974
1131.959400 96.405 159.1536
1140.162045 96.463 158.9165
1148.424129 96.513 158.6888
1156.746083 96.554 158.4730
1165.128342 96.588 158.2712
1173.571343 96.614 158.0848
1182.075524 96.635 157.9143
1190.641331 96.652 157.7597
1199.269209 96.667 157.6208
1207.959608 96.680 157.4975
1216.712981 96.692 157.3896
1225.529785 96.704 157.2971
1234.410479 96.717 157.2204
1243.355526 96.729 157.1598
1252.365393 96.741 157.1161
1261.440549 96.752 157.0903
1270.581467 96.761 157.0828
1279.788624 96.769 157.0936
1289.062500 96.774 157.1217
1298.403578 96.778 157.1653
1307.812346 96.781 157.2220
1317.289293 96.781 157.2895
1326.834914 96.780 157.3658
1336.449707 96.778 157.4492
1346.134173 96.775 157.5385
1355.888816 96.770 157.6321
1365.714145 96.765 157.7285
1375.610673 96.758 157.8269
1385.578915 96.750 157.9271
1395.619391 96.740 158.0297
1405.732624 96.728 158.1363
1415.919142 96.715 158.2484
1426.179476 96.700 158.3674
1436.514160 96.685 158.4943
1446.923734 96.670 158.6295
1457.408740 96.657 158.7729
1467.969724 96.646 158.9237
1478.607238 96.638 159.0809
1489.321836 96.634 159.2428
1500.114076 96.635 159.4079
1510.984521 96.640 159.5749
1521.933737 96.650 159.7428
1532.962297 96.665 159.9115
1544.070773 96.684 160.0813
1555.259747 96.705 160.2527
1566.529800 96.730 160.4266
1577.881521 96.757 160.6047
1589.315501 96.785 160.7893
1600.832336 96.815 160.9832
1612.432627 96.846 161.1886
1624.116978 96.879 161.4062
1635.886000 96.913 161.6351
1647.740304 96.950 161.8721
1659.680509 96.991 162.1127
1671.707238 97.035 162.3517
1683.821118 97.082 162.5836
1696.022780 97.133 162.8035
1708.312860 97.187 163.0080
1720.692000 97.244 163.1956
1733.160843 97.303 163.3660
1745.720041 97.363 163.5201
1758.370248 97.425 163.6590
1771.112124 97.488 163.7845
1783.946332 97.550 163.8991
1796.873543 97.613 164.0048
1809.894429 97.675 164.1031
1823.009670 97.737 164.1935
1836.219950 97.798 164.2739
1849.525956 97.859 164.3415
1862.928384 97.919 164.3933
1876.427931 97.978 164.4272
1890.025301 98.036 164.4418
1903.721204 98.093 164.4363
1917.516352 98.148 164.4105
1931.411466 98.201 164.3647
1945.407270 98.252 164.3011
1959.504493 98.298 164.2224
1973.703870 98.340 164.1313
1988.006142 98.377 164.0295
2002.412054 98.407 163.9180
2016.922357 98.431 163.7974
2031.537808 98.447 163.6687
2046.259169 98.454 163.5331
2061.087206 98.451 163.3919
2076.022694 98.440 163.2465
2091.066410 98.419 163.0982
2106.219139 98.390 162.9477
2121.481671 98.354 162.7953
2136.854802 98.311 162.6404
2152.339333 98.263 162.4812
2167.936071 98.212 162.3150
2183.645829 98.159 162.1387
2199.469427 98.106 161.9497
2215.407689 98.052 161.7465
2231.461446 97.998 161.5290
2247.631536 97.945 161.2986
2263.918800 97.893 161.0575
2280.324089 97.842 160.8081
2296.848258 97.791 160.5532
2313.492167 97.742 160.2947
2330.256685 97.694 160.0340
2347.142685 97.647 159.7711
2364.151049 97.601 159.5056
2381.282662 97.556 159.2362
2398.538418 97.512 158.9612
2415.919216 97.468 158.6793
2433.425962 97.424 158.3891
2451.059570 97.380 158.0897
2468.820958 97.336 157.7810
2486.711052 97.292 157.4630
2504.730786 97.248 157.1362
2522.881098 97.204 156.8013
2541.162934 97.160 156.4587
2559.577248 97.116 156.1095
2578.125000 97.073 155.7546
2596.807157 97.032 155.3954
2615.624692 96.993 155.0338
2634.578586 96.955 154.6725
2653.669829 96.920 154.3149
2672.899414 96.888 153.9651
2692.268345 96.858 153.6284
2711.777632 96.831 153.3110
2731.428290 96.806 153.0203
2751.221345 96.783 152.7644
2771.157829 96.761 152.5515
2791.238781 96.740 152.3898
2811.465248 96.720 152.2866
2831.838284 96.699 152.2481
2852.358952 96.677 152.2791
2873.028321 96.653 152.3824
2893.847468 96.627 152.5599
2914.817480 96.598 152.8117
2935.939449 96.566 153.1378
2957.214476 96.530 153.5374
2978.643672 96.489 154.0099
3000.228152 96.445 154.5543
3021.969041 96.398 155.1692
3043.867475 96.349 155.8520
3065.924593 96.299 156.5983
3088.141547 96.250 157.4019
3110.519493 96.205 158.2541
3133.059600 96.164 159.1444
3155.763041 96.131 160.0599
3178.631001 96.106 160.9856
3201.664672 96.091 161.9051
3224.865254 96.088 162.8010
3248.233957 96.095 163.6561
3271.771999 96.113 164.4544
3295.480608 96.140 165.1828
3319.361019 96.175 165.8321
3343.414477 96.216 166.3981
3367.642236 96.260 166.8819
3392.045560 96.306 167.2892
3416.625721 96.352 167.6294
3441.383999 96.398 167.9139
