* Measurement data measured by REW V5.31.3
* Source: EXCL: Headset (USB-C to 3.5mm Headphone Jack Adapter), MICROPHONE (Master Volume), 0, volume: 0.750
* Format: 256k Log Swept Sine, 1 sweep at -12.0 dBFS with no timing reference
* Dated: Apr 1, 2025 10:30:38 PM
* REW Settings:
*  C-weighting compensation: Off
*  Target level: 75.0 dB
* Note: ; 
* Measurement: Satyr 3 (Massive Mod) L5
* Smoothing: 1/6 octave
* Frequency Step: 96 ppo
* Start Frequency: 20.0 Hz
*
* Freq(Hz) SPL(dB) Phase(degrees)
20.187378 87.546 -110.5549
20.333664 87.574 -110.6884
20.481010 87.613 -110.8652
20.629424 87.661 -111.0778
20.778913 87.717 -111.3183
20.929486 87.782 -111.5796
21.081150 87.854 -111.8558
21.233912 87.933 -112.1422
21.387782 88.018 -112.4356
21.542767 88.107 -112.7339
21.698874 88.200 -113.0356
21.856113 88.295 -113.3399
22.014492 88.393 -113.6463
22.174018 88.491 -113.9544
22.334700 88.589 -114.2639
22.496546 88.686 -114.5749
22.659566 88.781 -114.8878
22.823766 88.873 -115.2035
22.989157 88.962 -115.5239
23.155745 89.047 -115.8511
23.323542 89.128 -116.1881
23.492554 89.203 -116.5381
23.662790 89.272 -116.9042
23.834261 89.335 -117.2892
24.006973 89.391 -117.6947
24.180938 89.439 -118.1213
24.356163 89.479 -118.5682
24.532658 89.511 -119.0329
24.710431 89.535 -119.5117
24.889493 89.552 -119.9999
25.069853 89.562 -120.4926
25.251519 89.567 -120.9845
25.434502 89.569 -121.4713
25.618811 89.569 -121.9497
25.804456 89.569 -122.4176
25.991445 89.571 -122.8745
26.179790 89.575 -123.3210
26.369500 89.585 -123.7590
26.560584 89.599 -124.1906
26.753053 89.619 -124.6178
26.946917 89.644 -125.0423
27.142185 89.673 -125.4652
27.338869 89.707 -125.8867
27.536977 89.744 -126.3064
27.736522 89.784 -126.7236
27.937512 89.825 -127.1378
28.139959 89.866 -127.5488
28.343872 89.909 -127.9573
28.549264 89.950 -128.3649
28.756143 89.991 -128.7738
28.964522 90.031 -129.1867
29.174411 90.070 -129.6065
29.385821 90.106 -130.0360
29.598763 90.141 -130.4771
29.813248 90.175 -130.9310
30.029287 90.206 -131.3981
30.246891 90.237 -131.8776
30.466073 90.267 -132.3681
30.686842 90.297 -132.8675
30.909212 90.328 -133.3737
31.133193 90.361 -133.8839
31.358797 90.396 -134.3959
31.586035 90.435 -134.9071
31.814921 90.477 -135.4153
32.045465 90.523 -135.9186
32.277680 90.573 -136.4151
32.511577 90.627 -136.9037
32.747169 90.685 -137.3832
32.984469 90.747 -137.8533
33.223488 90.811 -138.3140
33.464239 90.878 -138.7657
33.706735 90.948 -139.2092
33.950987 91.019 -139.6456
34.197010 91.091 -140.0756
34.444816 91.164 -140.5000
34.694417 91.237 -140.9194
34.945827 91.311 -141.3339
35.199059 91.385 -141.7437
35.454126 91.458 -142.1488
35.711041 91.532 -142.5491
35.969818 91.606 -142.9448
36.230470 91.679 -143.3364
36.493011 91.753 -143.7244
36.757455 91.826 -144.1093
37.023814 91.898 -144.4917
37.292104 91.968 -144.8720
37.562338 92.038 -145.2507
37.834530 92.105 -145.6275
38.108695 92.170 -146.0023
38.384846 92.233 -146.3747
38.662999 92.294 -146.7440
38.943167 92.352 -147.1099
39.225365 92.408 -147.4720
39.509608 92.463 -147.8303
39.795911 92.517 -148.1849
40.084289 92.569 -148.5361
40.374756 92.620 -148.8841
40.667328 92.670 -149.2292
40.962020 92.719 -149.5715
41.258848 92.767 -149.9110
41.557827 92.813 -150.2476
41.858972 92.857 -150.5815
42.162299 92.900 -150.9132
42.467824 92.941 -151.2435
42.775564 92.979 -151.5735
43.085533 93.016 -151.9042
43.397749 93.050 -152.2366
43.712227 93.083 -152.5715
44.028983 93.113 -152.9097
44.348036 93.143 -153.2518
44.669400 93.171 -153.5985
44.993093 93.199 -153.9508
45.319131 93.227 -154.3097
45.647532 93.256 -154.6763
45.978313 93.284 -155.0513
46.311491 93.313 -155.4347
46.647083 93.341 -155.8258
46.985107 93.369 -156.2232
47.325581 93.396 -156.6252
47.668521 93.421 -157.0299
48.013947 93.444 -157.4362
48.361876 93.466 -157.8437
48.712326 93.485 -158.2530
49.065315 93.503 -158.6655
49.420863 93.520 -159.0827
49.778987 93.535 -159.5063
50.139706 93.549 -159.9370
50.503039 93.562 -160.3749
50.869005 93.573 -160.8193
51.237623 93.584 -161.2690
51.608912 93.593 -161.7224
51.982891 93.601 -162.1777
52.359580 93.607 -162.6331
52.739000 93.612 -163.0871
53.121168 93.615 -163.5383
53.506106 93.616 -163.9857
53.893833 93.616 -164.4290
54.284370 93.615 -164.8681
54.677737 93.613 -165.3027
55.073955 93.611 -165.7323
55.473043 93.607 -166.1562
55.875024 93.604 -166.5727
56.279917 93.602 -166.9806
56.687745 93.600 -167.3785
57.098527 93.599 -167.7658
57.512287 93.598 -168.1427
57.929045 93.600 -168.5106
58.348822 93.602 -168.8725
58.771642 93.606 -169.2328
59.197525 93.611 -169.5977
59.626495 93.618 -169.9734
60.058573 93.627 -170.3656
60.493782 93.638 -170.7774
60.932145 93.650 -171.2096
61.373685 93.664 -171.6602
61.818424 93.680 -172.1256
62.266386 93.697 -172.6013
62.717593 93.716 -173.0825
63.172071 93.737 -173.5648
63.629842 93.758 -174.0444
64.090930 93.780 -174.5179
64.555359 93.803 -174.9831
65.023154 93.826 -175.4386
65.494339 93.849 -175.8841
65.968938 93.872 -176.3200
66.446976 93.894 -176.7473
66.928478 93.916 -177.1672
67.413469 93.937 -177.5809
67.901975 93.956 -177.9894
68.394021 93.973 -178.3936
68.889632 93.989 -178.7942
69.388835 94.002 -179.1915
69.891655 94.014 -179.5859
70.398118 94.024 -179.9776
70.908252 94.031 179.6332
71.422083 94.036 179.2468
71.939636 94.038 178.8631
72.460941 94.038 178.4822
72.986023 94.036 178.1040
73.514909 94.031 177.7286
74.047629 94.023 177.3557
74.584208 94.013 176.9850
75.124676 94.001 176.6165
75.669061 93.986 176.2498
76.217390 93.969 175.8846
76.769692 93.950 175.5209
77.325997 93.929 175.1587
77.886333 93.906 174.7985
78.450730 93.882 174.4409
79.019216 93.856 174.0865
79.591822 93.828 173.7361
80.168577 93.799 173.3898
80.749512 93.770 173.0480
81.334656 93.740 172.7107
81.924040 93.709 172.3780
82.517696 93.677 172.0498
83.115653 93.646 171.7260
83.717943 93.614 171.4064
84.324598 93.582 171.0906
84.935649 93.551 170.7783
85.551128 93.519 170.4688
86.171066 93.488 170.1619
86.795497 93.457 169.8572
87.424453 93.426 169.5547
88.057967 93.395 169.2544
88.696071 93.364 168.9567
89.338800 93.333 168.6620
89.986185 93.301 168.3708
90.638262 93.270 168.0836
91.295065 93.238 167.8007
91.956626 93.206 167.5221
92.622982 93.174 167.2474
93.294166 93.142 166.9763
93.970214 93.109 166.7084
94.651161 93.076 166.4434
95.337042 93.044 166.1812
96.027894 93.011 165.9219
96.723752 92.979 165.6657
97.424652 92.946 165.4131
98.130631 92.914 165.1644
98.841726 92.882 164.9197
99.557974 92.851 164.6793
100.279412 92.820 164.4426
101.006078 92.790 164.2094
101.738010 92.761 163.9791
102.475245 92.732 163.7512
103.217823 92.704 163.5254
103.965782 92.677 163.3014
104.719161 92.652 163.0791
105.477999 92.627 162.8584
106.242336 92.603 162.6391
107.012212 92.581 162.4211
107.787666 92.559 162.2044
108.568740 92.538 161.9890
109.355474 92.518 161.7749
110.147909 92.500 161.5623
110.946086 92.482 161.3515
111.750047 92.466 161.1424
112.559834 92.450 160.9351
113.375489 92.435 160.7293
114.197055 92.422 160.5247
115.024574 92.408 160.3209
115.858089 92.395 160.1175
116.697645 92.382 159.9144
117.543284 92.369 159.7118
118.395051 92.356 159.5102
119.252990 92.342 159.3106
120.117147 92.327 159.1137
120.987565 92.312 158.9201
121.864291 92.297 158.7296
122.747370 92.280 158.5415
123.636848 92.263 158.3552
124.532771 92.245 158.1699
125.435187 92.226 157.9853
126.344142 92.207 157.8010
127.259684 92.186 157.6172
128.181860 92.164 157.4343
129.110718 92.141 157.2527
130.046308 92.117 157.0732
130.988677 92.091 156.8964
131.937875 92.063 156.7229
132.893951 92.034 156.5533
133.856956 92.004 156.3885
134.826938 91.972 156.2296
135.803950 91.939 156.0775
136.788041 91.904 155.9338
137.779264 91.868 155.7994
138.777669 91.832 155.6750
139.783309 91.794 155.5604
140.796237 91.757 155.4554
141.816504 91.719 155.3589
142.844165 91.681 155.2697
143.879273 91.644 155.1859
144.921881 91.607 155.1060
145.972045 91.570 155.0282
147.029819 91.533 154.9510
148.095257 91.496 154.8730
149.168417 91.459 154.7933
150.249353 91.422 154.7114
151.338121 91.384 154.6269
152.434780 91.346 154.5403
153.539385 91.308 154.4523
154.651995 91.269 154.3643
155.772667 91.229 154.2779
156.901460 91.189 154.1949
158.038432 91.148 154.1172
159.183644 91.106 154.0466
160.337154 91.064 153.9848
161.499023 91.022 153.9334
162.669312 90.979 153.8940
163.848081 90.937 153.8678
165.035392 90.896 153.8557
166.231306 90.856 153.8583
167.435887 90.817 153.8757
168.649196 90.780 153.9072
169.871298 90.745 153.9521
171.102255 90.712 154.0089
172.342133 90.682 154.0755
173.590995 90.655 154.1497
174.848907 90.631 154.2288
176.115934 90.609 154.3095
177.392143 90.591 154.3890
178.677599 90.576 154.4643
179.972371 90.563 154.5328
181.276525 90.553 154.5923
182.590129 90.545 154.6407
183.913252 90.538 154.6768
185.245964 90.533 154.6995
186.588332 90.528 154.7081
187.940428 90.523 154.7028
189.302322 90.517 154.6839
190.674085 90.511 154.6522
192.055788 90.505 154.6087
193.447503 90.497 154.5547
194.849303 90.488 154.4912
196.261262 90.478 154.4197
197.683452 90.468 154.3411
199.115948 90.456 154.2566
200.558824 90.445 154.1671
202.012156 90.433 154.0735
203.476019 90.421 153.9761
204.950490 90.409 153.8751
206.435646 90.397 153.7702
207.931564 90.384 153.6616
209.438322 90.372 153.5496
210.955998 90.359 153.4347
212.484672 90.345 153.3177
214.024424 90.331 153.1996
215.575333 90.317 153.0814
217.137481 90.303 152.9639
218.710948 90.289 152.8478
220.295818 90.276 152.7337
221.892172 90.263 152.6221
223.500094 90.250 152.5134
225.119668 90.239 152.4080
226.750978 90.228 152.3060
228.394109 90.219 152.2073
230.049147 90.211 152.1116
231.716178 90.204 152.0182
233.395289 90.198 151.9264
235.086567 90.194 151.8354
236.790102 90.191 151.7446
238.505980 90.189 151.6537
240.234293 90.188 151.5623
241.975130 90.188 151.4702
243.728581 90.189 151.3769
245.494739 90.190 151.2820
247.273695 90.192 151.1854
249.065542 90.195 151.0866
250.870374 90.197 150.9859
252.688284 90.200 150.8834
254.519367 90.202 150.7795
256.363720 90.205 150.6746
258.221437 90.206 150.5688
260.092616 90.207 150.4625
261.977354 90.208 150.3556
263.875750 90.208 150.2484
265.787903 90.208 150.1412
267.713911 90.207 150.0347
269.653877 90.206 149.9292
271.607900 90.205 149.8253
273.576083 90.203 149.7233
275.558528 90.201 149.6241
277.555338 90.200 149.5278
279.566619 90.198 149.4350
281.592474 90.196 149.3456
283.633009 90.194 149.2593
285.688331 90.192 149.1763
287.758546 90.190 149.0963
289.843763 90.188 149.0197
291.944090 90.187 148.9468
294.059638 90.186 148.8783
296.190515 90.186 148.8147
298.336833 90.187 148.7565
300.498705 90.189 148.7040
302.676243 90.191 148.6573
304.869559 90.195 148.6158
307.078770 90.199 148.5789
309.303989 90.205 148.5453
311.545334 90.212 148.5140
313.802919 90.220 148.4835
316.076865 90.229 148.4530
318.367288 90.238 148.4216
320.674309 90.248 148.3887
322.998047 90.258 148.3539
325.338624 90.269 148.3167
327.696162 90.279 148.2767
330.070783 90.289 148.2334
332.462612 90.298 148.1864
334.871773 90.307 148.1353
337.298392 90.315 148.0801
339.742595 90.323 148.0206
342.204510 90.329 147.9568
344.684265 90.334 147.8888
347.181989 90.338 147.8167
349.697813 90.341 147.7406
352.231868 90.343 147.6609
354.784285 90.343 147.5782
357.355198 90.342 147.4932
359.944741 90.340 147.4067
362.553049 90.336 147.3197
365.180258 90.332 147.2327
367.826505 90.326 147.1463
370.491927 90.320 147.0608
373.176665 90.313 146.9767
375.880856 90.306 146.8943
378.604644 90.299 146.8135
381.348169 90.291 146.7343
384.111575 90.283 146.6562
386.895006 90.275 146.5789
389.698607 90.266 146.5015
392.522524 90.258 146.4236
395.366904 90.249 146.3451
398.231895 90.239 146.2659
401.117648 90.229 146.1864
404.024312 90.218 146.1073
406.952038 90.207 146.0295
409.900981 90.194 145.9537
412.871292 90.180 145.8805
415.863128 90.166 145.8103
418.876643 90.150 145.7433
421.911996 90.132 145.6794
424.969344 90.114 145.6186
428.048847 90.094 145.5605
431.150666 90.073 145.5045
434.274961 90.051 145.4500
437.421897 90.028 145.3961
440.591636 90.004 145.3423
443.784345 89.979 145.2877
447.000189 89.953 145.2321
450.239337 89.928 145.1750
453.501956 89.902 145.1164
456.788219 89.876 145.0563
460.098294 89.849 144.9949
463.432356 89.823 144.9322
466.790578 89.797 144.8683
470.173135 89.772 144.8034
473.580203 89.747 144.7374
477.011961 89.722 144.6706
480.468586 89.698 144.6030
483.950259 89.675 144.5349
487.457163 89.652 144.4662
490.989478 89.631 144.3975
494.547390 89.611 144.3289
498.131084 89.592 144.2606
501.740748 89.574 144.1932
505.376568 89.558 144.1270
509.038735 89.543 144.0623
512.727439 89.531 143.9989
516.442874 89.520 143.9366
520.185232 89.511 143.8747
523.954708 89.505 143.8123
527.751500 89.501 143.7485
531.575805 89.499 143.6828
535.427822 89.500 143.6148
539.307753 89.502 143.5444
543.215800 89.507 143.4718
547.152165 89.514 143.3976
551.117055 89.523 143.3221
555.110677 89.535 143.2460
559.133237 89.548 143.1694
563.184947 89.564 143.0925
567.266018 89.581 143.0151
571.376661 89.600 142.9368
575.517092 89.621 142.8574
579.687526 89.642 142.7764
583.888181 89.665 142.6936
588.119275 89.688 142.6089
592.381030 89.710 142.5223
596.673667 89.733 142.4341
600.997410 89.755 142.3444
605.352485 89.776 142.2531
609.739119 89.797 142.1604
614.157540 89.816 142.0660
618.607979 89.835 141.9700
623.090667 89.853 141.8721
627.605839 89.869 141.7721
632.153730 89.885 141.6696
636.734576 89.899 141.5639
641.348617 89.913 141.4543
645.996094 89.925 141.3398
650.677248 89.936 141.2198
655.392323 89.947 141.0939
660.141566 89.956 140.9621
664.925224 89.963 140.8248
669.743546 89.970 140.6826
674.596784 89.975 140.5367
679.485191 89.979 140.3880
684.409020 89.981 140.2376
689.368530 89.982 140.0860
694.363979 89.982 139.9338
699.395626 89.980 139.7809
704.463736 89.978 139.6274
709.568570 89.974 139.4729
714.710396 89.969 139.3171
719.889483 89.963 139.1597
725.106099 89.956 139.0004
730.360516 89.948 138.8387
735.653010 89.939 138.6740
740.983855 89.928 138.5054
746.353329 89.917 138.3321
751.761713 89.904 138.1534
757.209288 89.890 137.9691
762.696339 89.875 137.7793
768.223151 89.858 137.5844
773.790013 89.840 137.3844
779.397214 89.821 137.1796
785.045047 89.800 136.9700
790.733808 89.779 136.7557
796.463791 89.757 136.5369
802.235296 89.733 136.3138
808.048623 89.710 136.0868
813.904077 89.686 135.8561
819.801961 89.662 135.6221
825.742584 89.638 135.3851
831.726255 89.614 135.1453
837.753287 89.590 134.9026
843.823992 89.566 134.6570
849.938689 89.543 134.4083
856.097695 89.520 134.1567
862.301332 89.497 133.9024
868.549922 89.475 133.6457
874.843793 89.453 133.3861
881.183272 89.432 133.1232
887.568689 89.411 132.8558
894.000378 89.391 132.5831
900.478673 89.372 132.3043
907.003913 89.353 132.0192
913.576437 89.334 131.7285
920.196588 89.314 131.4336
926.864712 89.295 131.1365
933.581156 89.276 130.8395
940.346270 89.256 130.5449
947.160407 89.238 130.2543
954.023921 89.220 129.9683
960.937172 89.204 129.6869
967.900519 89.189 129.4088
974.914325 89.177 129.1323
981.978956 89.166 128.8552
989.094780 89.158 128.5753
996.262169 89.151 128.2911
1003.481495 89.146 128.0018
1010.753136 89.143 127.7077
1018.077470 89.140 127.4099
1025.454879 89.137 127.1099
1032.885748 89.136 126.8096
1040.370463 89.134 126.5106
1047.909417 89.133 126.2140
1055.503000 89.133 125.9203
1063.151610 89.133 125.6297
1070.855645 89.132 125.3418
1078.615506 89.132 125.0563
1086.431599 89.132 124.7728
1094.304330 89.131 124.4912
1102.234110 89.129 124.2118
1110.221353 89.126 123.9352
1118.266475 89.122 123.6622
1126.369895 89.116 123.3941
1134.532035 89.109 123.1316
1142.753322 89.100 122.8755
1151.034184 89.090 122.6260
1159.375052 89.077 122.3838
1167.776361 89.063 122.1496
1176.238550 89.046 121.9249
1184.762060 89.028 121.7120
1193.347334 89.008 121.5131
1201.994821 88.986 121.3307
1210.704971 88.963 121.1663
1219.478238 88.940 121.0206
1228.315080 88.917 120.8930
1237.215957 88.894 120.7819
1246.181334 88.872 120.6851
1255.211678 88.851 120.5997
1264.307459 88.830 120.5238
1273.469152 88.810 120.4562
1282.697235 88.791 120.3970
1291.992188 88.772 120.3469
1301.354495 88.753 120.3063
1310.784647 88.735 120.2755
1320.283132 88.717 120.2538
1329.850448 88.699 120.2398
1339.487093 88.681 120.2329
1349.193569 88.664 120.2328
1358.970381 88.646 120.2404
1368.818041 88.627 120.2574
1378.737061 88.609 120.2851
1388.727958 88.591 120.3249
1398.791253 88.574 120.3775
1408.927471 88.557 120.4439
1419.137140 88.541 120.5255
1429.420793 88.526 120.6236
1439.778965 88.513 120.7402
1450.212197 88.502 120.8770
1460.721033 88.492 121.0355
1471.306019 88.485 121.2163
1481.967709 88.481 121.4187
1492.706658 88.480 121.6406
1503.523426 88.481 121.8787
1514.418576 88.486 122.1301
1525.392678 88.491 122.3925
1536.446302 88.498 122.6656
1547.580025 88.506 122.9510
1558.794428 88.513 123.2516
1570.090095 88.520 123.5703
1581.467615 88.526 123.9091
1592.927581 88.533 124.2676
1604.470591 88.540 124.6439
1616.097246 88.547 125.0347
1627.808153 88.555 125.4359
1639.603922 88.563 125.8434
1651.485168 88.572 126.2530
1663.452510 88.580 126.6614
1675.506573 88.589 127.0665
1687.647984 88.596 127.4679
1699.877377 88.603 127.8672
1712.195390 88.609 128.2674
1724.602663 88.613 128.6720
1737.099845 88.618 129.0839
1749.687587 88.623 129.5050
1762.366544 88.629 129.9359
1775.137379 88.637 130.3755
1788.000756 88.647 130.8210
1800.957346 88.661 131.2676
1814.007826 88.678 131.7091
1827.152874 88.699 132.1384
1840.393177 88.723 132.5485
1853.729425 88.749 132.9334
1867.162312 88.776 133.2888
1880.692540 88.803 133.6128
1894.320813 88.829 133.9061
1908.047843 88.854 134.1713
1921.874344 88.876 134.4122
1935.801038 88.895 134.6331
1949.828650 88.911 134.8378
1963.957912 88.925 135.0282
1978.189561 88.936 135.2045
1992.524338 88.946 135.3650
2006.962991 88.954 135.5072
2021.506272 88.960 135.6288
2036.154940 88.964 135.7279
2050.909758 88.967 135.8034
2065.771495 88.968 135.8544
2080.740927 88.967 135.8803
2095.818833 88.963 135.8810
2111.006001 88.958 135.8571
2126.303220 88.949 135.8100
2141.711290 88.938 135.7416
2157.231013 88.924 135.6544
2172.863198 88.907 135.5508
2188.608660 88.886 135.4334
2204.468221 88.863 135.3054
2220.442706 88.837 135.1702
2236.532950 88.808 135.0312
2252.739789 88.776 134.8915
2269.064070 88.742 134.7534
2285.506644 88.706 134.6190
2302.068367 88.669 134.4895
2318.750104 88.630 134.3655
2335.552723 88.592 134.2465
2352.477101 88.553 134.1313
2369.524119 88.515 134.0188
2386.694668 88.476 133.9083
2403.989641 88.439 133.8000
2421.409941 88.401 133.6946
2438.956476 88.365 133.5925
2456.630160 88.329 133.4944
2474.431915 88.295 133.4007
2492.362668 88.263 133.3113
2510.423356 88.232 133.2259
2528.614918 88.203 133.1431
2546.938304 88.176 133.0611
2565.394469 88.152 132.9775
2583.984375 88.129 132.8898
2602.708991 88.107 132.7963
2621.569293 88.086 132.6959
2640.566265 88.065 132.5891
2659.700897 88.042 132.4778
2678.974186 88.018 132.3660
2698.387137 87.991 132.2589
2717.940763 87.960 132.1634
2737.636082 87.925 132.0875
2757.474121 87.887 132.0397
2777.455915 87.844 132.0283
2797.582506 87.798 132.0615
2817.854942 87.749 132.1465
2838.274281 87.698 132.2899
2858.841586 87.645 132.4972
2879.557931 87.591 132.7727
2900.424394 87.538 133.1201
2921.442065 87.485 133.5417
2942.612039 87.434 134.0396
2963.935418 87.386 134.6145
2985.413316 87.342 135.2666
3007.046852 87.302 135.9944
3028.837153 87.268 136.7953
3050.785356 87.241 137.6640
3072.892604 87.221 138.5934
3095.160050 87.210 139.5736
3117.588856 87.207 140.5917
3140.180190 87.215 141.6323
3162.935230 87.231 142.6775
3185.855163 87.257 143.7082
3208.941182 87.290 144.7057
3232.194493 87.328 145.6536
3255.616307 87.371 146.5392
3279.207844 87.414 147.3557
3302.970336 87.456 148.1025
3326.905021 87.494 148.7854
3351.013146 87.527 149.4158
3375.295969 87.553 150.0088
3399.754755 87.572 150.5808
3424.390779 87.587 151.1472
3449.205326 87.598 151.7195
3474.199690 87.609 152.3037
3499.375173 87.622 152.8984
3524.733088 87.640 153.4948
3550.274757 87.667 154.0769
