* Measurement data measured by REW V5.31.3
* Source: EXCL: Headset (USB-C to 3.5mm Headphone Jack Adapter), MICROPHONE (Master Volume), 0, volume: 0.260
* Format: 256k Log Swept Sine, 1 sweep at -12.0 dBFS with no timing reference
* Dated: Feb 14, 2025 1:49:34 PM
* REW Settings:
*  C-weighting compensation: Off
*  Target level: 75.0 dB
* Note: ; 
* Measurement: Satyr 3 R1
* Smoothing: 1/6 octave
* Frequency Step: 96 ppo
* Start Frequency: 20.0 Hz
*
* Freq(Hz) SPL(dB) Phase(degrees)
20.141602 94.535 -31.0548
20.287556 94.548 -31.2891
20.434568 94.564 -31.6008
20.582645 94.581 -31.9785
20.731796 94.595 -32.4100
20.882027 94.605 -32.8837
21.033346 94.609 -33.3891
21.185763 94.605 -33.9177
21.339284 94.595 -34.4627
21.493917 94.577 -35.0193
21.649671 94.554 -35.5845
21.806553 94.527 -36.1567
21.964572 94.497 -36.7352
22.123737 94.466 -37.3204
22.284054 94.436 -37.9127
22.445534 94.409 -38.5126
22.608183 94.385 -39.1206
22.772012 94.367 -39.7367
22.937027 94.355 -40.3605
23.103238 94.350 -40.9914
23.270654 94.353 -41.6285
23.439282 94.364 -42.2706
23.609133 94.385 -42.9167
23.780215 94.416 -43.5657
23.952536 94.457 -44.2169
24.126106 94.509 -44.8698
24.300934 94.571 -45.5241
24.477028 94.643 -46.1797
24.654399 94.725 -46.8366
24.833055 94.816 -47.4948
25.013005 94.913 -48.1540
25.194260 95.015 -48.8138
25.376828 95.120 -49.4733
25.560719 95.227 -50.1318
25.745942 95.333 -50.7881
25.932508 95.438 -51.4410
26.120426 95.540 -52.0898
26.309705 95.638 -52.7339
26.500356 95.731 -53.3734
26.692388 95.819 -54.0089
26.885812 95.902 -54.6415
27.080638 95.979 -55.2731
27.276876 96.052 -55.9056
27.474535 96.121 -56.5414
27.673627 96.188 -57.1825
27.874161 96.253 -57.8306
28.076149 96.321 -58.4869
28.279600 96.392 -59.1518
28.484526 96.470 -59.8251
28.690937 96.557 -60.5056
28.898843 96.657 -61.1916
29.108256 96.771 -61.8812
29.319186 96.901 -62.5721
29.531645 97.047 -63.2619
29.745644 97.208 -63.9490
29.961193 97.382 -64.6319
30.178304 97.565 -65.3098
30.396989 97.755 -65.9826
30.617258 97.944 -66.6506
30.839123 98.129 -67.3148
31.062596 98.304 -67.9765
31.287688 98.464 -68.6370
31.514412 98.605 -69.2977
31.742778 98.722 -69.9600
31.972800 98.814 -70.6250
32.204488 98.877 -71.2938
32.437855 98.912 -71.9671
32.672913 98.918 -72.6454
32.909674 98.896 -73.3288
33.148151 98.848 -74.0171
33.388356 98.776 -74.7095
33.630302 98.684 -75.4049
33.874001 98.575 -76.1015
34.119466 98.453 -76.7971
34.366710 98.321 -77.4895
34.615745 98.185 -78.1763
34.866585 98.048 -78.8555
35.119243 97.915 -79.5258
35.373731 97.788 -80.1867
35.630064 97.673 -80.8382
35.888254 97.571 -81.4814
36.148315 97.485 -82.1177
36.410261 97.419 -82.7489
36.674104 97.372 -83.3769
36.939860 97.347 -84.0035
37.207542 97.345 -84.6301
37.477163 97.365 -85.2579
37.748738 97.409 -85.8878
38.022281 97.475 -86.5204
38.297806 97.563 -87.1561
38.575327 97.672 -87.7948
38.854860 97.802 -88.4363
39.136419 97.950 -89.0798
39.420017 98.116 -89.7244
39.705671 98.299 -90.3693
39.993395 98.497 -91.0135
40.283203 98.709 -91.6562
40.575112 98.934 -92.2968
40.869136 99.170 -92.9352
41.165290 99.416 -93.5711
41.463591 99.671 -94.2048
41.764053 99.933 -94.8362
42.066693 100.199 -95.4656
42.371525 100.467 -96.0931
42.678567 100.736 -96.7190
42.987834 101.003 -97.3437
43.299341 101.265 -97.9679
43.613106 101.520 -98.5925
43.929145 101.767 -99.2186
44.247473 102.002 -99.8474
44.568109 102.225 -100.4800
44.891068 102.434 -101.1176
45.216367 102.627 -101.7610
45.544023 102.804 -102.4109
45.874054 102.964 -103.0676
46.206476 103.107 -103.7312
46.541307 103.232 -104.4015
46.878565 103.340 -105.0780
47.218266 103.430 -105.7601
47.560429 103.504 -106.4472
47.905072 103.561 -107.1383
48.252212 103.603 -107.8327
48.601867 103.631 -108.5295
48.954056 103.646 -109.2281
49.308798 103.652 -109.9281
49.666109 103.649 -110.6294
50.026010 103.639 -111.3319
50.388520 103.626 -112.0359
50.753656 103.610 -112.7416
51.121437 103.593 -113.4491
51.491884 103.578 -114.1587
51.865016 103.564 -114.8703
52.240851 103.552 -115.5838
52.619410 103.544 -116.2991
53.000712 103.538 -117.0160
53.384777 103.536 -117.7344
53.771625 103.535 -118.4543
54.161276 103.537 -119.1757
54.553751 103.539 -119.8983
54.949070 103.541 -120.6220
55.347254 103.543 -121.3464
55.748323 103.542 -122.0707
56.152298 103.539 -122.7944
56.559201 103.532 -123.5171
56.969052 103.521 -124.2382
57.381873 103.507 -124.9579
57.797686 103.489 -125.6765
58.216512 103.467 -126.3944
58.638373 103.441 -127.1125
59.063291 103.413 -127.8314
59.491288 103.383 -128.5518
59.922386 103.352 -129.2743
60.356608 103.319 -129.9990
60.793977 103.285 -130.7256
61.234515 103.250 -131.4532
61.678246 103.214 -132.1805
62.125192 103.177 -132.9065
62.575377 103.140 -133.6301
63.028824 103.103 -134.3508
63.485557 103.066 -135.0683
63.945599 103.029 -135.7825
64.408975 102.994 -136.4933
64.875709 102.960 -137.2004
65.345825 102.928 -137.9037
65.819348 102.898 -138.6032
66.296302 102.870 -139.2990
66.776713 102.845 -139.9912
67.260604 102.822 -140.6798
67.748002 102.801 -141.3649
68.238932 102.782 -142.0464
68.733420 102.764 -142.7242
69.231490 102.748 -143.3977
69.733170 102.734 -144.0666
70.238485 102.720 -144.7301
70.747463 102.706 -145.3877
71.260128 102.694 -146.0391
71.776508 102.682 -146.6842
72.296630 102.670 -147.3233
72.820521 102.658 -147.9567
73.348209 102.647 -148.5851
73.879720 102.636 -149.2092
74.415083 102.625 -149.8294
74.954326 102.613 -150.4462
75.497475 102.601 -151.0595
76.044561 102.589 -151.6692
76.595612 102.576 -152.2750
77.150655 102.561 -152.8764
77.709720 102.544 -153.4729
78.272837 102.525 -154.0640
78.840034 102.503 -154.6493
79.411342 102.478 -155.2282
79.986789 102.449 -155.8004
80.566406 102.417 -156.3656
81.150224 102.380 -156.9237
81.738272 102.340 -157.4748
82.330581 102.297 -158.0191
82.927182 102.252 -158.5567
83.528107 102.205 -159.0882
84.133386 102.160 -159.6137
84.743051 102.117 -160.1340
85.357134 102.079 -160.6493
85.975667 102.050 -161.1600
86.598682 102.032 -161.6663
87.226212 102.030 -162.1682
87.858289 102.046 -162.6657
88.494946 102.082 -163.1584
89.136217 102.142 -163.6464
89.782135 102.225 -164.1293
90.432733 102.332 -164.6071
91.088046 102.459 -165.0797
91.748108 102.605 -165.5472
92.412952 102.763 -166.0096
93.082615 102.930 -166.4671
93.757130 103.100 -166.9197
94.436533 103.267 -167.3675
95.120859 103.427 -167.8105
95.810144 103.575 -168.2484
96.504423 103.709 -168.6807
97.203734 103.826 -169.1071
97.908112 103.925 -169.5270
98.617595 104.008 -169.9397
99.332219 104.073 -170.3449
100.052021 104.124 -170.7424
100.777039 104.162 -171.1325
101.507311 104.189 -171.5154
102.242875 104.207 -171.8920
102.983769 104.219 -172.2628
103.730032 104.225 -172.6286
104.481702 104.227 -172.9901
105.238820 104.224 -173.3474
106.001424 104.216 -173.7009
106.769554 104.201 -174.0506
107.543250 104.179 -174.3963
108.322553 104.147 -174.7378
109.107503 104.104 -175.0747
109.898141 104.048 -175.4067
110.694508 103.980 -175.7336
111.496646 103.898 -176.0551
112.304596 103.803 -176.3711
113.118402 103.695 -176.6817
113.938104 103.578 -176.9870
114.763747 103.451 -177.2873
115.595372 103.318 -177.5829
116.433024 103.180 -177.8743
117.276746 103.041 -178.1619
118.126581 102.901 -178.4461
118.982575 102.762 -178.7274
119.844772 102.626 -179.0062
120.713217 102.492 -179.2826
121.587954 102.361 -179.5566
122.469031 102.233 -179.8281
123.356492 102.106 179.9034
124.250384 101.979 179.6380
125.150753 101.850 179.3761
126.057647 101.718 179.1179
126.971113 101.582 178.8634
127.891198 101.441 178.6131
128.817950 101.293 178.3671
129.751418 101.139 178.1259
130.691651 100.978 177.8897
131.638696 100.812 177.6586
132.592604 100.642 177.4323
133.553425 100.470 177.2108
134.521208 100.298 176.9935
135.496004 100.130 176.7802
136.477864 99.969 176.5708
137.466839 99.818 176.3650
138.462981 99.681 176.1628
139.466340 99.559 175.9643
140.476971 99.454 175.7695
141.494925 99.369 175.5789
142.520256 99.300 175.3927
143.553016 99.248 175.2117
144.593260 99.209 175.0367
145.641043 99.180 174.8687
146.696418 99.157 174.7090
147.759441 99.135 174.5588
148.830166 99.112 174.4194
149.908651 99.085 174.2921
150.994951 99.050 174.1782
152.089123 99.008 174.0786
153.191223 98.959 173.9944
154.301310 98.902 173.9264
155.419441 98.840 173.8753
156.545674 98.773 173.8418
157.680069 98.704 173.8262
158.822683 98.636 173.8283
159.973578 98.568 173.8481
161.132813 98.504 173.8847
162.300447 98.443 173.9376
163.476543 98.387 174.0057
164.661162 98.337 174.0882
165.854364 98.292 174.1840
167.056213 98.254 174.2925
168.266772 98.222 174.4132
169.486102 98.197 174.5455
170.714268 98.179 174.6889
171.951334 98.168 174.8425
173.197364 98.166 175.0050
174.452424 98.171 175.1750
175.716578 98.184 175.3506
176.989893 98.205 175.5296
178.272434 98.231 175.7098
179.564270 98.263 175.8886
180.865467 98.299 176.0637
182.176092 98.338 176.2324
183.496216 98.378 176.3923
184.825905 98.418 176.5411
186.165229 98.459 176.6768
187.514259 98.498 176.7972
188.873065 98.537 176.9007
190.241717 98.575 176.9860
191.620287 98.613 177.0518
193.008847 98.650 177.0979
194.407468 98.688 177.1239
195.816225 98.725 177.1302
197.235190 98.763 177.1176
198.664438 98.800 177.0869
200.104042 98.836 177.0396
201.554078 98.870 176.9769
203.014622 98.902 176.9002
204.485750 98.930 176.8111
205.967538 98.956 176.7108
207.460064 98.976 176.6006
208.963405 98.993 176.4817
210.477640 99.005 176.3550
212.002848 99.012 176.2218
213.539108 99.016 176.0831
215.086500 99.015 175.9402
216.645105 99.011 175.7943
218.215005 99.004 175.6462
219.796281 98.993 175.4970
221.389015 98.980 175.3474
222.993292 98.962 175.1979
224.609193 98.941 175.0490
226.236804 98.914 174.9011
227.876209 98.882 174.7543
229.527494 98.845 174.6088
231.190745 98.801 174.4648
232.866048 98.752 174.3224
234.553491 98.696 174.1814
236.253163 98.635 174.0420
237.965150 98.570 173.9042
239.689544 98.501 173.7684
241.426433 98.430 173.6348
243.175909 98.357 173.5037
244.938062 98.284 173.3754
246.712984 98.211 173.2501
248.500768 98.140 173.1276
250.301507 98.071 173.0077
252.115295 98.004 172.8900
253.942226 97.942 172.7740
255.782396 97.884 172.6595
257.635901 97.831 172.5461
259.502837 97.783 172.4338
261.383301 97.742 172.3228
263.277392 97.706 172.2131
265.185209 97.676 172.1051
267.106850 97.653 171.9989
269.042417 97.636 171.8949
270.992009 97.625 171.7935
272.955729 97.619 171.6949
274.933678 97.618 171.5991
276.925961 97.621 171.5064
278.932681 97.628 171.4164
280.953942 97.637 171.3290
282.989850 97.649 171.2439
285.040511 97.663 171.1606
287.106032 97.680 171.0793
289.186521 97.701 170.9996
291.282086 97.725 170.9219
293.392836 97.755 170.8462
295.518881 97.791 170.7727
297.660333 97.832 170.7014
299.817302 97.879 170.6323
301.989902 97.931 170.5652
304.178245 97.986 170.5000
306.382446 98.044 170.4362
308.602620 98.101 170.3736
310.838882 98.158 170.3117
313.091348 98.211 170.2503
315.360137 98.259 170.1891
317.645367 98.301 170.1279
319.947156 98.336 170.0668
322.265625 98.363 170.0058
324.600895 98.381 169.9449
326.953086 98.389 169.8841
329.322323 98.387 169.8235
331.708729 98.375 169.7633
334.112427 98.352 169.7035
336.533543 98.319 169.6445
338.972204 98.275 169.5863
341.428536 98.223 169.5293
343.902668 98.161 169.4735
346.394729 98.093 169.4189
348.904848 98.019 169.3655
351.433156 97.940 169.3134
353.979786 97.860 169.2624
356.544869 97.781 169.2125
359.128540 97.706 169.1640
361.730934 97.637 169.1169
364.352185 97.577 169.0713
366.992431 97.529 169.0273
369.651810 97.496 168.9848
372.330459 97.480 168.9440
375.028519 97.481 168.9048
377.746130 97.500 168.8674
380.483434 97.536 168.8322
383.240574 97.587 168.7994
386.017693 97.653 168.7693
388.814937 97.730 168.7422
391.632450 97.815 168.7180
394.470380 97.907 168.6967
397.328875 98.001 168.6781
400.208084 98.097 168.6617
403.108157 98.191 168.6471
406.029245 98.284 168.6337
408.971500 98.374 168.6208
411.935076 98.461 168.6082
414.920127 98.545 168.5950
417.926810 98.627 168.5811
420.955280 98.707 168.5661
424.005695 98.786 168.5501
427.078215 98.865 168.5331
430.173000 98.944 168.5154
433.290211 99.023 168.4974
436.430010 99.102 168.4796
439.592562 99.181 168.4623
442.778031 99.258 168.4459
445.986583 99.333 168.4306
449.218386 99.403 168.4167
452.473607 99.469 168.4041
455.752418 99.527 168.3927
459.054987 99.576 168.3823
462.381489 99.616 168.3726
465.732096 99.646 168.3636
469.106983 99.666 168.3550
472.506325 99.675 168.3469
475.930301 99.675 168.3391
479.379088 99.666 168.3315
482.852867 99.649 168.3243
486.351817 99.625 168.3177
489.876123 99.595 168.3119
493.425968 99.561 168.3073
497.001536 99.522 168.3042
500.603014 99.480 168.3030
504.230589 99.435 168.3037
507.884452 99.386 168.3062
511.564792 99.335 168.3105
515.271802 99.282 168.3162
519.005673 99.227 168.3232
522.766602 99.171 168.3310
526.554785 99.115 168.3395
530.370418 99.061 168.3482
534.213700 99.011 168.3566
538.084833 98.966 168.3638
541.984018 98.930 168.3693
545.911457 98.901 168.3724
549.867357 98.883 168.3725
553.851922 98.874 168.3696
557.865362 98.874 168.3634
561.907884 98.882 168.3541
565.979700 98.895 168.3420
570.081022 98.912 168.3271
574.212064 98.930 168.3099
578.373042 98.948 168.2907
582.564171 98.963 168.2700
586.785671 98.974 168.2485
591.037762 98.979 168.2269
595.320665 98.978 168.2061
599.634604 98.970 168.1870
603.979804 98.954 168.1704
608.356491 98.931 168.1570
612.764893 98.902 168.1475
617.205240 98.868 168.1419
621.677763 98.829 168.1402
626.182696 98.788 168.1413
630.720274 98.746 168.1438
635.290733 98.705 168.1459
639.894312 98.668 168.1459
644.531250 98.635 168.1421
649.201789 98.609 168.1335
653.906173 98.590 168.1195
658.644647 98.578 168.0998
663.417457 98.574 168.0746
668.224854 98.577 168.0442
673.067086 98.585 168.0090
677.944408 98.597 167.9697
682.857073 98.612 167.9269
687.805336 98.628 167.8813
692.789457 98.643 167.8332
697.809695 98.656 167.7829
702.866312 98.665 167.7303
707.959571 98.671 167.6752
713.089738 98.673 167.6172
718.257080 98.670 167.5559
723.461867 98.662 167.4909
728.704370 98.650 167.4220
733.984862 98.633 167.3493
739.303619 98.614 167.2731
744.660918 98.592 167.1936
750.057038 98.568 167.1115
755.492260 98.542 167.0275
760.966869 98.515 166.9423
766.481148 98.487 166.8566
772.035387 98.458 166.7708
777.629873 98.426 166.6847
783.264900 98.393 166.5978
788.940760 98.356 166.5089
794.657750 98.316 166.4166
800.416168 98.272 166.3196
806.216313 98.221 166.2167
812.058489 98.165 166.1071
817.943000 98.102 165.9901
823.870152 98.033 165.8656
829.840255 97.957 165.7339
835.853619 97.875 165.5956
841.910559 97.788 165.4513
848.011390 97.697 165.3016
854.156430 97.602 165.1472
860.346000 97.504 164.9884
866.580422 97.405 164.8260
872.860020 97.306 164.6611
879.185124 97.207 164.4948
885.556062 97.111 164.3287
891.973166 97.017 164.1643
898.436771 96.928 164.0031
904.947215 96.844 163.8465
911.504835 96.766 163.6959
918.109975 96.697 163.5525
924.762978 96.636 163.4173
931.464192 96.584 163.2905
938.213966 96.543 163.1718
945.012651 96.512 163.0602
951.860602 96.491 162.9538
958.758176 96.480 162.8508
965.705733 96.479 162.7489
972.703635 96.486 162.6459
979.752246 96.501 162.5399
986.851935 96.522 162.4292
994.003071 96.549 162.3121
1001.206027 96.581 162.1876
1008.461179 96.618 162.0544
1015.768904 96.660 161.9120
1023.129584 96.707 161.7598
1030.543603 96.759 161.5973
1038.011347 96.816 161.4245
1045.533205 96.879 161.2416
1053.109569 96.948 161.0493
1060.740836 97.022 160.8482
1068.427401 97.102 160.6390
1076.169666 97.186 160.4227
1083.968035 97.273 160.2004
1091.822915 97.362 159.9733
1099.734713 97.451 159.7431
1107.703844 97.537 159.5112
1115.730723 97.620 159.2791
1123.815768 97.697 159.0480
1131.959400 97.768 158.8195
1140.162045 97.830 158.5952
1148.424129 97.884 158.3769
1156.746083 97.929 158.1669
1165.128342 97.966 157.9675
1173.571343 97.997 157.7807
1182.075524 98.021 157.6082
1190.641331 98.042 157.4507
1199.269209 98.060 157.3081
1207.959608 98.078 157.1791
1216.712981 98.095 157.0620
1225.529785 98.112 156.9548
1234.410479 98.130 156.8561
1243.355526 98.148 156.7647
1252.365393 98.165 156.6799
1261.440549 98.181 156.6014
1270.581467 98.194 156.5294
1279.788624 98.204 156.4645
1289.062500 98.211 156.4079
1298.403578 98.213 156.3613
1307.812346 98.210 156.3266
1317.289293 98.204 156.3058
1326.834914 98.194 156.3004
1336.449707 98.180 156.3110
1346.134173 98.165 156.3374
1355.888816 98.147 156.3785
1365.714145 98.127 156.4326
1375.610673 98.106 156.4977
1385.578915 98.084 156.5721
1395.619391 98.059 156.6545
1405.732624 98.033 156.7444
1415.919142 98.005 156.8422
1426.179476 97.975 156.9493
1436.514160 97.943 157.0679
1446.923734 97.910 157.2009
1457.408740 97.878 157.3510
1467.969724 97.847 157.5212
1478.607238 97.818 157.7132
1489.321836 97.793 157.9274
1500.114076 97.774 158.1627
1510.984521 97.760 158.4164
1521.933737 97.754 158.6843
1532.962297 97.753 158.9621
1544.070773 97.760 159.2452
1555.259747 97.772 159.5302
1566.529800 97.789 159.8149
1577.881521 97.809 160.0991
1589.315501 97.833 160.3831
1600.832336 97.858 160.6682
1612.432627 97.886 160.9556
1624.116978 97.915 161.2460
1635.886000 97.946 161.5398
1647.740304 97.978 161.8366
1659.680509 98.013 162.1357
1671.707238 98.050 162.4357
1683.821118 98.089 162.7346
1696.022780 98.131 163.0303
1708.312860 98.177 163.3209
1720.692000 98.226 163.6049
1733.160843 98.278 163.8813
1745.720041 98.333 164.1496
1758.370248 98.391 164.4085
1771.112124 98.452 164.6562
1783.946332 98.515 164.8896
1796.873543 98.579 165.1053
1809.894429 98.644 165.3002
1823.009670 98.709 165.4723
1836.219950 98.771 165.6219
1849.525956 98.832 165.7513
1862.928384 98.889 165.8640
1876.427931 98.944 165.9643
1890.025301 98.997 166.0566
1903.721204 99.047 166.1441
1917.516352 99.096 166.2285
1931.411466 99.145 166.3095
1945.407270 99.192 166.3856
1959.504493 99.239 166.4539
1973.703870 99.283 166.5115
1988.006142 99.325 166.5558
2002.412054 99.363 166.5847
2016.922357 99.395 166.5975
2031.537808 99.420 166.5942
2046.259169 99.438 166.5757
2061.087206 99.447 166.5433
2076.022694 99.448 166.4977
2091.066410 99.440 166.4398
2106.219139 99.424 166.3702
2121.481671 99.400 166.2905
2136.854802 99.369 166.2028
2152.339333 99.332 166.1096
2167.936071 99.290 166.0131
2183.645829 99.247 165.9138
2199.469427 99.202 165.8110
2215.407689 99.158 165.7021
2231.461446 99.117 165.5834
2247.631536 99.078 165.4511
2263.918800 99.042 165.3023
2280.324089 99.010 165.1354
2296.848258 98.980 164.9502
2313.492167 98.952 164.7476
2330.256685 98.925 164.5285
2347.142685 98.900 164.2937
2364.151049 98.876 164.0435
2381.282662 98.852 163.7778
2398.538418 98.828 163.4962
2415.919216 98.804 163.1987
2433.425962 98.779 162.8854
2451.059570 98.752 162.5568
2468.820958 98.724 162.2137
2486.711052 98.694 161.8568
2504.730786 98.663 161.4877
2522.881098 98.630 161.1085
2541.162934 98.595 160.7231
2559.577248 98.558 160.3365
2578.125000 98.520 159.9548
2596.807157 98.482 159.5838
2615.624692 98.446 159.2288
2634.578586 98.412 158.8937
2653.669829 98.382 158.5809
2672.899414 98.357 158.2917
2692.268345 98.338 158.0265
2711.777632 98.326 157.7855
2731.428290 98.320 157.5693
2751.221345 98.320 157.3789
2771.157829 98.324 157.2156
2791.238781 98.333 157.0813
2811.465248 98.343 156.9785
2831.838284 98.354 156.9106
2852.358952 98.362 156.8821
2873.028321 98.368 156.8984
2893.847468 98.369 156.9652
2914.817480 98.365 157.0883
2935.939449 98.354 157.2723
2957.214476 98.337 157.5206
2978.643672 98.314 157.8352
3000.228152 98.285 158.2161
3021.969041 98.252 158.6620
3043.867475 98.215 159.1702
3065.924593 98.176 159.7365
3088.141547 98.137 160.3553
3110.519493 98.099 161.0198
3133.059600 98.064 161.7217
3155.763041 98.035 162.4507
3178.631001 98.013 163.1944
3201.664672 98.000 163.9377
3224.865254 97.997 164.6638
3248.233957 98.005 165.3545
3271.771999 98.023 165.9927
3295.480608 98.051 166.5634
3319.361019 98.086 167.0556
3343.414477 98.127 167.4630
3367.642236 98.172 167.7847
3392.045560 98.218 168.0246
3416.625721 98.264 168.1903
3441.383999 98.310 168.2916
