* Measurement data measured by REW V5.31.3
* Source: EXCL: Headset (USB-C to 3.5mm Headphone Jack Adapter), MICROPHONE (Master Volume), 0, volume: 0.750
* Format: 256k Log Swept Sine, 1 sweep at -12.0 dBFS with no timing reference
* Dated: Apr 7, 2025 4:35:13 PM
* REW Settings:
*  C-weighting compensation: Off
*  Target level: 75.0 dB
* Note: ; 
* Measurement: Satyr 3 (Centered) L5
* Smoothing: 1/6 octave
* Frequency Step: 96 ppo
* Start Frequency: 20.0 Hz
*
* Freq(Hz) SPL(dB) Phase(degrees)
20.187378 78.748 -93.2910
20.333664 78.781 -93.4960
20.481010 78.823 -93.7693
20.629424 78.874 -94.1011
20.778913 78.932 -94.4795
20.929486 78.995 -94.8914
21.081150 79.062 -95.3232
21.233912 79.132 -95.7616
21.387782 79.204 -96.1944
21.542767 79.281 -96.6113
21.698874 79.360 -97.0050
21.856113 79.445 -97.3714
22.014492 79.534 -97.7100
22.174018 79.630 -98.0241
22.334700 79.731 -98.3200
22.496546 79.837 -98.6060
22.659566 79.948 -98.8914
22.823766 80.062 -99.1852
22.989157 80.176 -99.4947
23.155745 80.289 -99.8242
23.323542 80.399 -100.1752
23.492554 80.504 -100.5458
23.662790 80.602 -100.9312
23.834261 80.691 -101.3249
24.006973 80.773 -101.7194
24.180938 80.846 -102.1080
24.356163 80.912 -102.4854
24.532658 80.972 -102.8494
24.710431 81.028 -103.2006
24.889493 81.079 -103.5431
25.069853 81.128 -103.8837
25.251519 81.176 -104.2314
25.434502 81.223 -104.5957
25.618811 81.270 -104.9859
25.804456 81.315 -105.4093
25.991445 81.359 -105.8705
26.179790 81.401 -106.3711
26.369500 81.440 -106.9094
26.560584 81.477 -107.4804
26.753053 81.512 -108.0772
26.946917 81.543 -108.6913
27.142185 81.573 -109.3137
27.338869 81.600 -109.9359
27.536977 81.627 -110.5504
27.736522 81.654 -111.1516
27.937512 81.681 -111.7357
28.139959 81.708 -112.3010
28.343872 81.735 -112.8476
28.549264 81.764 -113.3769
28.756143 81.792 -113.8912
28.964522 81.820 -114.3933
29.174411 81.848 -114.8861
29.385821 81.875 -115.3720
29.598763 81.902 -115.8529
29.813248 81.929 -116.3300
30.029287 81.957 -116.8040
30.246891 81.986 -117.2748
30.466073 82.019 -117.7420
30.686842 82.056 -118.2051
30.909212 82.097 -118.6633
31.133193 82.145 -119.1160
31.358797 82.199 -119.5624
31.586035 82.259 -120.0020
31.814921 82.326 -120.4341
32.045465 82.397 -120.8581
32.277680 82.473 -121.2734
32.511577 82.552 -121.6800
32.747169 82.632 -122.0782
32.984469 82.714 -122.4693
33.223488 82.797 -122.8554
33.464239 82.880 -123.2398
33.706735 82.963 -123.6263
33.950987 83.046 -124.0194
34.197010 83.130 -124.4233
34.444816 83.215 -124.8417
34.694417 83.301 -125.2769
34.945827 83.388 -125.7300
35.199059 83.477 -126.2002
35.454126 83.567 -126.6855
35.711041 83.658 -127.1827
35.969818 83.750 -127.6880
36.230470 83.841 -128.1972
36.493011 83.931 -128.7068
36.757455 84.020 -129.2137
37.023814 84.108 -129.7158
37.292104 84.193 -130.2119
37.562338 84.276 -130.7023
37.834530 84.358 -131.1879
38.108695 84.438 -131.6707
38.384846 84.518 -132.1525
38.662999 84.598 -132.6353
38.943167 84.679 -133.1197
39.225365 84.760 -133.6055
39.509608 84.842 -134.0905
39.795911 84.925 -134.5715
40.084289 85.008 -135.0444
40.374756 85.090 -135.5048
40.667328 85.171 -135.9486
40.962020 85.250 -136.3727
41.258848 85.325 -136.7752
41.557827 85.397 -137.1557
41.858972 85.464 -137.5147
42.162299 85.527 -137.8544
42.467824 85.584 -138.1784
42.775564 85.637 -138.4922
43.085533 85.687 -138.8029
43.397749 85.732 -139.1190
43.712227 85.775 -139.4498
44.028983 85.815 -139.8036
44.348036 85.853 -140.1870
44.669400 85.889 -140.6031
44.993093 85.923 -141.0520
45.319131 85.955 -141.5302
45.647532 85.986 -142.0323
45.978313 86.016 -142.5518
46.311491 86.046 -143.0824
46.647083 86.076 -143.6186
46.985107 86.107 -144.1564
47.325581 86.137 -144.6926
47.668521 86.168 -145.2249
48.013947 86.197 -145.7515
48.361876 86.226 -146.2711
48.712326 86.253 -146.7823
49.065315 86.279 -147.2847
49.420863 86.304 -147.7781
49.778987 86.328 -148.2631
50.139706 86.351 -148.7404
50.503039 86.373 -149.2109
50.869005 86.394 -149.6750
51.237623 86.413 -150.1327
51.608912 86.431 -150.5835
51.982891 86.447 -151.0269
52.359580 86.461 -151.4630
52.739000 86.474 -151.8927
53.121168 86.487 -152.3173
53.506106 86.498 -152.7385
53.893833 86.510 -153.1576
54.284370 86.523 -153.5749
54.677737 86.537 -153.9897
55.073955 86.553 -154.3994
55.473043 86.571 -154.7998
55.875024 86.593 -155.1853
56.279917 86.619 -155.5493
56.687745 86.650 -155.8851
57.098527 86.686 -156.1880
57.512287 86.725 -156.4573
57.929045 86.766 -156.6991
58.348822 86.807 -156.9280
58.771642 86.847 -157.1663
59.197525 86.881 -157.4414
59.626495 86.908 -157.7787
60.058573 86.926 -158.1961
60.493782 86.934 -158.6987
60.932145 86.933 -159.2787
61.373685 86.926 -159.9180
61.818424 86.915 -160.5936
62.266386 86.904 -161.2820
62.717593 86.896 -161.9633
63.172071 86.892 -162.6230
63.629842 86.893 -163.2527
64.090930 86.899 -163.8499
64.555359 86.909 -164.4167
65.023154 86.923 -164.9577
65.494339 86.940 -165.4785
65.968938 86.961 -165.9837
66.446976 86.983 -166.4768
66.928478 87.007 -166.9597
67.413469 87.032 -167.4335
67.901975 87.057 -167.8984
68.394021 87.080 -168.3548
68.889632 87.101 -168.8030
69.388835 87.120 -169.2436
69.891655 87.136 -169.6774
70.398118 87.149 -170.1044
70.908252 87.159 -170.5249
71.422083 87.166 -170.9386
71.939636 87.171 -171.3455
72.460941 87.173 -171.7457
72.986023 87.172 -172.1395
73.514909 87.170 -172.5279
74.047629 87.165 -172.9120
74.584208 87.158 -173.2930
75.124676 87.149 -173.6722
75.669061 87.138 -174.0504
76.217390 87.125 -174.4284
76.769692 87.110 -174.8062
77.325997 87.093 -175.1840
77.886333 87.075 -175.5617
78.450730 87.055 -175.9392
79.019216 87.034 -176.3161
79.591822 87.013 -176.6924
80.168577 86.991 -177.0675
80.749512 86.968 -177.4413
81.334656 86.945 -177.8132
81.924040 86.921 -178.1824
82.517696 86.897 -178.5479
83.115653 86.873 -178.9089
83.717943 86.849 -179.2646
84.324598 86.825 -179.6148
84.935649 86.801 -179.9597
85.551128 86.777 179.7005
86.171066 86.753 179.3654
86.795497 86.730 179.0346
87.424453 86.706 178.7076
88.057967 86.682 178.3837
88.696071 86.658 178.0624
89.338800 86.633 177.7428
89.986185 86.607 177.4244
90.638262 86.581 177.1068
91.295065 86.554 176.7898
91.956626 86.526 176.4737
92.622982 86.498 176.1591
93.294166 86.469 175.8467
93.970214 86.441 175.5376
94.651161 86.411 175.2324
95.337042 86.382 174.9317
96.027894 86.353 174.6357
96.723752 86.323 174.3439
97.424652 86.294 174.0555
98.130631 86.264 173.7695
98.841726 86.235 173.4847
99.557974 86.207 173.2001
100.279412 86.179 172.9148
101.006078 86.151 172.6277
101.738010 86.124 172.3384
102.475245 86.098 172.0464
103.217823 86.072 171.7521
103.965782 86.047 171.4567
104.719161 86.024 171.1626
105.477999 86.001 170.8731
106.242336 85.981 170.5914
107.012212 85.962 170.3201
107.787666 85.946 170.0596
108.568740 85.931 169.8090
109.355474 85.917 169.5658
110.147909 85.905 169.3278
110.946086 85.893 169.0926
111.750047 85.882 168.8588
112.559834 85.871 168.6255
113.375489 85.860 168.3923
114.197055 85.849 168.1587
115.024574 85.837 167.9246
115.858089 85.825 167.6902
116.697645 85.812 167.4554
117.543284 85.799 167.2203
118.395051 85.784 166.9850
119.252990 85.769 166.7495
120.117147 85.753 166.5137
120.987565 85.736 166.2780
121.864291 85.718 166.0429
122.747370 85.698 165.8097
123.636848 85.678 165.5803
124.532771 85.657 165.3571
125.435187 85.635 165.1423
126.344142 85.612 164.9382
127.259684 85.587 164.7470
128.181860 85.561 164.5700
129.110718 85.533 164.4079
130.046308 85.504 164.2604
130.988677 85.473 164.1264
131.937875 85.441 164.0038
132.893951 85.409 163.8899
133.856956 85.377 163.7818
134.826938 85.346 163.6768
135.803950 85.316 163.5720
136.788041 85.287 163.4652
137.779264 85.259 163.3548
138.777669 85.231 163.2397
139.783309 85.204 163.1199
140.796237 85.177 162.9958
141.816504 85.149 162.8683
142.844165 85.120 162.7386
143.879273 85.090 162.6079
144.921881 85.058 162.4776
145.972045 85.024 162.3490
147.029819 84.989 162.2238
148.095257 84.952 162.1036
149.168417 84.913 161.9900
150.249353 84.873 161.8847
151.338121 84.831 161.7894
152.434780 84.787 161.7060
153.539385 84.743 161.6367
154.651995 84.698 161.5834
155.772667 84.653 161.5483
156.901460 84.607 161.5330
158.038432 84.563 161.5388
159.183644 84.518 161.5663
160.337154 84.476 161.6154
161.499023 84.434 161.6848
162.669312 84.395 161.7731
163.848081 84.359 161.8781
165.035392 84.326 161.9974
166.231306 84.296 162.1288
167.435887 84.270 162.2694
168.649196 84.248 162.4164
169.871298 84.230 162.5665
171.102255 84.215 162.7163
172.342133 84.205 162.8621
173.590995 84.198 162.9999
174.848907 84.195 163.1254
176.115934 84.194 163.2340
177.392143 84.196 163.3208
178.677599 84.200 163.3813
179.972371 84.207 163.4122
181.276525 84.216 163.4120
182.590129 84.227 163.3818
183.913252 84.238 163.3248
185.245964 84.250 163.2449
186.588332 84.262 163.1466
187.940428 84.273 163.0337
189.302322 84.281 162.9096
190.674085 84.288 162.7772
192.055788 84.293 162.6384
193.447503 84.295 162.4949
194.849303 84.295 162.3474
196.261262 84.293 162.1964
197.683452 84.289 162.0428
199.115948 84.283 161.8868
200.558824 84.276 161.7287
202.012156 84.267 161.5684
203.476019 84.257 161.4061
204.950490 84.245 161.2427
206.435646 84.232 161.0799
207.931564 84.218 160.9198
209.438322 84.204 160.7633
210.955998 84.188 160.6106
212.484672 84.172 160.4611
214.024424 84.156 160.3135
215.575333 84.140 160.1673
217.137481 84.125 160.0219
218.710948 84.110 159.8771
220.295818 84.096 159.7330
221.892172 84.082 159.5898
223.500094 84.070 159.4474
225.119668 84.058 159.3060
226.750978 84.048 159.1654
228.394109 84.038 159.0254
230.049147 84.029 158.8865
231.716178 84.022 158.7497
233.395289 84.015 158.6163
235.086567 84.009 158.4872
236.790102 84.003 158.3630
238.505980 83.999 158.2435
240.234293 83.996 158.1281
241.975130 83.994 158.0163
243.728581 83.994 157.9075
245.494739 83.994 157.8013
247.273695 83.994 157.6971
249.065542 83.995 157.5949
250.870374 83.995 157.4950
252.688284 83.995 157.3974
254.519367 83.995 157.3023
256.363720 83.995 157.2095
258.221437 83.995 157.1185
260.092616 83.994 157.0291
261.977354 83.994 156.9411
263.875750 83.994 156.8544
265.787903 83.995 156.7690
267.713911 83.997 156.6844
269.653877 84.000 156.6002
271.607900 84.003 156.5155
273.576083 84.006 156.4301
275.558528 84.010 156.3442
277.555338 84.014 156.2588
279.566619 84.018 156.1750
281.592474 84.021 156.0945
283.633009 84.025 156.0187
285.688331 84.029 155.9487
287.758546 84.033 155.8850
289.843763 84.037 155.8268
291.944090 84.042 155.7723
294.059638 84.047 155.7191
296.190515 84.053 155.6645
298.336833 84.059 155.6063
300.498705 84.067 155.5432
302.676243 84.074 155.4752
304.869559 84.083 155.4034
307.078770 84.092 155.3295
309.303989 84.101 155.2551
311.545334 84.111 155.1813
313.802919 84.121 155.1093
316.076865 84.132 155.0394
318.367288 84.142 154.9714
320.674309 84.152 154.9050
322.998047 84.162 154.8392
325.338624 84.172 154.7735
327.696162 84.181 154.7072
330.070783 84.191 154.6403
332.462612 84.200 154.5728
334.871773 84.208 154.5050
337.298392 84.216 154.4370
339.742595 84.224 154.3690
342.204510 84.230 154.3013
344.684265 84.236 154.2348
347.181989 84.242 154.1702
349.697813 84.247 154.1086
352.231868 84.251 154.0506
354.784285 84.255 153.9964
357.355198 84.257 153.9457
359.944741 84.258 153.8977
362.553049 84.259 153.8514
365.180258 84.258 153.8053
367.826505 84.257 153.7578
370.491927 84.255 153.7076
373.176665 84.251 153.6537
375.880856 84.247 153.5961
378.604644 84.242 153.5353
381.348169 84.237 153.4723
384.111575 84.232 153.4078
386.895006 84.226 153.3424
389.698607 84.221 153.2764
392.522524 84.215 153.2098
395.366904 84.208 153.1426
398.231895 84.201 153.0751
401.117648 84.193 153.0074
404.024312 84.184 152.9398
406.952038 84.174 152.8731
409.900981 84.163 152.8082
412.871292 84.150 152.7462
415.863128 84.136 152.6884
418.876643 84.121 152.6358
421.911996 84.106 152.5891
424.969344 84.090 152.5484
428.048847 84.073 152.5133
431.150666 84.056 152.4828
434.274961 84.038 152.4554
437.421897 84.019 152.4299
440.591636 84.000 152.4049
443.784345 83.980 152.3795
447.000189 83.959 152.3530
450.239337 83.938 152.3247
453.501956 83.916 152.2946
456.788219 83.893 152.2625
460.098294 83.870 152.2287
463.432356 83.846 152.1934
466.790578 83.823 152.1566
470.173135 83.800 152.1183
473.580203 83.777 152.0788
477.011961 83.756 152.0382
480.468586 83.735 151.9969
483.950259 83.715 151.9557
487.457163 83.696 151.9151
490.989478 83.679 151.8757
494.547390 83.663 151.8379
498.131084 83.648 151.8015
501.740748 83.636 151.7664
505.376568 83.625 151.7323
509.038735 83.615 151.6987
512.727439 83.608 151.6653
516.442874 83.603 151.6318
520.185232 83.600 151.5981
523.954708 83.599 151.5642
527.751500 83.601 151.5303
531.575805 83.606 151.4962
535.427822 83.613 151.4618
539.307753 83.624 151.4269
543.215800 83.637 151.3910
547.152165 83.654 151.3534
551.117055 83.673 151.3137
555.110677 83.694 151.2715
559.133237 83.718 151.2265
563.184947 83.743 151.1789
567.266018 83.771 151.1291
571.376661 83.800 151.0775
575.517092 83.830 151.0246
579.687526 83.861 150.9708
583.888181 83.893 150.9165
588.119275 83.926 150.8614
592.381030 83.959 150.8049
596.673667 83.992 150.7463
600.997410 84.026 150.6843
605.352485 84.059 150.6176
609.739119 84.092 150.5450
614.157540 84.124 150.4655
618.607979 84.156 150.3781
623.090667 84.186 150.2827
627.605839 84.215 150.1792
632.153730 84.242 150.0684
636.734576 84.268 149.9515
641.348617 84.291 149.8297
645.996094 84.313 149.7047
650.677248 84.333 149.5776
655.392323 84.351 149.4492
660.141566 84.368 149.3201
664.925224 84.383 149.1899
669.743546 84.397 149.0582
674.596784 84.410 148.9240
679.485191 84.422 148.7864
684.409020 84.434 148.6448
689.368530 84.444 148.4988
694.363979 84.453 148.3484
699.395626 84.461 148.1945
704.463736 84.467 148.0379
709.568570 84.472 147.8803
714.710396 84.476 147.7231
719.889483 84.478 147.5675
725.106099 84.479 147.4138
730.360516 84.479 147.2614
735.653010 84.479 147.1088
740.983855 84.477 146.9543
746.353329 84.475 146.7960
751.761713 84.472 146.6327
757.209288 84.468 146.4634
762.696339 84.464 146.2875
768.223151 84.458 146.1047
773.790013 84.452 145.9144
779.397214 84.445 145.7163
785.045047 84.438 145.5100
790.733808 84.430 145.2955
796.463791 84.421 145.0728
802.235296 84.412 144.8426
808.048623 84.402 144.6054
813.904077 84.392 144.3621
819.801961 84.381 144.1133
825.742584 84.371 143.8594
831.726255 84.360 143.6008
837.753287 84.350 143.3375
843.823992 84.340 143.0694
849.938689 84.330 142.7963
856.097695 84.320 142.5178
862.301332 84.310 142.2339
868.549922 84.301 141.9443
874.843793 84.291 141.6494
881.183272 84.282 141.3497
887.568689 84.273 141.0461
894.000378 84.263 140.7394
900.478673 84.254 140.4303
907.003913 84.245 140.1188
913.576437 84.236 139.8051
920.196588 84.228 139.4886
926.864712 84.220 139.1695
933.581156 84.212 138.8478
940.346270 84.205 138.5246
947.160407 84.199 138.2009
954.023921 84.193 137.8777
960.937172 84.189 137.5557
967.900519 84.186 137.2353
974.914325 84.185 136.9158
981.978956 84.186 136.5965
989.094780 84.189 136.2763
996.262169 84.193 135.9544
1003.481495 84.199 135.6306
1010.753136 84.207 135.3052
1018.077470 84.216 134.9789
1025.454879 84.226 134.6524
1032.885748 84.238 134.3259
1040.370463 84.251 133.9988
1047.909417 84.265 133.6698
1055.503000 84.280 133.3376
1063.151610 84.296 133.0010
1070.855645 84.311 132.6600
1078.615506 84.326 132.3157
1086.431599 84.340 131.9697
1094.304330 84.353 131.6240
1102.234110 84.364 131.2806
1110.221353 84.374 130.9409
1118.266475 84.382 130.6061
1126.369895 84.389 130.2769
1134.532035 84.395 129.9537
1142.753322 84.399 129.6368
1151.034184 84.402 129.3265
1159.375052 84.403 129.0230
1167.776361 84.403 128.7265
1176.238550 84.402 128.4369
1184.762060 84.400 128.1541
1193.347334 84.396 127.8781
1201.994821 84.392 127.6094
1210.704971 84.386 127.3491
1219.478238 84.379 127.0983
1228.315080 84.371 126.8583
1237.215957 84.362 126.6302
1246.181334 84.354 126.4147
1255.211678 84.345 126.2118
1264.307459 84.336 126.0207
1273.469152 84.329 125.8398
1282.697235 84.322 125.6665
1291.992188 84.315 125.4977
1301.354495 84.310 125.3307
1310.784647 84.304 125.1643
1320.283132 84.297 124.9987
1329.850448 84.290 124.8354
1339.487093 84.281 124.6773
1349.193569 84.272 124.5271
1358.970381 84.261 124.3874
1368.818041 84.249 124.2601
1378.737061 84.238 124.1463
1388.727958 84.227 124.0464
1398.791253 84.216 123.9599
1408.927471 84.207 123.8855
1419.137140 84.198 123.8214
1429.420793 84.192 123.7657
1439.778965 84.187 123.7175
1450.212197 84.183 123.6768
1460.721033 84.179 123.6447
1471.306019 84.177 123.6229
1481.967709 84.175 123.6129
1492.706658 84.174 123.6161
1503.523426 84.173 123.6338
1514.418576 84.172 123.6670
1525.392678 84.171 123.7170
1536.446302 84.169 123.7852
1547.580025 84.166 123.8730
1558.794428 84.162 123.9815
1570.090095 84.157 124.1114
1581.467615 84.150 124.2630
1592.927581 84.142 124.4360
1604.470591 84.132 124.6295
1616.097246 84.121 124.8425
1627.808153 84.109 125.0743
1639.603922 84.094 125.3246
1651.485168 84.078 125.5936
1663.452510 84.060 125.8827
1675.506573 84.040 126.1935
1687.647984 84.020 126.5273
1699.877377 84.001 126.8838
1712.195390 83.982 127.2614
1724.602663 83.964 127.6566
1737.099845 83.949 128.0653
1749.687587 83.937 128.4828
1762.366544 83.927 128.9044
1775.137379 83.920 129.3264
1788.000756 83.916 129.7460
1800.957346 83.913 130.1619
1814.007826 83.913 130.5741
1827.152874 83.914 130.9831
1840.393177 83.916 131.3896
1853.729425 83.921 131.7936
1867.162312 83.927 132.1938
1880.692540 83.935 132.5869
1894.320813 83.945 132.9686
1908.047843 83.957 133.3340
1921.874344 83.971 133.6786
1935.801038 83.985 133.9981
1949.828650 84.000 134.2891
1963.957912 84.014 134.5493
1978.189561 84.027 134.7787
1992.524338 84.038 134.9789
2006.962991 84.047 135.1528
2021.506272 84.053 135.3034
2036.154940 84.057 135.4325
2050.909758 84.059 135.5402
2065.771495 84.060 135.6257
2080.740927 84.059 135.6880
2095.818833 84.057 135.7266
2111.006001 84.053 135.7415
2126.303220 84.047 135.7331
2141.711290 84.040 135.7016
2157.231013 84.031 135.6481
2172.863198 84.020 135.5747
2188.608660 84.006 135.4841
2204.468221 83.991 135.3791
2220.442706 83.973 135.2626
2236.532950 83.953 135.1365
2252.739789 83.932 135.0027
2269.064070 83.909 134.8626
2285.506644 83.885 134.7172
2302.068367 83.859 134.5675
2318.750104 83.833 134.4138
2335.552723 83.806 134.2563
2352.477101 83.778 134.0951
2369.524119 83.750 133.9307
2386.694668 83.722 133.7636
2403.989641 83.694 133.5946
2421.409941 83.665 133.4245
2438.956476 83.637 133.2539
2456.630160 83.610 133.0829
2474.431915 83.583 132.9111
2492.362668 83.557 132.7374
2510.423356 83.532 132.5607
2528.614918 83.508 132.3795
2546.938304 83.485 132.1929
2565.394469 83.461 132.0004
2583.984375 83.437 131.8026
2602.708991 83.412 131.6018
2621.569293 83.384 131.4018
2640.566265 83.354 131.2081
2659.700897 83.321 131.0273
2678.974186 83.284 130.8669
2698.387137 83.245 130.7344
2717.940763 83.202 130.6373
2737.636082 83.158 130.5824
2757.474121 83.111 130.5751
2777.455915 83.064 130.6191
2797.582506 83.016 130.7172
2817.854942 82.969 130.8711
2838.274281 82.924 131.0822
2858.841586 82.880 131.3516
2879.557931 82.838 131.6806
2900.424394 82.799 132.0699
2921.442065 82.764 132.5200
2942.612039 82.732 133.0308
2963.935418 82.706 133.6009
2985.413316 82.684 134.2273
3007.046852 82.669 134.9049
3028.837153 82.661 135.6263
3050.785356 82.659 136.3824
3072.892604 82.664 137.1621
3095.160050 82.676 137.9539
3117.588856 82.694 138.7455
3140.180190 82.717 139.5243
3162.935230 82.744 140.2781
3185.855163 82.774 140.9967
3208.941182 82.803 141.6726
3232.194493 82.831 142.3026
3255.616307 82.855 142.8889
3279.207844 82.872 143.4389
3302.970336 82.882 143.9647
3326.905021 82.884 144.4815
3351.013146 82.878 145.0060
3375.295969 82.866 145.5537
3399.754755 82.849 146.1366
3424.390779 82.830 146.7612
3449.205326 82.813 147.4263
3474.199690 82.802 148.1229
3499.375173 82.798 148.8338
3524.733088 82.806 149.5351
3550.274757 82.826 150.1988
