* Measurement data measured by REW V5.31.3
* Source: EXCL: Headset (USB-C to 3.5mm Headphone Jack Adapter), MICROPHONE (Master Volume), 0, volume: 0.260
* Format: 256k Log Swept Sine, 1 sweep at -12.0 dBFS with no timing reference
* Dated: Feb 19, 2025 7:49:24 PM
* REW Settings:
*  C-weighting compensation: Off
*  Target level: 75.0 dB
* Note: ; 
* Measurement: Satyr 3 R5
* Smoothing: 1/6 octave
* Frequency Step: 96 ppo
* Start Frequency: 20.0 Hz
*
* Freq(Hz) SPL(dB) Phase(degrees)
20.141602 93.476 -32.6264
20.287556 93.488 -32.8822
20.434568 93.503 -33.2222
20.582645 93.523 -33.6342
20.731796 93.547 -34.1044
20.882027 93.574 -34.6190
21.033346 93.605 -35.1651
21.185763 93.640 -35.7312
21.339284 93.679 -36.3071
21.493917 93.722 -36.8851
21.649671 93.769 -37.4590
21.806553 93.820 -38.0247
21.964572 93.874 -38.5799
22.123737 93.931 -39.1237
22.284054 93.991 -39.6567
22.445534 94.052 -40.1804
22.608183 94.114 -40.6970
22.772012 94.177 -41.2094
22.937027 94.239 -41.7206
23.103238 94.300 -42.2336
23.270654 94.361 -42.7515
23.439282 94.419 -43.2769
23.609133 94.476 -43.8121
23.780215 94.532 -44.3592
23.952536 94.587 -44.9194
24.126106 94.641 -45.4936
24.300934 94.695 -46.0823
24.477028 94.749 -46.6851
24.654399 94.805 -47.3014
24.833055 94.863 -47.9298
25.013005 94.923 -48.5687
25.194260 94.986 -49.2164
25.376828 95.053 -49.8710
25.560719 95.122 -50.5305
25.745942 95.195 -51.1936
25.932508 95.271 -51.8591
26.120426 95.350 -52.5266
26.309705 95.431 -53.1959
26.500356 95.516 -53.8678
26.692388 95.602 -54.5432
26.885812 95.690 -55.2234
27.080638 95.780 -55.9097
27.276876 95.870 -56.6031
27.474535 95.962 -57.3042
27.673627 96.053 -58.0132
27.874161 96.143 -58.7292
28.076149 96.233 -59.4506
28.279600 96.321 -60.1753
28.484526 96.408 -60.9005
28.690937 96.491 -61.6229
28.898843 96.572 -62.3394
29.108256 96.650 -63.0470
29.319186 96.724 -63.7433
29.531645 96.795 -64.4268
29.745644 96.863 -65.0965
29.961193 96.927 -65.7528
30.178304 96.989 -66.3967
30.396989 97.048 -67.0299
30.617258 97.105 -67.6545
30.839123 97.161 -68.2727
31.062596 97.216 -68.8865
31.287688 97.271 -69.4977
31.514412 97.326 -70.1072
31.742778 97.384 -70.7155
31.972800 97.444 -71.3226
32.204488 97.507 -71.9280
32.437855 97.574 -72.5311
32.672913 97.645 -73.1312
32.909674 97.722 -73.7279
33.148151 97.804 -74.3212
33.388356 97.891 -74.9114
33.630302 97.982 -75.4992
33.874001 98.078 -76.0855
34.119466 98.176 -76.6711
34.366710 98.276 -77.2568
34.615745 98.375 -77.8431
34.866585 98.474 -78.4298
35.119243 98.569 -79.0166
35.373731 98.661 -79.6029
35.630064 98.748 -80.1879
35.888254 98.830 -80.7711
36.148315 98.906 -81.3524
36.410261 98.977 -81.9324
36.674104 99.042 -82.5123
36.939860 99.102 -83.0937
37.207542 99.158 -83.6788
37.477163 99.210 -84.2694
37.748738 99.260 -84.8675
38.022281 99.307 -85.4741
38.297806 99.353 -86.0899
38.575327 99.397 -86.7148
38.854860 99.440 -87.3482
39.136419 99.483 -87.9892
39.420017 99.525 -88.6368
39.705671 99.567 -89.2902
39.993395 99.608 -89.9486
40.283203 99.648 -90.6116
40.575112 99.687 -91.2787
40.869136 99.725 -91.9500
41.165290 99.764 -92.6255
41.463591 99.801 -93.3056
41.764053 99.839 -93.9907
42.066693 99.878 -94.6815
42.371525 99.917 -95.3786
42.678567 99.958 -96.0824
42.987834 100.001 -96.7935
43.299341 100.046 -97.5121
43.613106 100.093 -98.2381
43.929145 100.142 -98.9714
44.247473 100.193 -99.7114
44.568109 100.246 -100.4576
44.891068 100.299 -101.2094
45.216367 100.354 -101.9661
45.544023 100.410 -102.7273
45.874054 100.465 -103.4923
46.206476 100.521 -104.2609
46.541307 100.576 -105.0328
46.878565 100.632 -105.8080
47.218266 100.687 -106.5865
47.560429 100.742 -107.3686
47.905072 100.797 -108.1543
48.252212 100.852 -108.9439
48.601867 100.907 -109.7373
48.954056 100.961 -110.5342
49.308798 101.015 -111.3343
49.666109 101.069 -112.1370
50.026010 101.122 -112.9418
50.388520 101.175 -113.7481
50.753656 101.226 -114.5556
51.121437 101.276 -115.3640
51.491884 101.324 -116.1731
51.865016 101.371 -116.9828
52.240851 101.415 -117.7931
52.619410 101.457 -118.6037
53.000712 101.497 -119.4147
53.384777 101.534 -120.2262
53.771625 101.568 -121.0384
54.161276 101.598 -121.8513
54.553751 101.625 -122.6653
54.949070 101.649 -123.4804
55.347254 101.670 -124.2971
55.748323 101.687 -125.1154
56.152298 101.701 -125.9359
56.559201 101.713 -126.7588
56.969052 101.722 -127.5837
57.381873 101.730 -128.4101
57.797686 101.737 -129.2365
58.216512 101.743 -130.0608
58.638373 101.750 -130.8802
59.063291 101.757 -131.6917
59.491288 101.766 -132.4922
59.922386 101.775 -133.2797
60.356608 101.785 -134.0533
60.793977 101.796 -134.8138
61.234515 101.806 -135.5636
61.678246 101.816 -136.3055
62.125192 101.825 -137.0426
62.575377 101.833 -137.7773
63.028824 101.838 -138.5111
63.485557 101.841 -139.2448
63.945599 101.841 -139.9781
64.408975 101.839 -140.7101
64.875709 101.835 -141.4398
65.345825 101.827 -142.1659
65.819348 101.818 -142.8874
66.296302 101.806 -143.6037
66.776713 101.793 -144.3143
67.260604 101.778 -145.0189
67.748002 101.762 -145.7177
68.238932 101.745 -146.4110
68.733420 101.726 -147.0995
69.231490 101.707 -147.7838
69.733170 101.688 -148.4646
70.238485 101.668 -149.1421
70.747463 101.647 -149.8162
71.260128 101.626 -150.4863
71.776508 101.604 -151.1518
72.296630 101.582 -151.8119
72.820521 101.559 -152.4659
73.348209 101.536 -153.1135
73.879720 101.512 -153.7543
74.415083 101.487 -154.3885
74.954326 101.462 -155.0163
75.497475 101.436 -155.6378
76.044561 101.409 -156.2534
76.595612 101.381 -156.8631
77.150655 101.353 -157.4671
77.709720 101.324 -158.0651
78.272837 101.294 -158.6571
78.840034 101.263 -159.2427
79.411342 101.231 -159.8215
79.986789 101.198 -160.3932
80.566406 101.164 -160.9576
81.150224 101.130 -161.5146
81.738272 101.094 -162.0643
82.330581 101.058 -162.6072
82.927182 101.021 -163.1433
83.528107 100.983 -163.6730
84.133386 100.945 -164.1963
84.743051 100.906 -164.7131
85.357134 100.867 -165.2231
85.975667 100.829 -165.7260
86.598682 100.790 -166.2213
87.226212 100.753 -166.7088
87.858289 100.715 -167.1884
88.494946 100.679 -167.6600
89.136217 100.644 -168.1237
89.782135 100.610 -168.5801
90.432733 100.577 -169.0297
91.088046 100.545 -169.4730
91.748108 100.514 -169.9107
92.412952 100.484 -170.3431
93.082615 100.455 -170.7706
93.757130 100.426 -171.1929
94.436533 100.397 -171.6101
95.120859 100.368 -172.0217
95.810144 100.337 -172.4274
96.504423 100.304 -172.8270
97.203734 100.270 -173.2205
97.908112 100.233 -173.6080
98.617595 100.194 -173.9897
99.332219 100.153 -174.3660
100.052021 100.110 -174.7371
100.777039 100.065 -175.1028
101.507311 100.018 -175.4631
102.242875 99.971 -175.8175
102.983769 99.923 -176.1659
103.730032 99.875 -176.5082
104.481702 99.828 -176.8448
105.238820 99.781 -177.1761
106.001424 99.734 -177.5026
106.769554 99.689 -177.8248
107.543250 99.646 -178.1432
108.322553 99.604 -178.4580
109.107503 99.564 -178.7694
109.898141 99.525 -179.0775
110.694508 99.487 -179.3819
111.496646 99.451 -179.6825
112.304596 99.415 -179.9789
113.118402 99.379 179.7293
113.938104 99.344 179.4425
114.763747 99.308 179.1611
115.595372 99.272 178.8854
116.433024 99.235 178.6154
117.276746 99.197 178.3512
118.126581 99.158 178.0923
118.982575 99.118 177.8381
119.844772 99.077 177.5876
120.713217 99.035 177.3399
121.587954 98.992 177.0945
122.469031 98.949 176.8513
123.356492 98.906 176.6104
124.250384 98.863 176.3723
125.150753 98.821 176.1377
126.057647 98.780 175.9071
126.971113 98.740 175.6812
127.891198 98.701 175.4605
128.817950 98.664 175.2456
129.751418 98.629 175.0367
130.691651 98.595 174.8337
131.638696 98.562 174.6364
132.592604 98.531 174.4442
133.553425 98.501 174.2562
134.521208 98.471 174.0719
135.496004 98.441 173.8907
136.477864 98.411 173.7121
137.466839 98.380 173.5359
138.462981 98.347 173.3619
139.466340 98.312 173.1901
140.476971 98.274 173.0205
141.494925 98.235 172.8534
142.520256 98.192 172.6888
143.553016 98.148 172.5268
144.593260 98.101 172.3675
145.641043 98.052 172.2110
146.696418 98.001 172.0574
147.759441 97.949 171.9070
148.830166 97.897 171.7601
149.908651 97.844 171.6172
150.994951 97.791 171.4789
152.089123 97.739 171.3456
153.191223 97.687 171.2181
154.301310 97.637 171.0967
155.419441 97.587 170.9820
156.545674 97.537 170.8745
157.680069 97.489 170.7748
158.822683 97.440 170.6833
159.973578 97.392 170.6004
161.132813 97.344 170.5266
162.300447 97.295 170.4622
163.476543 97.246 170.4077
164.661162 97.197 170.3635
165.854364 97.147 170.3302
167.056213 97.096 170.3085
168.266772 97.045 170.2991
169.486102 96.993 170.3029
170.714268 96.941 170.3206
171.951334 96.887 170.3531
173.197364 96.834 170.4015
174.452424 96.779 170.4665
175.716578 96.724 170.5491
176.989893 96.669 170.6502
178.272434 96.613 170.7704
179.564270 96.558 170.9104
180.865467 96.503 171.0707
182.176092 96.448 171.2518
183.496216 96.393 171.4537
184.825905 96.340 171.6767
186.165229 96.288 171.9204
187.514259 96.237 172.1841
188.873065 96.188 172.4663
190.241717 96.141 172.7648
191.620287 96.096 173.0767
193.008847 96.054 173.3986
194.407468 96.015 173.7267
195.816225 95.979 174.0571
197.235190 95.946 174.3860
198.664438 95.916 174.7095
200.104042 95.890 175.0234
201.554078 95.868 175.3241
203.014622 95.849 175.6078
204.485750 95.835 175.8715
205.967538 95.825 176.1124
207.460064 95.820 176.3288
208.963405 95.819 176.5189
210.477640 95.824 176.6816
212.002848 95.835 176.8163
213.539108 95.851 176.9225
215.086500 95.871 177.0004
216.645105 95.897 177.0505
218.215005 95.928 177.0737
219.796281 95.962 177.0714
221.389015 96.000 177.0450
222.993292 96.040 176.9963
224.609193 96.082 176.9271
226.236804 96.125 176.8394
227.876209 96.169 176.7354
229.527494 96.214 176.6171
231.190745 96.258 176.4868
232.866048 96.301 176.3468
234.553491 96.344 176.1993
236.253163 96.385 176.0466
237.965150 96.425 175.8905
239.689544 96.463 175.7330
241.426433 96.499 175.5755
243.175909 96.532 175.4194
244.938062 96.564 175.2656
246.712984 96.593 175.1150
248.500768 96.620 174.9681
250.301507 96.644 174.8253
252.115295 96.666 174.6870
253.942226 96.686 174.5532
255.782396 96.704 174.4241
257.635901 96.720 174.2995
259.502837 96.734 174.1796
261.383301 96.746 174.0643
263.277392 96.757 173.9536
265.185209 96.766 173.8474
267.106850 96.773 173.7456
269.042417 96.778 173.6483
270.992009 96.781 173.5554
272.955729 96.781 173.4667
274.933678 96.778 173.3823
276.925961 96.772 173.3018
278.932681 96.762 173.2252
280.953942 96.747 173.1519
282.989850 96.728 173.0819
285.040511 96.704 173.0148
287.106032 96.676 172.9505
289.186521 96.644 172.8889
291.282086 96.606 172.8302
293.392836 96.565 172.7744
295.518881 96.520 172.7217
297.660333 96.472 172.6721
299.817302 96.422 172.6253
301.989902 96.369 172.5814
304.178245 96.315 172.5400
306.382446 96.260 172.5013
308.602620 96.205 172.4653
310.838882 96.150 172.4320
313.091348 96.098 172.4015
315.360137 96.047 172.3737
317.645367 95.999 172.3485
319.947156 95.954 172.3256
322.265625 95.913 172.3045
324.600895 95.876 172.2848
326.953086 95.844 172.2659
329.322323 95.818 172.2474
331.708729 95.796 172.2288
334.112427 95.780 172.2100
336.533543 95.770 172.1909
338.972204 95.764 172.1717
341.428536 95.765 172.1526
343.902668 95.770 172.1340
346.394729 95.779 172.1160
348.904848 95.793 172.0991
351.433156 95.809 172.0833
353.979786 95.827 172.0689
356.544869 95.847 172.0564
359.128540 95.867 172.0464
361.730934 95.886 172.0395
364.352185 95.903 172.0364
366.992431 95.918 172.0380
369.651810 95.930 172.0444
372.330459 95.938 172.0562
375.028519 95.942 172.0732
377.746130 95.941 172.0952
380.483434 95.936 172.1218
383.240574 95.926 172.1522
386.017693 95.913 172.1854
388.814937 95.895 172.2203
391.632450 95.875 172.2560
394.470380 95.852 172.2917
397.328875 95.828 172.3264
400.208084 95.803 172.3599
403.108157 95.779 172.3916
406.029245 95.756 172.4216
408.971500 95.736 172.4496
411.935076 95.718 172.4757
414.920127 95.705 172.4999
417.926810 95.696 172.5222
420.955280 95.692 172.5428
424.005695 95.692 172.5618
427.078215 95.696 172.5793
430.173000 95.703 172.5952
433.290211 95.713 172.6096
436.430010 95.724 172.6223
439.592562 95.737 172.6333
442.778031 95.748 172.6427
445.986583 95.759 172.6509
449.218386 95.767 172.6584
452.473607 95.773 172.6661
455.752418 95.776 172.6750
459.054987 95.776 172.6863
462.381489 95.773 172.7010
465.732096 95.768 172.7197
469.106983 95.760 172.7429
472.506325 95.751 172.7707
475.930301 95.740 172.8026
479.379088 95.729 172.8380
482.852867 95.717 172.8765
486.351817 95.705 172.9175
489.876123 95.694 172.9605
493.425968 95.683 173.0051
497.001536 95.674 173.0507
500.603014 95.667 173.0969
504.230589 95.662 173.1431
507.884452 95.662 173.1887
511.564792 95.666 173.2332
515.271802 95.675 173.2767
519.005673 95.690 173.3190
522.766602 95.711 173.3604
526.554785 95.739 173.4011
530.370418 95.773 173.4416
534.213700 95.812 173.4819
538.084833 95.856 173.5223
541.984018 95.904 173.5629
545.911457 95.955 173.6037
549.867357 96.007 173.6443
553.851922 96.058 173.6843
557.865362 96.107 173.7231
561.907884 96.152 173.7604
565.979700 96.193 173.7959
570.081022 96.227 173.8296
574.212064 96.253 173.8617
578.373042 96.271 173.8929
582.564171 96.280 173.9245
586.785671 96.278 173.9582
591.037762 96.266 173.9963
595.320665 96.243 174.0418
599.634604 96.209 174.0975
603.979804 96.166 174.1655
608.356491 96.115 174.2465
612.764893 96.056 174.3395
617.205240 95.993 174.4415
621.677763 95.927 174.5485
626.182696 95.859 174.6559
630.720274 95.792 174.7598
635.290733 95.728 174.8570
639.894312 95.667 174.9457
644.531250 95.612 175.0254
649.201789 95.562 175.0960
653.906173 95.520 175.1581
658.644647 95.486 175.2123
663.417457 95.460 175.2592
668.224854 95.442 175.2994
673.067086 95.434 175.3331
677.944408 95.435 175.3607
682.857073 95.445 175.3824
687.805336 95.464 175.3986
692.789457 95.491 175.4094
697.809695 95.526 175.4152
702.866312 95.567 175.4160
707.959571 95.614 175.4122
713.089738 95.665 175.4041
718.257080 95.719 175.3920
723.461867 95.774 175.3763
728.704370 95.828 175.3575
733.984862 95.881 175.3356
739.303619 95.931 175.3107
744.660918 95.978 175.2823
750.057038 96.021 175.2498
755.492260 96.060 175.2126
760.966869 96.095 175.1704
766.481148 96.126 175.1227
772.035387 96.154 175.0698
777.629873 96.179 175.0118
783.264900 96.200 174.9492
788.940760 96.217 174.8824
794.657750 96.231 174.8118
800.416168 96.239 174.7378
806.216313 96.242 174.6603
812.058489 96.238 174.5793
817.943000 96.227 174.4949
823.870152 96.208 174.4070
829.840255 96.182 174.3156
835.853619 96.148 174.2207
841.910559 96.108 174.1221
848.011390 96.062 174.0197
854.156430 96.013 173.9130
860.346000 95.964 173.8018
866.580422 95.916 173.6859
872.860020 95.872 173.5656
879.185124 95.833 173.4408
885.556062 95.803 173.3117
891.973166 95.782 173.1783
898.436771 95.772 173.0404
904.947215 95.772 172.8979
911.504835 95.782 172.7511
918.109975 95.801 172.6005
924.762978 95.827 172.4472
931.464192 95.860 172.2922
938.213966 95.897 172.1368
945.012651 95.936 171.9819
951.860602 95.977 171.8283
958.758176 96.017 171.6768
965.705733 96.055 171.5281
972.703635 96.091 171.3833
979.752246 96.124 171.2433
986.851935 96.154 171.1085
994.003071 96.182 170.9791
1001.206027 96.208 170.8539
1008.461179 96.232 170.7312
1015.768904 96.257 170.6083
1023.129584 96.282 170.4829
1030.543603 96.310 170.3531
1038.011347 96.340 170.2175
1045.533205 96.373 170.0758
1053.109569 96.410 169.9284
1060.740836 96.452 169.7759
1068.427401 96.497 169.6190
1076.169666 96.546 169.4580
1083.968035 96.597 169.2931
1091.822915 96.650 169.1240
1099.734713 96.703 168.9511
1107.703844 96.755 168.7750
1115.730723 96.803 168.5965
1123.815768 96.846 168.4171
1131.959400 96.883 168.2381
1140.162045 96.914 168.0604
1148.424129 96.937 167.8851
1156.746083 96.954 167.7129
1165.128342 96.964 167.5452
1173.571343 96.969 167.3840
1182.075524 96.968 167.2318
1190.641331 96.965 167.0911
1199.269209 96.961 166.9642
1207.959608 96.958 166.8523
1216.712981 96.958 166.7557
1225.529785 96.962 166.6731
1234.410479 96.971 166.6025
1243.355526 96.986 166.5412
1252.365393 97.008 166.4863
1261.440549 97.036 166.4354
1270.581467 97.070 166.3869
1279.788624 97.108 166.3395
1289.062500 97.150 166.2924
1298.403578 97.195 166.2451
1307.812346 97.242 166.1985
1317.289293 97.288 166.1534
1326.834914 97.334 166.1116
1336.449707 97.378 166.0746
1346.134173 97.420 166.0437
1355.888816 97.459 166.0200
1365.714145 97.494 166.0045
1375.610673 97.526 165.9983
1385.578915 97.553 166.0023
1395.619391 97.577 166.0175
1405.732624 97.598 166.0443
1415.919142 97.615 166.0827
1426.179476 97.630 166.1316
1436.514160 97.642 166.1892
1446.923734 97.654 166.2530
1457.408740 97.664 166.3199
1467.969724 97.673 166.3863
1478.607238 97.682 166.4488
1489.321836 97.689 166.5048
1500.114076 97.693 166.5530
1510.984521 97.695 166.5939
1521.933737 97.694 166.6290
1532.962297 97.689 166.6602
1544.070773 97.679 166.6895
1555.259747 97.665 166.7180
1566.529800 97.647 166.7471
1577.881521 97.624 166.7784
1589.315501 97.597 166.8149
1600.832336 97.567 166.8608
1612.432627 97.533 166.9212
1624.116978 97.498 167.0004
1635.886000 97.461 167.1020
1647.740304 97.425 167.2273
1659.680509 97.390 167.3759
1671.707238 97.357 167.5459
1683.821118 97.327 167.7338
1696.022780 97.299 167.9356
1708.312860 97.275 168.1469
1720.692000 97.254 168.3635
1733.160843 97.237 168.5818
1745.720041 97.223 168.7991
1758.370248 97.213 169.0136
1771.112124 97.206 169.2244
1783.946332 97.204 169.4302
1796.873543 97.206 169.6303
1809.894429 97.212 169.8243
1823.009670 97.221 170.0129
1836.219950 97.234 170.1976
1849.525956 97.249 170.3806
1862.928384 97.266 170.5634
1876.427931 97.285 170.7463
1890.025301 97.305 170.9281
1903.721204 97.325 171.1067
1917.516352 97.346 171.2796
1931.411466 97.367 171.4439
1945.407270 97.387 171.5968
1959.504493 97.407 171.7351
1973.703870 97.426 171.8557
1988.006142 97.445 171.9559
2002.412054 97.463 172.0345
2016.922357 97.481 172.0919
2031.537808 97.499 172.1294
2046.259169 97.518 172.1489
2061.087206 97.538 172.1522
2076.022694 97.561 172.1404
2091.066410 97.586 172.1142
2106.219139 97.616 172.0729
2121.481671 97.650 172.0153
2136.854802 97.689 171.9397
2152.339333 97.733 171.8436
2167.936071 97.783 171.7247
2183.645829 97.838 171.5809
2199.469427 97.897 171.4116
2215.407689 97.961 171.2172
2231.461446 98.029 170.9998
2247.631536 98.100 170.7621
2263.918800 98.176 170.5074
2280.324089 98.254 170.2388
2296.848258 98.337 169.9589
2313.492167 98.422 169.6696
2330.256685 98.510 169.3723
2347.142685 98.601 169.0679
2364.151049 98.693 168.7572
2381.282662 98.787 168.4406
2398.538418 98.880 168.1183
2415.919216 98.973 167.7910
2433.425962 99.064 167.4587
2451.059570 99.152 167.1218
2468.820958 99.236 166.7802
2486.711052 99.315 166.4336
2504.730786 99.388 166.0819
2522.881098 99.455 165.7254
2541.162934 99.513 165.3648
2559.577248 99.562 165.0019
2578.125000 99.602 164.6389
2596.807157 99.631 164.2787
2615.624692 99.649 163.9244
2634.578586 99.656 163.5787
2653.669829 99.652 163.2442
2672.899414 99.637 162.9229
2692.268345 99.609 162.6174
2711.777632 99.570 162.3306
2731.428290 99.520 162.0663
2751.221345 99.457 161.8296
2771.157829 99.384 161.6258
2791.238781 99.299 161.4608
2811.465248 99.203 161.3401
2831.838284 99.098 161.2688
2852.358952 98.985 161.2514
2873.028321 98.864 161.2918
2893.847468 98.736 161.3937
2914.817480 98.602 161.5606
2935.939449 98.463 161.7966
2957.214476 98.321 162.1053
2978.643672 98.177 162.4906
3000.228152 98.033 162.9549
3021.969041 97.890 163.4995
3043.867475 97.750 164.1230
3065.924593 97.617 164.8216
3088.141547 97.492 165.5890
3110.519493 97.377 166.4160
3133.059600 97.275 167.2916
3155.763041 97.187 168.2025
3178.631001 97.114 169.1335
3201.664672 97.058 170.0677
3224.865254 97.020 170.9870
3248.233957 96.999 171.8724
3271.771999 96.995 172.7062
3295.480608 97.007 173.4723
3319.361019 97.033 174.1580
3343.414477 97.072 174.7547
3367.642236 97.120 175.2588
3392.045560 97.175 175.6714
3416.625721 97.236 175.9977
3441.383999 97.301 176.2467
3466.321686 97.367 176.4292
3491.440082 97.435 176.5571
