* Measurement data measured by REW V5.31.3
* Source: EXCL: Headset (USB-C to 3.5mm Headphone Jack Adapter), MICROPHONE (Master Volume), 0, volume: 0.750
* Format: 256k Log Swept Sine, 1 sweep at -12.0 dBFS with no timing reference
* Dated: Apr 7, 2025 4:46:08 PM
* REW Settings:
*  C-weighting compensation: Off
*  Target level: 75.0 dB
* Note: ; 
* Measurement: Satyr 3 (Centered) R5
* Smoothing: 1/6 octave
* Frequency Step: 96 ppo
* Start Frequency: 20.0 Hz
*
* Freq(Hz) SPL(dB) Phase(degrees)
20.187378 79.866 -99.5394
20.333664 79.895 -99.6195
20.481010 79.935 -99.7210
20.629424 79.983 -99.8344
20.778913 80.040 -99.9503
20.929486 80.105 -100.0614
21.081150 80.177 -100.1632
21.233912 80.256 -100.2549
21.387782 80.343 -100.3390
21.542767 80.437 -100.4212
21.698874 80.537 -100.5096
21.856113 80.644 -100.6134
22.014492 80.756 -100.7423
22.174018 80.873 -100.9050
22.334700 80.993 -101.1086
22.496546 81.115 -101.3581
22.659566 81.237 -101.6559
22.823766 81.356 -102.0018
22.989157 81.473 -102.3932
23.155745 81.585 -102.8259
23.323542 81.691 -103.2936
23.492554 81.790 -103.7895
23.662790 81.881 -104.3060
23.834261 81.963 -104.8351
24.006973 82.036 -105.3692
24.180938 82.100 -105.9013
24.356163 82.155 -106.4251
24.532658 82.202 -106.9356
24.710431 82.241 -107.4294
24.889493 82.274 -107.9052
25.069853 82.303 -108.3636
25.251519 82.329 -108.8080
25.434502 82.354 -109.2436
25.618811 82.380 -109.6774
25.804456 82.407 -110.1174
25.991445 82.436 -110.5714
26.179790 82.468 -111.0459
26.369500 82.503 -111.5448
26.560584 82.539 -112.0687
26.753053 82.576 -112.6147
26.946917 82.613 -113.1758
27.142185 82.649 -113.7422
27.338869 82.682 -114.3020
27.536977 82.714 -114.8432
27.736522 82.743 -115.3547
27.937512 82.771 -115.8284
28.139959 82.797 -116.2599
28.343872 82.824 -116.6495
28.549264 82.852 -117.0018
28.756143 82.881 -117.3254
28.964522 82.912 -117.6316
29.174411 82.944 -117.9325
29.385821 82.977 -118.2397
29.598763 83.011 -118.5627
29.813248 83.046 -118.9079
30.029287 83.080 -119.2786
30.246891 83.113 -119.6746
30.466073 83.147 -120.0932
30.686842 83.181 -120.5302
30.909212 83.216 -120.9803
31.133193 83.254 -121.4387
31.358797 83.296 -121.9012
31.586035 83.342 -122.3649
31.814921 83.393 -122.8279
32.045465 83.450 -123.2896
32.277680 83.512 -123.7503
32.511577 83.579 -124.2107
32.747169 83.651 -124.6716
32.984469 83.727 -125.1337
33.223488 83.807 -125.5976
33.464239 83.889 -126.0633
33.706735 83.973 -126.5305
33.950987 84.060 -126.9983
34.197010 84.148 -127.4658
34.444816 84.237 -127.9316
34.694417 84.326 -128.3946
34.945827 84.417 -128.8538
35.199059 84.507 -129.3085
35.454126 84.597 -129.7590
35.711041 84.687 -130.2061
35.969818 84.775 -130.6511
36.230470 84.863 -131.0961
36.493011 84.949 -131.5434
36.757455 85.034 -131.9954
37.023814 85.118 -132.4539
37.292104 85.201 -132.9200
37.562338 85.283 -133.3939
37.834530 85.364 -133.8743
38.108695 85.445 -134.3589
38.384846 85.526 -134.8443
38.662999 85.606 -135.3264
38.943167 85.686 -135.8010
39.225365 85.765 -136.2643
39.509608 85.843 -136.7132
39.795911 85.918 -137.1460
40.084289 85.991 -137.5621
40.374756 86.059 -137.9626
40.667328 86.124 -138.3495
40.962020 86.185 -138.7263
41.258848 86.241 -139.0970
41.557827 86.294 -139.4662
41.858972 86.343 -139.8384
42.162299 86.390 -140.2177
42.467824 86.435 -140.6069
42.775564 86.479 -141.0072
43.085533 86.523 -141.4179
43.397749 86.567 -141.8365
43.712227 86.610 -142.2593
44.028983 86.654 -142.6821
44.348036 86.699 -143.1015
44.669400 86.743 -143.5154
44.993093 86.786 -143.9233
45.319131 86.829 -144.3266
45.647532 86.871 -144.7276
45.978313 86.911 -145.1290
46.311491 86.948 -145.5338
46.647083 86.983 -145.9447
46.985107 87.016 -146.3643
47.325581 87.046 -146.7949
47.668521 87.075 -147.2385
48.013947 87.102 -147.6967
48.361876 87.128 -148.1693
48.712326 87.152 -148.6550
49.065315 87.174 -149.1504
49.420863 87.193 -149.6510
49.778987 87.210 -150.1521
50.139706 87.223 -150.6497
50.503039 87.233 -151.1409
50.869005 87.240 -151.6248
51.237623 87.244 -152.1019
51.608912 87.247 -152.5740
51.982891 87.249 -153.0437
52.359580 87.251 -153.5137
52.739000 87.254 -153.9871
53.121168 87.259 -154.4660
53.506106 87.265 -154.9513
53.893833 87.273 -155.4426
54.284370 87.281 -155.9376
54.677737 87.290 -156.4330
55.073955 87.298 -156.9246
55.473043 87.304 -157.4084
55.875024 87.310 -157.8806
56.279917 87.313 -158.3385
56.687745 87.316 -158.7803
57.098527 87.317 -159.2058
57.512287 87.317 -159.6165
57.929045 87.316 -160.0160
58.348822 87.315 -160.4105
58.771642 87.315 -160.8085
59.197525 87.317 -161.2201
59.626495 87.321 -161.6548
60.058573 87.329 -162.1196
60.493782 87.342 -162.6161
60.932145 87.358 -163.1400
61.373685 87.379 -163.6822
61.818424 87.402 -164.2307
62.266386 87.428 -164.7744
62.717593 87.456 -165.3048
63.172071 87.485 -165.8176
63.629842 87.514 -166.3117
64.090930 87.543 -166.7891
64.555359 87.571 -167.2535
65.023154 87.600 -167.7090
65.494339 87.628 -168.1598
65.968938 87.656 -168.6090
66.446976 87.683 -169.0583
66.928478 87.710 -169.5080
67.413469 87.736 -169.9573
67.901975 87.762 -170.4045
68.394021 87.786 -170.8479
68.889632 87.808 -171.2860
69.388835 87.829 -171.7181
69.891655 87.848 -172.1439
70.398118 87.864 -172.5637
70.908252 87.877 -172.9776
71.422083 87.887 -173.3858
71.939636 87.894 -173.7878
72.460941 87.898 -174.1835
72.986023 87.898 -174.5723
73.514909 87.896 -174.9543
74.047629 87.890 -175.3298
74.584208 87.882 -175.6994
75.124676 87.871 -176.0638
75.669061 87.857 -176.4238
76.217390 87.842 -176.7804
76.769692 87.824 -177.1350
77.325997 87.805 -177.4886
77.886333 87.785 -177.8423
78.450730 87.764 -178.1964
79.019216 87.742 -178.5509
79.591822 87.719 -178.9050
80.168577 87.696 -179.2583
80.749512 87.672 -179.6103
81.334656 87.647 -179.9610
81.924040 87.622 179.6897
82.517696 87.596 179.3418
83.115653 87.570 178.9957
83.717943 87.544 178.6520
84.324598 87.518 178.3112
84.935649 87.491 177.9734
85.551128 87.464 177.6387
86.171066 87.437 177.3069
86.795497 87.409 176.9780
87.424453 87.382 176.6518
88.057967 87.354 176.3288
88.696071 87.326 176.0092
89.338800 87.298 175.6930
89.986185 87.270 175.3804
90.638262 87.241 175.0713
91.295065 87.211 174.7655
91.956626 87.181 174.4628
92.622982 87.150 174.1630
93.294166 87.118 173.8659
93.970214 87.086 173.5716
94.651161 87.054 173.2800
95.337042 87.022 172.9914
96.027894 86.990 172.7060
96.723752 86.957 172.4239
97.424652 86.925 172.1452
98.130631 86.894 171.8694
98.841726 86.863 171.5960
99.557974 86.832 171.3245
100.279412 86.802 171.0547
101.006078 86.773 170.7866
101.738010 86.745 170.5204
102.475245 86.717 170.2566
103.217823 86.691 169.9955
103.965782 86.666 169.7374
104.719161 86.642 169.4824
105.477999 86.619 169.2305
106.242336 86.597 168.9811
107.012212 86.577 168.7338
107.787666 86.558 168.4878
108.568740 86.540 168.2423
109.355474 86.524 167.9970
110.147909 86.509 167.7520
110.946086 86.495 167.5075
111.750047 86.482 167.2642
112.559834 86.470 167.0227
113.375489 86.458 166.7835
114.197055 86.446 166.5469
115.024574 86.434 166.3137
115.858089 86.422 166.0843
116.697645 86.409 165.8594
117.543284 86.396 165.6394
118.395051 86.382 165.4239
119.252990 86.367 165.2119
120.117147 86.351 165.0021
120.987565 86.334 164.7933
121.864291 86.317 164.5844
122.747370 86.298 164.3752
123.636848 86.279 164.1655
124.532771 86.259 163.9558
125.435187 86.239 163.7471
126.344142 86.218 163.5406
127.259684 86.196 163.3371
128.181860 86.174 163.1376
129.110718 86.151 162.9421
130.046308 86.127 162.7505
130.988677 86.102 162.5621
131.937875 86.075 162.3764
132.893951 86.048 162.1927
133.856956 86.018 162.0109
134.826938 85.987 161.8310
135.803950 85.954 161.6534
136.788041 85.919 161.4789
137.779264 85.881 161.3083
138.777669 85.842 161.1423
139.783309 85.801 160.9819
140.796237 85.758 160.8279
141.816504 85.714 160.6813
142.844165 85.668 160.5428
143.879273 85.621 160.4130
144.921881 85.573 160.2924
145.972045 85.525 160.1815
147.029819 85.475 160.0807
148.095257 85.426 159.9904
149.168417 85.376 159.9114
150.249353 85.327 159.8441
151.338121 85.278 159.7890
152.434780 85.229 159.7462
153.539385 85.180 159.7156
154.651995 85.132 159.6968
155.772667 85.083 159.6895
156.901460 85.035 159.6935
158.038432 84.988 159.7088
159.183644 84.940 159.7358
160.337154 84.893 159.7747
161.499023 84.848 159.8256
162.669312 84.803 159.8885
163.848081 84.760 159.9630
165.035392 84.718 160.0482
166.231306 84.679 160.1432
167.435887 84.642 160.2472
168.649196 84.607 160.3593
169.871298 84.574 160.4785
171.102255 84.545 160.6039
172.342133 84.517 160.7342
173.590995 84.493 160.8680
174.848907 84.471 161.0037
176.115934 84.453 161.1395
177.392143 84.437 161.2740
178.677599 84.424 161.4057
179.972371 84.414 161.5330
181.276525 84.406 161.6541
182.590129 84.400 161.7671
183.913252 84.396 161.8703
185.245964 84.394 161.9617
186.588332 84.393 162.0399
187.940428 84.394 162.1033
189.302322 84.396 162.1506
190.674085 84.400 162.1809
192.055788 84.405 162.1938
193.447503 84.410 162.1893
194.849303 84.417 162.1682
196.261262 84.423 162.1315
197.683452 84.430 162.0808
199.115948 84.436 162.0176
200.558824 84.441 161.9433
202.012156 84.446 161.8591
203.476019 84.450 161.7659
204.950490 84.453 161.6642
206.435646 84.455 161.5548
207.931564 84.456 161.4388
209.438322 84.455 161.3181
210.955998 84.453 161.1944
212.484672 84.450 161.0691
214.024424 84.445 160.9433
215.575333 84.439 160.8179
217.137481 84.431 160.6937
218.710948 84.424 160.5710
220.295818 84.416 160.4497
221.892172 84.408 160.3288
223.500094 84.401 160.2067
225.119668 84.393 160.0815
226.750978 84.386 159.9518
228.394109 84.380 159.8168
230.049147 84.374 159.6769
231.716178 84.369 159.5338
233.395289 84.366 159.3897
235.086567 84.364 159.2470
236.790102 84.364 159.1078
238.505980 84.365 158.9733
240.234293 84.368 158.8436
241.975130 84.371 158.7184
243.728581 84.375 158.5969
245.494739 84.379 158.4783
247.273695 84.383 158.3617
249.065542 84.388 158.2462
250.870374 84.392 158.1313
252.688284 84.395 158.0163
254.519367 84.399 157.9012
256.363720 84.402 157.7863
258.221437 84.404 157.6722
260.092616 84.406 157.5599
261.977354 84.407 157.4504
263.875750 84.407 157.3448
265.787903 84.407 157.2439
267.713911 84.406 157.1480
269.653877 84.406 157.0574
271.607900 84.405 156.9717
273.576083 84.404 156.8907
275.558528 84.404 156.8139
277.555338 84.403 156.7407
279.566619 84.403 156.6702
281.592474 84.402 156.6017
283.633009 84.402 156.5342
285.688331 84.402 156.4670
287.758546 84.402 156.3998
289.843763 84.404 156.3323
291.944090 84.406 156.2650
294.059638 84.409 156.1979
296.190515 84.414 156.1310
298.336833 84.420 156.0645
300.498705 84.426 155.9981
302.676243 84.434 155.9317
304.869559 84.442 155.8652
307.078770 84.451 155.7986
309.303989 84.459 155.7316
311.545334 84.468 155.6639
313.802919 84.477 155.5950
316.076865 84.485 155.5241
318.367288 84.493 155.4508
320.674309 84.500 155.3750
322.998047 84.507 155.2970
325.338624 84.513 155.2180
327.696162 84.518 155.1393
330.070783 84.523 155.0625
332.462612 84.527 154.9886
334.871773 84.531 154.9183
337.298392 84.534 154.8519
339.742595 84.536 154.7893
342.204510 84.538 154.7303
344.684265 84.539 154.6744
347.181989 84.539 154.6211
349.697813 84.539 154.5697
352.231868 84.537 154.5190
354.784285 84.535 154.4678
357.355198 84.531 154.4150
359.944741 84.527 154.3590
362.553049 84.521 154.2990
365.180258 84.515 154.2344
367.826505 84.508 154.1654
370.491927 84.501 154.0926
373.176665 84.493 154.0171
375.880856 84.486 153.9401
378.604644 84.478 153.8625
381.348169 84.470 153.7852
384.111575 84.463 153.7087
386.895006 84.455 153.6332
389.698607 84.447 153.5587
392.522524 84.439 153.4846
395.366904 84.430 153.4104
398.231895 84.420 153.3358
401.117648 84.410 153.2606
404.024312 84.397 153.1848
406.952038 84.383 153.1083
409.900981 84.367 153.0313
412.871292 84.349 152.9537
415.863128 84.329 152.8763
418.876643 84.306 152.8010
421.911996 84.280 152.7310
424.969344 84.251 152.6702
428.048847 84.220 152.6226
431.150666 84.187 152.5916
434.274961 84.152 152.5787
437.421897 84.117 152.5835
440.591636 84.082 152.6030
443.784345 84.048 152.6326
447.000189 84.016 152.6670
450.239337 83.985 152.7014
453.501956 83.956 152.7317
456.788219 83.929 152.7549
460.098294 83.903 152.7691
463.432356 83.878 152.7737
466.790578 83.854 152.7688
470.173135 83.831 152.7549
473.580203 83.808 152.7331
477.011961 83.786 152.7047
480.468586 83.765 152.6711
483.950259 83.745 152.6338
487.457163 83.725 152.5938
490.989478 83.706 152.5524
494.547390 83.688 152.5106
498.131084 83.670 152.4688
501.740748 83.653 152.4276
505.376568 83.637 152.3871
509.038735 83.622 152.3472
512.727439 83.608 152.3077
516.442874 83.595 152.2681
520.185232 83.584 152.2281
523.954708 83.575 152.1871
527.751500 83.567 152.1447
531.575805 83.562 152.1003
535.427822 83.558 152.0536
539.307753 83.557 152.0043
543.215800 83.557 151.9525
547.152165 83.560 151.8986
551.117055 83.565 151.8434
555.110677 83.572 151.7880
559.133237 83.581 151.7337
563.184947 83.591 151.6816
567.266018 83.603 151.6329
571.376661 83.617 151.5884
575.517092 83.632 151.5486
579.687526 83.647 151.5130
583.888181 83.664 151.4809
588.119275 83.681 151.4511
592.381030 83.698 151.4224
596.673667 83.716 151.3935
600.997410 83.733 151.3633
605.352485 83.750 151.3312
609.739119 83.767 151.2965
614.157540 83.783 151.2589
618.607979 83.799 151.2179
623.090667 83.814 151.1734
627.605839 83.828 151.1252
632.153730 83.841 151.0732
636.734576 83.852 151.0178
641.348617 83.863 150.9592
645.996094 83.872 150.8975
650.677248 83.880 150.8331
655.392323 83.887 150.7666
660.141566 83.891 150.6985
664.925224 83.894 150.6299
669.743546 83.896 150.5616
674.596784 83.895 150.4948
679.485191 83.892 150.4309
684.409020 83.889 150.3712
689.368530 83.884 150.3165
694.363979 83.878 150.2670
699.395626 83.872 150.2210
704.463736 83.867 150.1761
709.568570 83.861 150.1287
714.710396 83.856 150.0757
719.889483 83.851 150.0146
725.106099 83.845 149.9444
730.360516 83.839 149.8649
735.653010 83.831 149.7766
740.983855 83.822 149.6808
746.353329 83.810 149.5786
751.761713 83.797 149.4716
757.209288 83.782 149.3612
762.696339 83.764 149.2488
768.223151 83.745 149.1362
773.790013 83.723 149.0246
779.397214 83.700 148.9153
785.045047 83.676 148.8089
790.733808 83.650 148.7054
796.463791 83.624 148.6046
802.235296 83.598 148.5056
808.048623 83.572 148.4077
813.904077 83.547 148.3099
819.801961 83.522 148.2113
825.742584 83.498 148.1110
831.726255 83.475 148.0079
837.753287 83.453 147.9007
843.823992 83.433 147.7878
849.938689 83.414 147.6684
856.097695 83.395 147.5418
862.301332 83.378 147.4081
868.549922 83.361 147.2677
874.843793 83.344 147.1218
881.183272 83.328 146.9716
887.568689 83.311 146.8192
894.000378 83.295 146.6663
900.478673 83.278 146.5146
907.003913 83.262 146.3651
913.576437 83.247 146.2183
920.196588 83.232 146.0741
926.864712 83.218 145.9323
933.581156 83.205 145.7924
940.346270 83.194 145.6538
947.160407 83.185 145.5164
954.023921 83.177 145.3800
960.937172 83.172 145.2443
967.900519 83.169 145.1089
974.914325 83.169 144.9727
981.978956 83.172 144.8344
989.094780 83.178 144.6921
996.262169 83.186 144.5441
1003.481495 83.197 144.3891
1010.753136 83.211 144.2262
1018.077470 83.226 144.0549
1025.454879 83.242 143.8754
1032.885748 83.260 143.6880
1040.370463 83.279 143.4933
1047.909417 83.297 143.2924
1055.503000 83.316 143.0865
1063.151610 83.335 142.8768
1070.855645 83.353 142.6652
1078.615506 83.370 142.4533
1086.431599 83.386 142.2427
1094.304330 83.401 142.0350
1102.234110 83.415 141.8313
1110.221353 83.427 141.6325
1118.266475 83.439 141.4393
1126.369895 83.449 141.2525
1134.532035 83.457 141.0727
1142.753322 83.464 140.9007
1151.034184 83.470 140.7373
1159.375052 83.474 140.5834
1167.776361 83.477 140.4399
1176.238550 83.479 140.3076
1184.762060 83.480 140.1867
1193.347334 83.481 140.0770
1201.994821 83.481 139.9778
1210.704971 83.481 139.8885
1219.478238 83.481 139.8087
1228.315080 83.481 139.7382
1237.215957 83.481 139.6770
1246.181334 83.481 139.6252
1255.211678 83.481 139.5829
1264.307459 83.482 139.5499
1273.469152 83.483 139.5264
1282.697235 83.485 139.5124
1291.992188 83.487 139.5081
1301.354495 83.490 139.5132
1310.784647 83.493 139.5270
1320.283132 83.497 139.5485
1329.850448 83.502 139.5765
1339.487093 83.508 139.6104
1349.193569 83.515 139.6493
1358.970381 83.522 139.6929
1368.818041 83.530 139.7408
1378.737061 83.539 139.7927
1388.727958 83.549 139.8481
1398.791253 83.560 139.9065
1408.927471 83.572 139.9675
1419.137140 83.586 140.0317
1429.420793 83.600 140.1004
1439.778965 83.616 140.1755
1450.212197 83.633 140.2588
1460.721033 83.651 140.3514
1471.306019 83.671 140.4541
1481.967709 83.693 140.5670
1492.706658 83.716 140.6898
1503.523426 83.740 140.8218
1514.418576 83.765 140.9618
1525.392678 83.791 141.1084
1536.446302 83.817 141.2608
1547.580025 83.842 141.4189
1558.794428 83.866 141.5836
1570.090095 83.887 141.7568
1581.467615 83.905 141.9415
1592.927581 83.920 142.1414
1604.470591 83.931 142.3605
1616.097246 83.939 142.6029
1627.808153 83.945 142.8719
1639.603922 83.949 143.1696
1651.485168 83.952 143.4962
1663.452510 83.954 143.8494
1675.506573 83.958 144.2251
1687.647984 83.964 144.6172
1699.877377 83.972 145.0189
1712.195390 83.983 145.4224
1724.602663 83.997 145.8209
1737.099845 84.013 146.2080
1749.687587 84.030 146.5793
1762.366544 84.048 146.9326
1775.137379 84.067 147.2677
1788.000756 84.085 147.5862
1800.957346 84.103 147.8912
1814.007826 84.119 148.1863
1827.152874 84.134 148.4752
1840.393177 84.148 148.7609
1853.729425 84.160 149.0450
1867.162312 84.172 149.3273
1880.692540 84.184 149.6065
1894.320813 84.195 149.8799
1908.047843 84.206 150.1445
1921.874344 84.216 150.3979
1935.801038 84.224 150.6384
1949.828650 84.231 150.8655
1963.957912 84.236 151.0796
1978.189561 84.239 151.2813
1992.524338 84.240 151.4714
2006.962991 84.239 151.6503
2021.506272 84.236 151.8183
2036.154940 84.231 151.9755
2050.909758 84.225 152.1217
2065.771495 84.218 152.2568
2080.740927 84.209 152.3803
2095.818833 84.199 152.4917
2111.006001 84.189 152.5903
2126.303220 84.178 152.6754
2141.711290 84.166 152.7466
2157.231013 84.154 152.8040
2172.863198 84.140 152.8483
2188.608660 84.127 152.8806
2204.468221 84.113 152.9021
2220.442706 84.098 152.9143
2236.532950 84.084 152.9183
2252.739789 84.069 152.9147
2269.064070 84.055 152.9037
2285.506644 84.042 152.8846
2302.068367 84.030 152.8568
2318.750104 84.018 152.8193
2335.552723 84.008 152.7713
2352.477101 83.999 152.7117
2369.524119 83.991 152.6398
2386.694668 83.984 152.5547
2403.989641 83.979 152.4553
2421.409941 83.975 152.3401
2438.956476 83.972 152.2073
2456.630160 83.970 152.0548
2474.431915 83.969 151.8809
2492.362668 83.968 151.6847
2510.423356 83.966 151.4666
2528.614918 83.962 151.2290
2546.938304 83.956 150.9759
2565.394469 83.946 150.7131
2583.984375 83.933 150.4477
2602.708991 83.916 150.1873
2621.569293 83.896 149.9399
2640.566265 83.871 149.7130
2659.700897 83.844 149.5134
2678.974186 83.814 149.3464
2698.387137 83.782 149.2158
2717.940763 83.749 149.1237
2737.636082 83.717 149.0710
2757.474121 83.684 149.0575
2777.455915 83.652 149.0825
2797.582506 83.621 149.1451
2817.854942 83.590 149.2448
2838.274281 83.561 149.3821
2858.841586 83.532 149.5577
2879.557931 83.503 149.7736
2900.424394 83.475 150.0322
2921.442065 83.447 150.3363
2942.612039 83.420 150.6894
2963.935418 83.393 151.0946
2985.413316 83.368 151.5548
3007.046852 83.344 152.0721
3028.837153 83.323 152.6470
3050.785356 83.304 153.2780
3072.892604 83.290 153.9611
3095.160050 83.280 154.6899
3117.588856 83.276 155.4557
3140.180190 83.276 156.2483
3162.935230 83.282 157.0563
3185.855163 83.294 157.8680
3208.941182 83.309 158.6719
3232.194493 83.329 159.4568
3255.616307 83.352 160.2129
3279.207844 83.376 160.9317
3302.970336 83.401 161.6070
3326.905021 83.425 162.2353
3351.013146 83.447 162.8160
3375.295969 83.467 163.3516
3399.754755 83.483 163.8467
3424.390779 83.495 164.3074
3449.205326 83.504 164.7388
3474.199690 83.511 165.1443
3499.375173 83.516 165.5240
3524.733088 83.521 165.8747
3550.274757 83.527 166.1900
