* Measurement data measured by REW V5.31.3
* Source: EXCL: Headset (USB-C to 3.5mm Headphone Jack Adapter), MICROPHONE (Master Volume), 0, volume: 0.260
* Format: 256k Log Swept Sine, 1 sweep at -12.0 dBFS with no timing reference
* Dated: Feb 19, 2025 7:44:35 PM
* REW Settings:
*  C-weighting compensation: Off
*  Target level: 75.0 dB
* Note: ; 
* Measurement: Satyr 3 L2
* Smoothing: 1/6 octave
* Frequency Step: 96 ppo
* Start Frequency: 20.0 Hz
*
* Freq(Hz) SPL(dB) Phase(degrees)
20.141602 93.002 -30.5465
20.287556 93.009 -30.7332
20.434568 93.018 -30.9824
20.582645 93.029 -31.2862
20.731796 93.043 -31.6365
20.882027 93.061 -32.0260
21.033346 93.081 -32.4487
21.185763 93.106 -32.9000
21.339284 93.135 -33.3770
21.493917 93.168 -33.8775
21.649671 93.207 -34.4003
21.806553 93.251 -34.9440
21.964572 93.300 -35.5070
22.123737 93.353 -36.0868
22.284054 93.410 -36.6799
22.445534 93.471 -37.2817
22.608183 93.534 -37.8868
22.772012 93.600 -38.4895
22.937027 93.668 -39.0844
23.103238 93.737 -39.6666
23.270654 93.808 -40.2327
23.439282 93.881 -40.7813
23.609133 93.955 -41.3128
23.780215 94.030 -41.8299
23.952536 94.107 -42.3367
24.126106 94.186 -42.8390
24.300934 94.264 -43.3426
24.477028 94.343 -43.8534
24.654399 94.421 -44.3762
24.833055 94.497 -44.9144
25.013005 94.572 -45.4695
25.194260 94.645 -46.0417
25.376828 94.716 -46.6292
25.560719 94.784 -47.2295
25.745942 94.852 -47.8395
25.932508 94.920 -48.4558
26.120426 94.989 -49.0757
26.309705 95.059 -49.6969
26.500356 95.133 -50.3178
26.692388 95.210 -50.9378
26.885812 95.293 -51.5565
27.080638 95.380 -52.1743
27.276876 95.473 -52.7914
27.474535 95.571 -53.4084
27.673627 95.674 -54.0262
27.874161 95.781 -54.6458
28.076149 95.892 -55.2684
28.279600 96.005 -55.8958
28.484526 96.119 -56.5297
28.690937 96.232 -57.1721
28.898843 96.343 -57.8241
29.108256 96.450 -58.4862
29.319186 96.552 -59.1574
29.531645 96.648 -59.8355
29.745644 96.736 -60.5168
29.961193 96.817 -61.1967
30.178304 96.890 -61.8701
30.396989 96.957 -62.5327
30.617258 97.018 -63.1811
30.839123 97.076 -63.8138
31.062596 97.133 -64.4314
31.287688 97.189 -65.0364
31.514412 97.248 -65.6328
31.742778 97.310 -66.2252
31.972800 97.376 -66.8180
32.204488 97.446 -67.4146
32.437855 97.521 -68.0170
32.672913 97.601 -68.6256
32.909674 97.685 -69.2396
33.148151 97.772 -69.8574
33.388356 97.863 -70.4778
33.630302 97.957 -71.0999
33.874001 98.053 -71.7239
34.119466 98.151 -72.3514
34.366710 98.248 -72.9843
34.615745 98.345 -73.6252
34.866585 98.440 -74.2762
35.119243 98.532 -74.9388
35.373731 98.619 -75.6131
35.630064 98.701 -76.2982
35.888254 98.778 -76.9922
36.148315 98.849 -77.6922
36.410261 98.915 -78.3952
36.674104 98.975 -79.0985
36.939860 99.030 -79.7998
37.207542 99.081 -80.4979
37.477163 99.129 -81.1923
37.748738 99.173 -81.8835
38.022281 99.215 -82.5724
38.297806 99.256 -83.2601
38.575327 99.294 -83.9472
38.854860 99.331 -84.6337
39.136419 99.366 -85.3190
39.420017 99.400 -86.0014
39.705671 99.433 -86.6794
39.993395 99.466 -87.3515
40.283203 99.498 -88.0168
40.575112 99.530 -88.6758
40.869136 99.563 -89.3299
41.165290 99.597 -89.9816
41.463591 99.631 -90.6341
41.764053 99.666 -91.2909
42.066693 99.702 -91.9551
42.371525 99.739 -92.6293
42.678567 99.777 -93.3150
42.987834 99.818 -94.0131
43.299341 99.861 -94.7229
43.613106 99.907 -95.4429
43.929145 99.957 -96.1709
44.247473 100.010 -96.9040
44.568109 100.066 -97.6394
44.891068 100.125 -98.3745
45.216367 100.186 -99.1077
45.544023 100.249 -99.8380
45.874054 100.313 -100.5657
46.206476 100.376 -101.2917
46.541307 100.439 -102.0175
46.878565 100.501 -102.7450
47.218266 100.562 -103.4764
47.560429 100.622 -104.2134
47.905072 100.682 -104.9576
48.252212 100.742 -105.7097
48.601867 100.801 -106.4695
48.954056 100.862 -107.2363
49.308798 100.922 -108.0084
49.666109 100.982 -108.7842
50.026010 101.042 -109.5622
50.388520 101.100 -110.3417
50.753656 101.158 -111.1225
51.121437 101.214 -111.9055
51.491884 101.267 -112.6915
51.865016 101.318 -113.4816
52.240851 101.365 -114.2761
52.619410 101.410 -115.0750
53.000712 101.451 -115.8774
53.384777 101.489 -116.6822
53.771625 101.523 -117.4880
54.161276 101.553 -118.2938
54.553751 101.580 -119.0987
54.949070 101.604 -119.9025
55.347254 101.623 -120.7049
55.748323 101.640 -121.5055
56.152298 101.654 -122.3032
56.559201 101.665 -123.0965
56.969052 101.674 -123.8836
57.381873 101.681 -124.6627
57.797686 101.687 -125.4329
58.216512 101.693 -126.1945
58.638373 101.698 -126.9496
59.063291 101.704 -127.7014
59.491288 101.711 -128.4538
59.922386 101.719 -129.2100
60.356608 101.727 -129.9722
60.793977 101.736 -130.7408
61.234515 101.747 -131.5144
61.678246 101.757 -132.2906
62.125192 101.769 -133.0661
62.575377 101.779 -133.8380
63.028824 101.789 -134.6033
63.485557 101.797 -135.3605
63.945599 101.802 -136.1086
64.408975 101.805 -136.8480
64.875709 101.805 -137.5792
65.345825 101.803 -138.3031
65.819348 101.798 -139.0204
66.296302 101.790 -139.7315
66.776713 101.781 -140.4362
67.260604 101.770 -141.1346
67.748002 101.758 -141.8265
68.238932 101.745 -142.5118
68.733420 101.732 -143.1910
69.231490 101.717 -143.8643
69.733170 101.702 -144.5322
70.238485 101.687 -145.1950
70.747463 101.672 -145.8527
71.260128 101.656 -146.5055
71.776508 101.640 -147.1535
72.296630 101.623 -147.7968
72.820521 101.606 -148.4359
73.348209 101.589 -149.0711
73.879720 101.571 -149.7028
74.415083 101.553 -150.3313
74.954326 101.534 -150.9567
75.497475 101.515 -151.5789
76.044561 101.495 -152.1979
76.595612 101.473 -152.8133
77.150655 101.451 -153.4247
77.709720 101.428 -154.0315
78.272837 101.405 -154.6329
78.840034 101.380 -155.2280
79.411342 101.355 -155.8160
79.986789 101.330 -156.3961
80.566406 101.304 -156.9683
81.150224 101.278 -157.5328
81.738272 101.251 -158.0900
82.330581 101.224 -158.6409
82.927182 101.197 -159.1861
83.528107 101.169 -159.7266
84.133386 101.140 -160.2628
84.743051 101.111 -160.7948
85.357134 101.082 -161.3226
85.975667 101.053 -161.8458
86.598682 101.024 -162.3638
87.226212 100.996 -162.8759
87.858289 100.967 -163.3816
88.494946 100.940 -163.8802
89.136217 100.913 -164.3711
89.782135 100.888 -164.8538
90.432733 100.863 -165.3279
91.088046 100.839 -165.7931
91.748108 100.816 -166.2499
92.412952 100.793 -166.6988
93.082615 100.771 -167.1409
93.757130 100.748 -167.5773
94.436533 100.725 -168.0094
95.120859 100.702 -168.4382
95.810144 100.677 -168.8643
96.504423 100.650 -169.2875
97.203734 100.621 -169.7076
97.908112 100.590 -170.1239
98.617595 100.556 -170.5357
99.332219 100.520 -170.9428
100.052021 100.482 -171.3450
100.777039 100.442 -171.7424
101.507311 100.401 -172.1351
102.242875 100.358 -172.5234
102.983769 100.315 -172.9073
103.730032 100.272 -173.2869
104.481702 100.228 -173.6626
105.238820 100.186 -174.0346
106.001424 100.144 -174.4033
106.769554 100.104 -174.7691
107.543250 100.065 -175.1322
108.322553 100.027 -175.4928
109.107503 99.990 -175.8508
109.898141 99.955 -176.2061
110.694508 99.922 -176.5584
111.496646 99.889 -176.9076
112.304596 99.857 -177.2533
113.118402 99.825 -177.5952
113.938104 99.793 -177.9332
114.763747 99.762 -178.2668
115.595372 99.730 -178.5955
116.433024 99.697 -178.9189
117.276746 99.664 -179.2364
118.126581 99.630 -179.5474
118.982575 99.594 -179.8517
119.844772 99.558 179.8508
120.713217 99.522 179.5594
121.587954 99.484 179.2731
122.469031 99.447 178.9904
123.356492 99.410 178.7098
124.250384 99.373 178.4299
125.150753 99.338 178.1494
126.057647 99.303 177.8672
126.971113 99.270 177.5826
127.891198 99.239 177.2947
128.817950 99.209 177.0032
129.751418 99.180 176.7075
130.691651 99.153 176.4070
131.638696 99.127 176.1012
132.592604 99.102 175.7895
133.553425 99.076 175.4711
134.521208 99.051 175.1450
135.496004 99.024 174.8105
136.477864 98.995 174.4670
137.466839 98.964 174.1144
138.462981 98.928 173.7534
139.466340 98.888 173.3852
140.476971 98.841 173.0125
141.494925 98.788 172.6387
142.520256 98.728 172.2686
143.553016 98.660 171.9080
144.593260 98.585 171.5637
145.641043 98.503 171.2431
146.696418 98.414 170.9539
147.759441 98.320 170.7026
148.830166 98.222 170.4948
149.908651 98.123 170.3340
150.994951 98.023 170.2214
152.089123 97.924 170.1558
153.191223 97.828 170.1341
154.301310 97.736 170.1517
155.419441 97.649 170.2029
156.545674 97.566 170.2823
157.680069 97.488 170.3842
158.822683 97.415 170.5044
159.973578 97.346 170.6391
161.132813 97.281 170.7860
162.300447 97.218 170.9437
163.476543 97.158 171.1117
164.661162 97.100 171.2903
165.854364 97.044 171.4805
167.056213 96.989 171.6839
168.266772 96.936 171.9025
169.486102 96.884 172.1384
170.714268 96.834 172.3936
171.951334 96.787 172.6697
173.197364 96.742 172.9673
174.452424 96.701 173.2865
175.716578 96.663 173.6259
176.989893 96.629 173.9831
178.272434 96.600 174.3549
179.564270 96.576 174.7368
180.865467 96.558 175.1234
182.176092 96.545 175.5088
183.496216 96.538 175.8863
184.825905 96.537 176.2493
186.165229 96.540 176.5912
187.514259 96.548 176.9062
188.873065 96.559 177.1891
190.241717 96.572 177.4358
191.620287 96.587 177.6434
193.008847 96.602 177.8103
194.407468 96.616 177.9361
195.816225 96.629 178.0215
197.235190 96.640 178.0681
198.664438 96.648 178.0784
200.104042 96.653 178.0557
201.554078 96.655 178.0033
203.014622 96.653 177.9248
204.485750 96.649 177.8241
205.967538 96.643 177.7048
207.460064 96.634 177.5707
208.963405 96.625 177.4253
210.477640 96.615 177.2719
212.002848 96.606 177.1133
213.539108 96.598 176.9521
215.086500 96.591 176.7903
216.645105 96.587 176.6293
218.215005 96.586 176.4703
219.796281 96.587 176.3142
221.389015 96.591 176.1616
222.993292 96.598 176.0129
224.609193 96.608 175.8688
226.236804 96.620 175.7293
227.876209 96.635 175.5948
229.527494 96.651 175.4654
231.190745 96.668 175.3412
232.866048 96.687 175.2221
234.553491 96.707 175.1081
236.253163 96.727 174.9990
237.965150 96.748 174.8947
239.689544 96.769 174.7949
241.426433 96.789 174.6994
243.175909 96.809 174.6080
244.938062 96.829 174.5205
246.712984 96.847 174.4368
248.500768 96.863 174.3566
250.301507 96.879 174.2800
252.115295 96.892 174.2068
253.942226 96.905 174.1373
255.782396 96.916 174.0714
257.635901 96.925 174.0090
259.502837 96.934 173.9499
261.383301 96.941 173.8940
263.277392 96.947 173.8412
265.185209 96.953 173.7913
267.106850 96.957 173.7442
269.042417 96.960 173.6999
270.992009 96.962 173.6584
272.955729 96.961 173.6201
274.933678 96.957 173.5850
276.925961 96.951 173.5531
278.932681 96.941 173.5241
280.953942 96.927 173.4976
282.989850 96.910 173.4728
285.040511 96.888 173.4492
287.106032 96.862 173.4261
289.186521 96.831 173.4029
291.282086 96.797 173.3793
293.392836 96.759 173.3547
295.518881 96.718 173.3290
297.660333 96.674 173.3017
299.817302 96.628 173.2726
301.989902 96.579 173.2414
304.178245 96.530 173.2080
306.382446 96.480 173.1724
308.602620 96.429 173.1346
310.838882 96.380 173.0949
313.091348 96.331 173.0537
315.360137 96.284 173.0117
317.645367 96.239 172.9694
319.947156 96.196 172.9276
322.265625 96.157 172.8868
324.600895 96.121 172.8479
326.953086 96.089 172.8116
329.322323 96.062 172.7784
331.708729 96.039 172.7487
334.112427 96.022 172.7231
336.533543 96.009 172.7017
338.972204 96.002 172.6850
341.428536 96.000 172.6731
343.902668 96.003 172.6663
346.394729 96.011 172.6645
348.904848 96.023 172.6676
351.433156 96.038 172.6753
353.979786 96.056 172.6871
356.544869 96.076 172.7023
359.128540 96.097 172.7202
361.730934 96.118 172.7402
364.352185 96.137 172.7614
366.992431 96.155 172.7827
369.651810 96.171 172.8032
372.330459 96.182 172.8222
375.028519 96.190 172.8391
377.746130 96.193 172.8536
380.483434 96.191 172.8655
383.240574 96.184 172.8750
386.017693 96.172 172.8823
388.814937 96.155 172.8878
391.632450 96.134 172.8920
394.470380 96.110 172.8959
397.328875 96.082 172.9004
400.208084 96.053 172.9069
403.108157 96.024 172.9170
406.029245 95.994 172.9325
408.971500 95.967 172.9553
411.935076 95.942 172.9871
414.920127 95.921 173.0287
417.926810 95.905 173.0803
420.955280 95.894 173.1407
424.005695 95.890 173.2078
427.078215 95.891 173.2789
430.173000 95.897 173.3512
433.290211 95.907 173.4225
436.430010 95.920 173.4911
439.592562 95.936 173.5558
442.778031 95.951 173.6163
445.986583 95.967 173.6723
449.218386 95.981 173.7241
452.473607 95.993 173.7718
455.752418 96.002 173.8159
459.054987 96.009 173.8567
462.381489 96.013 173.8945
465.732096 96.015 173.9296
469.106983 96.014 173.9623
472.506325 96.011 173.9928
475.930301 96.006 174.0213
479.379088 96.000 174.0483
482.852867 95.994 174.0743
486.351817 95.986 174.0997
489.876123 95.979 174.1249
493.425968 95.972 174.1501
497.001536 95.966 174.1757
500.603014 95.962 174.2014
504.230589 95.960 174.2272
507.884452 95.962 174.2530
511.564792 95.968 174.2787
515.271802 95.979 174.3040
519.005673 95.996 174.3289
522.766602 96.019 174.3535
526.554785 96.048 174.3776
530.370418 96.084 174.4013
534.213700 96.126 174.4247
538.084833 96.172 174.4479
541.984018 96.222 174.4706
545.911457 96.274 174.4930
549.867357 96.327 174.5149
553.851922 96.380 174.5363
557.865362 96.430 174.5570
561.907884 96.476 174.5771
565.979700 96.516 174.5970
570.081022 96.551 174.6167
574.212064 96.578 174.6367
578.373042 96.596 174.6575
582.564171 96.606 174.6797
586.785671 96.606 174.7038
591.037762 96.596 174.7302
595.320665 96.575 174.7596
599.634604 96.545 174.7924
603.979804 96.506 174.8290
608.356491 96.458 174.8696
612.764893 96.402 174.9141
617.205240 96.340 174.9620
621.677763 96.273 175.0125
626.182696 96.204 175.0645
630.720274 96.135 175.1163
635.290733 96.066 175.1667
639.894312 96.000 175.2148
644.531250 95.938 175.2599
649.201789 95.882 175.3021
653.906173 95.833 175.3416
658.644647 95.791 175.3789
663.417457 95.757 175.4146
668.224854 95.732 175.4492
673.067086 95.716 175.4832
677.944408 95.709 175.5170
682.857073 95.711 175.5510
687.805336 95.721 175.5856
692.789457 95.741 175.6211
697.809695 95.768 175.6581
702.866312 95.803 175.6969
707.959571 95.844 175.7374
713.089738 95.890 175.7791
718.257080 95.940 175.8205
723.461867 95.993 175.8598
728.704370 96.047 175.8951
733.984862 96.100 175.9247
739.303619 96.152 175.9471
744.660918 96.201 175.9613
750.057038 96.246 175.9667
755.492260 96.287 175.9633
760.966869 96.324 175.9511
766.481148 96.357 175.9308
772.035387 96.387 175.9034
777.629873 96.413 175.8703
783.264900 96.435 175.8327
788.940760 96.454 175.7921
794.657750 96.469 175.7495
800.416168 96.479 175.7053
806.216313 96.484 175.6595
812.058489 96.482 175.6115
817.943000 96.475 175.5607
823.870152 96.460 175.5061
829.840255 96.437 175.4469
835.853619 96.409 175.3824
841.910559 96.374 175.3123
848.011390 96.335 175.2361
854.156430 96.293 175.1535
860.346000 96.250 175.0642
866.580422 96.210 174.9678
872.860020 96.175 174.8636
879.185124 96.146 174.7512
885.556062 96.126 174.6295
891.973166 96.115 174.4981
898.436771 96.116 174.3565
904.947215 96.127 174.2045
911.504835 96.148 174.0422
918.109975 96.178 173.8704
924.762978 96.216 173.6897
931.464192 96.260 173.5008
938.213966 96.308 173.3044
945.012651 96.358 173.1007
951.860602 96.409 172.8900
958.758176 96.458 172.6724
965.705733 96.505 172.4481
972.703635 96.548 172.2181
979.752246 96.587 171.9843
986.851935 96.620 171.7493
994.003071 96.649 171.5164
1001.206027 96.673 171.2883
1008.461179 96.694 171.0670
1015.768904 96.713 170.8537
1023.129584 96.731 170.6481
1030.543603 96.751 170.4490
1038.011347 96.772 170.2548
1045.533205 96.797 170.0637
1053.109569 96.827 169.8741
1060.740836 96.860 169.6849
1068.427401 96.899 169.4958
1076.169666 96.941 169.3071
1083.968035 96.986 169.1189
1091.822915 97.033 168.9317
1099.734713 97.081 168.7455
1107.703844 97.128 168.5599
1115.730723 97.173 168.3743
1123.815768 97.214 168.1879
1131.959400 97.250 168.0002
1140.162045 97.281 167.8107
1148.424129 97.305 167.6193
1156.746083 97.323 167.4262
1165.128342 97.334 167.2320
1173.571343 97.341 167.0374
1182.075524 97.343 166.8432
1190.641331 97.343 166.6504
1199.269209 97.341 166.4601
1207.959608 97.340 166.2735
1216.712981 97.340 166.0914
1225.529785 97.344 165.9146
1234.410479 97.350 165.7435
1243.355526 97.362 165.5785
1252.365393 97.377 165.4197
1261.440549 97.398 165.2672
1270.581467 97.422 165.1212
1279.788624 97.451 164.9815
1289.062500 97.482 164.8475
1298.403578 97.515 164.7183
1307.812346 97.550 164.5929
1317.289293 97.584 164.4708
1326.834914 97.617 164.3526
1336.449707 97.647 164.2399
1346.134173 97.675 164.1350
1355.888816 97.699 164.0403
1365.714145 97.718 163.9576
1375.610673 97.734 163.8873
1385.578915 97.745 163.8289
1395.619391 97.753 163.7817
1405.732624 97.756 163.7446
1415.919142 97.756 163.7169
1426.179476 97.752 163.6981
1436.514160 97.744 163.6881
1446.923734 97.733 163.6870
1457.408740 97.720 163.6945
1467.969724 97.704 163.7096
1478.607238 97.686 163.7311
1489.321836 97.665 163.7572
1500.114076 97.641 163.7865
1510.984521 97.614 163.8188
1521.933737 97.583 163.8558
1532.962297 97.547 163.9008
1544.070773 97.505 163.9582
1555.259747 97.459 164.0330
1566.529800 97.408 164.1291
1577.881521 97.353 164.2493
1589.315501 97.294 164.3951
1600.832336 97.235 164.5662
1612.432627 97.174 164.7618
1624.116978 97.114 164.9804
1635.886000 97.055 165.2204
1647.740304 96.997 165.4804
1659.680509 96.941 165.7596
1671.707238 96.887 166.0577
1683.821118 96.835 166.3747
1696.022780 96.786 166.7108
1708.312860 96.739 167.0662
1720.692000 96.695 167.4407
1733.160843 96.654 167.8335
1745.720041 96.617 168.2429
1758.370248 96.585 168.6660
1771.112124 96.559 169.0996
1783.946332 96.540 169.5405
1796.873543 96.526 169.9863
1809.894429 96.520 170.4352
1823.009670 96.519 170.8855
1836.219950 96.525 171.3355
1849.525956 96.536 171.7844
1862.928384 96.551 172.2320
1876.427931 96.571 172.6790
1890.025301 96.593 173.1256
1903.721204 96.619 173.5706
1917.516352 96.648 174.0103
1931.411466 96.680 174.4387
1945.407270 96.715 174.8487
1959.504493 96.752 175.2334
1973.703870 96.791 175.5869
1988.006142 96.833 175.9041
2002.412054 96.877 176.1812
2016.922357 96.923 176.4154
2031.537808 96.971 176.6050
2046.259169 97.021 176.7498
2061.087206 97.074 176.8507
2076.022694 97.128 176.9092
2091.066410 97.184 176.9277
2106.219139 97.243 176.9086
2121.481671 97.305 176.8547
2136.854802 97.369 176.7686
2152.339333 97.436 176.6520
2167.936071 97.507 176.5053
2183.645829 97.581 176.3286
2199.469427 97.658 176.1216
2215.407689 97.738 175.8848
2231.461446 97.821 175.6195
2247.631536 97.906 175.3277
2263.918800 97.993 175.0116
2280.324089 98.082 174.6740
2296.848258 98.171 174.3184
2313.492167 98.261 173.9496
2330.256685 98.351 173.5726
2347.142685 98.440 173.1924
2364.151049 98.529 172.8136
2381.282662 98.616 172.4398
2398.538418 98.702 172.0745
2415.919216 98.786 171.7195
2433.425962 98.867 171.3751
2451.059570 98.947 171.0402
2468.820958 99.023 170.7125
2486.711052 99.095 170.3893
2504.730786 99.161 170.0687
2522.881098 99.222 169.7491
2541.162934 99.275 169.4303
2559.577248 99.320 169.1136
2578.125000 99.355 168.8011
2596.807157 99.380 168.4958
2615.624692 99.395 168.2011
2634.578586 99.399 167.9203
2653.669829 99.392 167.6570
2672.899414 99.374 167.4140
2692.268345 99.346 167.1941
2711.777632 99.307 166.9988
2731.428290 99.259 166.8294
2751.221345 99.201 166.6869
2771.157829 99.133 166.5725
2791.238781 99.057 166.4884
2811.465248 98.972 166.4378
2831.838284 98.878 166.4252
2852.358952 98.776 166.4561
2873.028321 98.666 166.5366
2893.847468 98.550 166.6722
2914.817480 98.429 166.8680
2935.939449 98.303 167.1280
2957.214476 98.175 167.4549
2978.643672 98.046 167.8501
3000.228152 97.918 168.3133
3021.969041 97.793 168.8417
3043.867475 97.673 169.4305
3065.924593 97.560 170.0720
3088.141547 97.456 170.7565
3110.519493 97.362 171.4724
3133.059600 97.281 172.2058
3155.763041 97.213 172.9414
3178.631001 97.159 173.6625
3201.664672 97.118 174.3522
3224.865254 97.091 174.9938
3248.233957 97.075 175.5726
3271.771999 97.070 176.0771
3295.480608 97.073 176.5001
3319.361019 97.082 176.8395
3343.414477 97.094 177.0988
3367.642236 97.106 177.2867
3392.045560 97.119 177.4161
3416.625721 97.129 177.5027
3441.383999 97.138 177.5626
3466.321686 97.145 177.6115
