* Measurement data measured by REW V5.31.3
* Source: EXCL: Headset (USB-C to 3.5mm Headphone Jack Adapter), MICROPHONE (Master Volume), 0, volume: 0.260
* Format: 256k Log Swept Sine, 1 sweep at -12.0 dBFS with no timing reference
* Dated: Mar 7, 2025 11:54:01 AM
* REW Settings:
*  C-weighting compensation: Off
*  Target level: 75.0 dB
* Note: ; 
* Measurement: Massive Mod V1 L6
* Smoothing: 1/6 octave
* Frequency Step: 96 ppo
* Start Frequency: 20.0 Hz
*
* Freq(Hz) SPL(dB) Phase(degrees)
20.141602 92.321 -33.0447
20.287556 92.336 -33.2422
20.434568 92.355 -33.5073
20.582645 92.379 -33.8337
20.731796 92.406 -34.2150
20.882027 92.437 -34.6454
21.033346 92.470 -35.1198
21.185763 92.506 -35.6339
21.339284 92.544 -36.1844
21.493917 92.584 -36.7683
21.649671 92.625 -37.3832
21.806553 92.668 -38.0266
21.964572 92.714 -38.6959
22.123737 92.761 -39.3881
22.284054 92.810 -40.1002
22.445534 92.861 -40.8285
22.608183 92.914 -41.5688
22.772012 92.969 -42.3170
22.937027 93.026 -43.0682
23.103238 93.085 -43.8180
23.270654 93.145 -44.5618
23.439282 93.207 -45.2957
23.609133 93.271 -46.0162
23.780215 93.336 -46.7209
23.952536 93.403 -47.4087
24.126106 93.471 -48.0794
24.300934 93.541 -48.7344
24.477028 93.612 -49.3760
24.654399 93.684 -50.0073
24.833055 93.758 -50.6323
25.013005 93.833 -51.2547
25.194260 93.909 -51.8782
25.376828 93.985 -52.5060
25.560719 94.062 -53.1403
25.745942 94.138 -53.7824
25.932508 94.214 -54.4329
26.120426 94.290 -55.0918
26.309705 94.365 -55.7585
26.500356 94.440 -56.4326
26.692388 94.515 -57.1135
26.885812 94.590 -57.8009
27.080638 94.665 -58.4949
27.276876 94.739 -59.1952
27.474535 94.812 -59.9017
27.673627 94.884 -60.6137
27.874161 94.954 -61.3297
28.076149 95.022 -62.0479
28.279600 95.087 -62.7657
28.484526 95.148 -63.4806
28.690937 95.207 -64.1905
28.898843 95.263 -64.8943
29.108256 95.316 -65.5921
29.319186 95.368 -66.2860
29.531645 95.420 -66.9794
29.745644 95.471 -67.6767
29.961193 95.523 -68.3826
30.178304 95.575 -69.1011
30.396989 95.628 -69.8343
30.617258 95.681 -70.5823
30.839123 95.735 -71.3423
31.062596 95.789 -72.1096
31.287688 95.842 -72.8775
31.514412 95.897 -73.6386
31.742778 95.952 -74.3859
31.972800 96.009 -75.1137
32.204488 96.069 -75.8177
32.437855 96.132 -76.4962
32.672913 96.198 -77.1490
32.909674 96.269 -77.7776
33.148151 96.342 -78.3848
33.388356 96.420 -78.9740
33.630302 96.500 -79.5492
33.874001 96.583 -80.1148
34.119466 96.668 -80.6757
34.366710 96.755 -81.2371
34.615745 96.843 -81.8041
34.866585 96.931 -82.3812
35.119243 97.019 -82.9719
35.373731 97.104 -83.5776
35.630064 97.187 -84.1971
35.888254 97.266 -84.8272
36.148315 97.340 -85.4626
36.410261 97.409 -86.0974
36.674104 97.473 -86.7263
36.939860 97.533 -87.3455
37.207542 97.588 -87.9538
37.477163 97.640 -88.5528
37.748738 97.688 -89.1464
38.022281 97.733 -89.7396
38.297806 97.775 -90.3375
38.575327 97.813 -90.9445
38.854860 97.848 -91.5631
39.136419 97.879 -92.1940
39.420017 97.908 -92.8365
39.705671 97.933 -93.4890
39.993395 97.956 -94.1498
40.283203 97.978 -94.8177
40.575112 97.999 -95.4923
40.869136 98.020 -96.1738
41.165290 98.042 -96.8634
41.463591 98.066 -97.5622
41.764053 98.090 -98.2718
42.066693 98.117 -98.9930
42.371525 98.145 -99.7264
42.678567 98.176 -100.4720
42.987834 98.209 -101.2288
43.299341 98.243 -101.9952
43.613106 98.280 -102.7689
43.929145 98.318 -103.5471
44.247473 98.357 -104.3272
44.568109 98.397 -105.1069
44.891068 98.438 -105.8846
45.216367 98.479 -106.6595
45.544023 98.520 -107.4314
45.874054 98.561 -108.2006
46.206476 98.601 -108.9674
46.541307 98.641 -109.7323
46.878565 98.681 -110.4951
47.218266 98.721 -111.2560
47.560429 98.762 -112.0148
47.905072 98.804 -112.7716
48.252212 98.847 -113.5267
48.601867 98.891 -114.2804
48.954056 98.934 -115.0331
49.308798 98.978 -115.7851
49.666109 99.022 -116.5366
50.026010 99.064 -117.2876
50.388520 99.105 -118.0385
50.753656 99.144 -118.7894
51.121437 99.181 -119.5407
51.491884 99.216 -120.2930
51.865016 99.249 -121.0467
52.240851 99.279 -121.8019
52.619410 99.306 -122.5582
53.000712 99.330 -123.3149
53.384777 99.352 -124.0708
53.771625 99.371 -124.8244
54.161276 99.388 -125.5743
54.553751 99.403 -126.3192
54.949070 99.416 -127.0580
55.347254 99.428 -127.7899
55.748323 99.438 -128.5142
56.152298 99.448 -129.2304
56.559201 99.458 -129.9381
56.969052 99.470 -130.6366
57.381873 99.482 -131.3253
57.797686 99.496 -132.0043
58.216512 99.510 -132.6747
58.638373 99.524 -133.3393
59.063291 99.538 -134.0022
59.491288 99.548 -134.6679
59.922386 99.555 -135.3402
60.356608 99.557 -136.0216
60.793977 99.554 -136.7124
61.234515 99.546 -137.4116
61.678246 99.536 -138.1167
62.125192 99.524 -138.8248
62.575377 99.511 -139.5324
63.028824 99.498 -140.2359
63.485557 99.484 -140.9321
63.945599 99.470 -141.6188
64.408975 99.455 -142.2948
64.875709 99.440 -142.9602
65.345825 99.423 -143.6158
65.819348 99.405 -144.2627
66.296302 99.387 -144.9023
66.776713 99.367 -145.5355
67.260604 99.346 -146.1632
67.748002 99.325 -146.7858
68.238932 99.303 -147.4035
68.733420 99.282 -148.0163
69.231490 99.260 -148.6243
69.733170 99.239 -149.2273
70.238485 99.218 -149.8252
70.747463 99.197 -150.4176
71.260128 99.176 -151.0045
71.776508 99.155 -151.5855
72.296630 99.133 -152.1604
72.820521 99.112 -152.7291
73.348209 99.090 -153.2910
73.879720 99.068 -153.8457
74.415083 99.045 -154.3930
74.954326 99.022 -154.9326
75.497475 98.998 -155.4644
76.044561 98.974 -155.9885
76.595612 98.950 -156.5050
77.150655 98.925 -157.0142
77.709720 98.899 -157.5168
78.272837 98.874 -158.0134
78.840034 98.847 -158.5047
79.411342 98.821 -158.9913
79.986789 98.793 -159.4732
80.566406 98.766 -159.9505
81.150224 98.737 -160.4230
81.738272 98.709 -160.8907
82.330581 98.679 -161.3534
82.927182 98.650 -161.8110
83.528107 98.620 -162.2634
84.133386 98.590 -162.7107
84.743051 98.560 -163.1527
85.357134 98.529 -163.5898
85.975667 98.499 -164.0223
86.598682 98.470 -164.4503
87.226212 98.441 -164.8743
87.858289 98.412 -165.2944
88.494946 98.384 -165.7103
89.136217 98.358 -166.1219
89.782135 98.332 -166.5288
90.432733 98.307 -166.9302
91.088046 98.283 -167.3253
91.748108 98.259 -167.7135
92.412952 98.237 -168.0939
93.082615 98.214 -168.4662
93.757130 98.192 -168.8301
94.436533 98.169 -169.1863
95.120859 98.145 -169.5357
95.810144 98.120 -169.8796
96.504423 98.094 -170.2192
97.203734 98.066 -170.5555
97.908112 98.036 -170.8890
98.617595 98.005 -171.2200
99.332219 97.971 -171.5488
100.052021 97.936 -171.8754
100.777039 97.899 -172.2000
101.507311 97.861 -172.5227
102.242875 97.822 -172.8433
102.983769 97.782 -173.1610
103.730032 97.743 -173.4747
104.481702 97.703 -173.7828
105.238820 97.664 -174.0841
106.001424 97.626 -174.3777
106.769554 97.588 -174.6634
107.543250 97.551 -174.9414
108.322553 97.516 -175.2124
109.107503 97.482 -175.4773
109.898141 97.449 -175.7375
110.694508 97.417 -175.9940
111.496646 97.387 -176.2482
112.304596 97.357 -176.5013
113.118402 97.328 -176.7545
113.938104 97.300 -177.0087
114.763747 97.271 -177.2652
115.595372 97.242 -177.5247
116.433024 97.213 -177.7875
117.276746 97.183 -178.0530
118.126581 97.152 -178.3199
118.982575 97.120 -178.5860
119.844772 97.088 -178.8490
120.713217 97.056 -179.1071
121.587954 97.024 -179.3591
122.469031 96.991 -179.6044
123.356492 96.959 -179.8430
124.250384 96.927 179.9247
125.150753 96.894 179.6980
126.057647 96.862 179.4764
126.971113 96.830 179.2590
127.891198 96.798 179.0452
128.817950 96.767 178.8347
129.751418 96.737 178.6274
130.691651 96.707 178.4240
131.638696 96.678 178.2252
132.592604 96.650 178.0318
133.553425 96.621 177.8451
134.521208 96.592 177.6661
135.496004 96.562 177.4960
136.477864 96.531 177.3352
137.466839 96.499 177.1839
138.462981 96.465 177.0419
139.466340 96.429 176.9084
140.476971 96.391 176.7825
141.494925 96.352 176.6634
142.520256 96.312 176.5501
143.553016 96.271 176.4417
144.593260 96.229 176.3371
145.641043 96.186 176.2350
146.696418 96.143 176.1341
147.759441 96.099 176.0334
148.830166 96.056 175.9326
149.908651 96.012 175.8320
150.994951 95.969 175.7330
152.089123 95.927 175.6376
153.191223 95.884 175.5479
154.301310 95.843 175.4660
155.419441 95.802 175.3941
156.545674 95.761 175.3342
157.680069 95.722 175.2882
158.822683 95.683 175.2581
159.973578 95.644 175.2454
161.132813 95.608 175.2510
162.300447 95.572 175.2750
163.476543 95.538 175.3165
164.661162 95.507 175.3737
165.854364 95.477 175.4448
167.056213 95.451 175.5276
168.266772 95.427 175.6196
169.486102 95.406 175.7180
170.714268 95.387 175.8198
171.951334 95.372 175.9220
173.197364 95.360 176.0212
174.452424 95.351 176.1144
175.716578 95.344 176.1986
176.989893 95.338 176.2711
178.272434 95.335 176.3298
179.564270 95.332 176.3730
180.865467 95.329 176.3995
182.176092 95.327 176.4086
183.496216 95.323 176.4000
184.825905 95.319 176.3737
186.165229 95.313 176.3301
187.514259 95.305 176.2700
188.873065 95.294 176.1943
190.241717 95.281 176.1042
191.620287 95.265 176.0009
193.008847 95.246 175.8857
194.407468 95.223 175.7603
195.816225 95.197 175.6263
197.235190 95.167 175.4852
198.664438 95.134 175.3388
200.104042 95.098 175.1887
201.554078 95.060 175.0366
203.014622 95.020 174.8846
204.485750 94.979 174.7351
205.967538 94.937 174.5901
207.460064 94.896 174.4513
208.963405 94.855 174.3199
210.477640 94.816 174.1966
212.002848 94.778 174.0814
213.539108 94.744 173.9741
215.086500 94.714 173.8744
216.645105 94.687 173.7819
218.215005 94.665 173.6962
219.796281 94.647 173.6166
221.389015 94.634 173.5425
222.993292 94.625 173.4731
224.609193 94.621 173.4075
226.236804 94.620 173.3449
227.876209 94.623 173.2847
229.527494 94.629 173.2263
231.190745 94.636 173.1693
232.866048 94.646 173.1136
234.553491 94.658 173.0591
236.253163 94.670 173.0057
237.965150 94.684 172.9539
239.689544 94.698 172.9039
241.426433 94.712 172.8561
243.175909 94.726 172.8110
244.938062 94.740 172.7685
246.712984 94.753 172.7287
248.500768 94.765 172.6913
250.301507 94.776 172.6561
252.115295 94.785 172.6223
253.942226 94.794 172.5892
255.782396 94.802 172.5561
257.635901 94.809 172.5225
259.502837 94.816 172.4885
261.383301 94.822 172.4546
263.277392 94.828 172.4217
265.185209 94.833 172.3905
267.106850 94.837 172.3616
269.042417 94.840 172.3351
270.992009 94.841 172.3107
272.955729 94.839 172.2878
274.933678 94.834 172.2655
276.925961 94.825 172.2432
278.932681 94.812 172.2202
280.953942 94.795 172.1964
282.989850 94.774 172.1722
285.040511 94.749 172.1488
287.106032 94.719 172.1278
289.186521 94.685 172.1111
291.282086 94.646 172.1002
293.392836 94.604 172.0958
295.518881 94.559 172.0981
297.660333 94.510 172.1061
299.817302 94.459 172.1184
301.989902 94.406 172.1336
304.178245 94.353 172.1503
306.382446 94.299 172.1676
308.602620 94.245 172.1848
310.838882 94.193 172.2014
313.091348 94.142 172.2175
315.360137 94.094 172.2328
317.645367 94.048 172.2473
319.947156 94.007 172.2608
322.265625 93.969 172.2729
324.600895 93.937 172.2834
326.953086 93.909 172.2921
329.322323 93.886 172.2990
331.708729 93.869 172.3041
334.112427 93.857 172.3076
336.533543 93.851 172.3092
338.972204 93.850 172.3090
341.428536 93.855 172.3066
343.902668 93.865 172.3025
346.394729 93.880 172.2969
348.904848 93.899 172.2908
351.433156 93.921 172.2855
353.979786 93.945 172.2824
356.544869 93.970 172.2831
359.128540 93.996 172.2886
361.730934 94.020 172.2994
364.352185 94.042 172.3150
366.992431 94.062 172.3345
369.651810 94.078 172.3564
372.330459 94.090 172.3794
375.028519 94.098 172.4023
377.746130 94.101 172.4242
380.483434 94.100 172.4446
383.240574 94.093 172.4632
386.017693 94.082 172.4797
388.814937 94.067 172.4945
391.632450 94.048 172.5079
394.470380 94.026 172.5207
397.328875 94.003 172.5335
400.208084 93.978 172.5472
403.108157 93.953 172.5628
406.029245 93.930 172.5813
408.971500 93.909 172.6035
411.935076 93.891 172.6299
414.920127 93.876 172.6603
417.926810 93.866 172.6939
420.955280 93.860 172.7299
424.005695 93.859 172.7671
427.078215 93.861 172.8049
430.173000 93.868 172.8428
433.290211 93.877 172.8807
436.430010 93.888 172.9188
439.592562 93.901 172.9574
442.778031 93.914 172.9970
445.986583 93.927 173.0381
449.218386 93.939 173.0808
452.473607 93.950 173.1251
455.752418 93.958 173.1706
459.054987 93.964 173.2166
462.381489 93.969 173.2624
465.732096 93.971 173.3075
469.106983 93.971 173.3513
472.506325 93.971 173.3934
475.930301 93.969 173.4335
479.379088 93.967 173.4717
482.852867 93.964 173.5080
486.351817 93.961 173.5423
489.876123 93.959 173.5747
493.425968 93.957 173.6050
497.001536 93.957 173.6330
500.603014 93.959 173.6588
504.230589 93.963 173.6822
507.884452 93.971 173.7032
511.564792 93.984 173.7219
515.271802 94.001 173.7382
519.005673 94.024 173.7521
522.766602 94.053 173.7637
526.554785 94.089 173.7732
530.370418 94.130 173.7807
534.213700 94.177 173.7865
538.084833 94.228 173.7909
541.984018 94.283 173.7941
545.911457 94.340 173.7964
549.867357 94.397 173.7983
553.851922 94.454 173.8000
557.865362 94.509 173.8016
561.907884 94.560 173.8036
565.979700 94.606 173.8058
570.081022 94.646 173.8080
574.212064 94.680 173.8104
578.373042 94.705 173.8125
582.564171 94.722 173.8141
586.785671 94.730 173.8150
591.037762 94.728 173.8146
595.320665 94.717 173.8124
599.634604 94.697 173.8079
603.979804 94.667 173.8007
608.356491 94.628 173.7904
612.764893 94.582 173.7771
617.205240 94.529 173.7609
621.677763 94.472 173.7419
626.182696 94.411 173.7202
630.720274 94.350 173.6956
635.290733 94.288 173.6680
639.894312 94.230 173.6372
644.531250 94.175 173.6029
649.201789 94.125 173.5651
653.906173 94.083 173.5239
658.644647 94.047 173.4794
663.417457 94.020 173.4318
668.224854 94.002 173.3810
673.067086 93.992 173.3269
677.944408 93.992 173.2692
682.857073 94.001 173.2076
687.805336 94.018 173.1416
692.789457 94.044 173.0707
697.809695 94.077 172.9948
702.866312 94.117 172.9135
707.959571 94.161 172.8274
713.089738 94.210 172.7368
718.257080 94.261 172.6426
723.461867 94.312 172.5457
728.704370 94.363 172.4471
733.984862 94.411 172.3480
739.303619 94.457 172.2488
744.660918 94.499 172.1495
750.057038 94.538 172.0495
755.492260 94.572 171.9474
760.966869 94.603 171.8414
766.481148 94.631 171.7300
772.035387 94.655 171.6121
777.629873 94.676 171.4872
783.264900 94.693 171.3552
788.940760 94.707 171.2169
794.657750 94.717 171.0730
800.416168 94.722 170.9245
806.216313 94.721 170.7721
812.058489 94.714 170.6159
817.943000 94.700 170.4558
823.870152 94.678 170.2913
829.840255 94.649 170.1219
835.853619 94.612 169.9473
841.910559 94.569 169.7672
848.011390 94.520 169.5814
854.156430 94.468 169.3896
860.346000 94.415 169.1918
866.580422 94.363 168.9878
872.860020 94.313 168.7780
879.185124 94.269 168.5629
885.556062 94.233 168.3434
891.973166 94.205 168.1206
898.436771 94.187 167.8955
904.947215 94.179 167.6690
911.504835 94.181 167.4421
918.109975 94.192 167.2154
924.762978 94.211 166.9893
931.464192 94.237 166.7639
938.213966 94.268 166.5389
945.012651 94.302 166.3131
951.860602 94.339 166.0854
958.758176 94.375 165.8543
965.705733 94.410 165.6186
972.703635 94.444 165.3774
979.752246 94.473 165.1309
986.851935 94.499 164.8791
994.003071 94.522 164.6231
1001.206027 94.541 164.3637
1008.461179 94.556 164.1019
1015.768904 94.570 163.8385
1023.129584 94.583 163.5737
1030.543603 94.596 163.3076
1038.011347 94.611 163.0401
1045.533205 94.628 162.7714
1053.109569 94.647 162.5017
1060.740836 94.670 162.2318
1068.427401 94.696 161.9626
1076.169666 94.725 161.6953
1083.968035 94.757 161.4309
1091.822915 94.789 161.1700
1099.734713 94.822 160.9128
1107.703844 94.853 160.6591
1115.730723 94.882 160.4087
1123.815768 94.906 160.1616
1131.959400 94.924 159.9189
1140.162045 94.936 159.6816
1148.424129 94.942 159.4516
1156.746083 94.941 159.2300
1165.128342 94.934 159.0179
1173.571343 94.922 158.8156
1182.075524 94.907 158.6225
1190.641331 94.890 158.4382
1199.269209 94.873 158.2616
1207.959608 94.857 158.0914
1216.712981 94.844 157.9257
1225.529785 94.835 157.7628
1234.410479 94.831 157.6008
1243.355526 94.832 157.4380
1252.365393 94.837 157.2735
1261.440549 94.847 157.1071
1270.581467 94.861 156.9393
1279.788624 94.878 156.7712
1289.062500 94.897 156.6048
1298.403578 94.917 156.4421
1307.812346 94.938 156.2853
1317.289293 94.957 156.1362
1326.834914 94.975 155.9966
1336.449707 94.990 155.8685
1346.134173 95.003 155.7537
1355.888816 95.012 155.6536
1365.714145 95.017 155.5685
1375.610673 95.019 155.4980
1385.578915 95.016 155.4415
1395.619391 95.010 155.3983
1405.732624 95.000 155.3679
1415.919142 94.985 155.3497
1426.179476 94.968 155.3433
1436.514160 94.947 155.3477
1446.923734 94.924 155.3619
1457.408740 94.898 155.3853
1467.969724 94.869 155.4171
1478.607238 94.838 155.4569
1489.321836 94.805 155.5045
1500.114076 94.770 155.5600
1510.984521 94.732 155.6239
1521.933737 94.690 155.6975
1532.962297 94.646 155.7822
1544.070773 94.598 155.8790
1555.259747 94.547 155.9878
1566.529800 94.493 156.1072
1577.881521 94.438 156.2352
1589.315501 94.380 156.3696
1600.832336 94.320 156.5100
1612.432627 94.258 156.6577
1624.116978 94.195 156.8159
1635.886000 94.131 156.9889
1647.740304 94.065 157.1811
1659.680509 94.000 157.3967
1671.707238 93.935 157.6383
1683.821118 93.871 157.9077
1696.022780 93.809 158.2051
1708.312860 93.750 158.5295
1720.692000 93.694 158.8778
1733.160843 93.642 159.2447
1745.720041 93.596 159.6234
1758.370248 93.555 160.0071
1771.112124 93.520 160.3900
1783.946332 93.492 160.7685
1796.873543 93.468 161.1407
1809.894429 93.451 161.5060
1823.009670 93.438 161.8648
1836.219950 93.429 162.2181
1849.525956 93.424 162.5679
1862.928384 93.421 162.9164
1876.427931 93.421 163.2657
1890.025301 93.422 163.6163
1903.721204 93.426 163.9670
1917.516352 93.430 164.3140
1931.411466 93.436 164.6523
1945.407270 93.442 164.9766
1959.504493 93.449 165.2820
1973.703870 93.457 165.5649
1988.006142 93.464 165.8224
2002.412054 93.472 166.0524
2016.922357 93.480 166.2539
2031.537808 93.489 166.4270
2046.259169 93.498 166.5730
2061.087206 93.509 166.6930
2076.022694 93.522 166.7875
2091.066410 93.537 166.8564
2106.219139 93.554 166.9004
2121.481671 93.574 166.9211
2136.854802 93.596 166.9208
2152.339333 93.620 166.9019
2167.936071 93.648 166.8664
2183.645829 93.678 166.8165
2199.469427 93.712 166.7547
2215.407689 93.749 166.6842
2231.461446 93.789 166.6078
2247.631536 93.833 166.5279
2263.918800 93.881 166.4461
2280.324089 93.933 166.3639
2296.848258 93.990 166.2822
2313.492167 94.050 166.2020
2330.256685 94.114 166.1244
2347.142685 94.181 166.0508
2364.151049 94.250 165.9835
2381.282662 94.321 165.9249
2398.538418 94.394 165.8775
2415.919216 94.467 165.8430
2433.425962 94.541 165.8218
2451.059570 94.615 165.8130
2468.820958 94.689 165.8146
2486.711052 94.761 165.8234
2504.730786 94.832 165.8354
2522.881098 94.900 165.8465
2541.162934 94.964 165.8526
2559.577248 95.024 165.8502
2578.125000 95.077 165.8364
2596.807157 95.123 165.8099
2615.624692 95.160 165.7709
2634.578586 95.188 165.7210
2653.669829 95.205 165.6639
2672.899414 95.211 165.6045
2692.268345 95.206 165.5493
2711.777632 95.188 165.5055
2731.428290 95.159 165.4804
2751.221345 95.119 165.4813
2771.157829 95.068 165.5144
2791.238781 95.008 165.5851
2811.465248 94.939 165.6975
2831.838284 94.863 165.8542
2852.358952 94.780 166.0574
2873.028321 94.692 166.3089
2893.847468 94.599 166.6105
2914.817480 94.502 166.9640
2935.939449 94.404 167.3713
2957.214476 94.303 167.8345
2978.643672 94.204 168.3543
3000.228152 94.105 168.9304
3021.969041 94.011 169.5603
3043.867475 93.922 170.2392
3065.924593 93.840 170.9594
3088.141547 93.767 171.7108
3110.519493 93.705 172.4814
3133.059600 93.653 173.2585
3155.763041 93.613 174.0291
3178.631001 93.584 174.7819
3201.664672 93.566 175.5068
3224.865254 93.559 176.1967
3248.233957 93.560 176.8468
3271.771999 93.570 177.4554
3295.480608 93.588 178.0234
3319.361019 93.613 178.5546
3343.414477 93.646 179.0546
3367.642236 93.685 179.5309
3392.045560 93.732 179.9908
3416.625721 93.789 -179.5598
3441.383999 93.858 -179.1180
3466.321686 93.939 -178.6862
3491.440082 94.035 -178.2723
3516.740496 94.148 -177.8905
3542.224247 94.277 -177.5603
3567.892664 94.422 -177.3042
