* Measurement data measured by REW V5.31.3
* Source: EXCL: Headset (USB-C to 3.5mm Headphone Jack Adapter), MICROPHONE (Master Volume), 0, volume: 0.260
* Format: 256k Log Swept Sine, 1 sweep at -12.0 dBFS with no timing reference
* Dated: Feb 19, 2025 7:45:05 PM
* REW Settings:
*  C-weighting compensation: Off
*  Target level: 75.0 dB
* Note: ; 
* Measurement: Satyr 3 L4
* Smoothing: 1/6 octave
* Frequency Step: 96 ppo
* Start Frequency: 20.0 Hz
*
* Freq(Hz) SPL(dB) Phase(degrees)
20.141602 93.686 -29.3530
20.287556 93.700 -29.5610
20.434568 93.719 -29.8382
20.582645 93.742 -30.1753
20.731796 93.769 -30.5625
20.882027 93.799 -30.9901
21.033346 93.831 -31.4495
21.185763 93.866 -31.9331
21.339284 93.903 -32.4349
21.493917 93.943 -32.9507
21.649671 93.986 -33.4773
21.806553 94.032 -34.0135
21.964572 94.082 -34.5586
22.123737 94.136 -35.1133
22.284054 94.193 -35.6787
22.445534 94.254 -36.2559
22.608183 94.319 -36.8462
22.772012 94.387 -37.4501
22.937027 94.458 -38.0675
23.103238 94.530 -38.6974
23.270654 94.604 -39.3380
23.439282 94.678 -39.9867
23.609133 94.752 -40.6403
23.780215 94.826 -41.2957
23.952536 94.898 -41.9497
24.126106 94.970 -42.5995
24.300934 95.040 -43.2433
24.477028 95.110 -43.8799
24.654399 95.179 -44.5091
24.833055 95.248 -45.1314
25.013005 95.317 -45.7478
25.194260 95.387 -46.3597
25.376828 95.458 -46.9686
25.560719 95.530 -47.5758
25.745942 95.604 -48.1822
25.932508 95.681 -48.7884
26.120426 95.761 -49.3946
26.309705 95.844 -50.0010
26.500356 95.931 -50.6076
26.692388 96.022 -51.2146
26.885812 96.117 -51.8223
27.080638 96.216 -52.4312
27.276876 96.318 -53.0420
27.474535 96.423 -53.6557
27.673627 96.529 -54.2731
27.874161 96.636 -54.8948
28.076149 96.743 -55.5213
28.279600 96.847 -56.1527
28.484526 96.948 -56.7892
28.690937 97.044 -57.4303
28.898843 97.136 -58.0757
29.108256 97.222 -58.7249
29.319186 97.302 -59.3773
29.531645 97.377 -60.0322
29.745644 97.447 -60.6886
29.961193 97.513 -61.3459
30.178304 97.576 -62.0031
30.396989 97.637 -62.6595
30.617258 97.698 -63.3143
30.839123 97.758 -63.9674
31.062596 97.821 -64.6186
31.287688 97.886 -65.2684
31.514412 97.953 -65.9173
31.742778 98.025 -66.5658
31.972800 98.099 -67.2145
32.204488 98.177 -67.8637
32.437855 98.259 -68.5133
32.672913 98.343 -69.1629
32.909674 98.430 -69.8123
33.148151 98.520 -70.4611
33.388356 98.611 -71.1096
33.630302 98.705 -71.7585
33.874001 98.800 -72.4093
34.119466 98.896 -73.0636
34.366710 98.993 -73.7230
34.615745 99.089 -74.3890
34.866585 99.183 -75.0620
35.119243 99.274 -75.7418
35.373731 99.362 -76.4269
35.630064 99.445 -77.1151
35.888254 99.523 -77.8039
36.148315 99.595 -78.4906
36.410261 99.661 -79.1727
36.674104 99.720 -79.8487
36.939860 99.775 -80.5172
37.207542 99.824 -81.1779
37.477163 99.868 -81.8308
37.748738 99.909 -82.4767
38.022281 99.946 -83.1164
38.297806 99.981 -83.7509
38.575327 100.014 -84.3817
38.854860 100.046 -85.0100
39.136419 100.076 -85.6373
39.420017 100.107 -86.2651
39.705671 100.137 -86.8948
39.993395 100.167 -87.5276
40.283203 100.197 -88.1647
40.575112 100.228 -88.8070
40.869136 100.258 -89.4551
41.165290 100.289 -90.1094
41.463591 100.321 -90.7699
41.764053 100.353 -91.4363
42.066693 100.387 -92.1082
42.371525 100.423 -92.7851
42.678567 100.460 -93.4660
42.987834 100.499 -94.1506
43.299341 100.542 -94.8380
43.613106 100.586 -95.5279
43.929145 100.633 -96.2197
44.247473 100.683 -96.9130
44.568109 100.735 -97.6075
44.891068 100.788 -98.3029
45.216367 100.843 -98.9990
45.544023 100.900 -99.6960
45.874054 100.958 -100.3946
46.206476 101.016 -101.0956
46.541307 101.076 -101.8004
46.878565 101.137 -102.5106
47.218266 101.198 -103.2280
47.560429 101.260 -103.9542
47.905072 101.322 -104.6907
48.252212 101.385 -105.4383
48.601867 101.447 -106.1970
48.954056 101.508 -106.9662
49.308798 101.569 -107.7444
49.666109 101.628 -108.5296
50.026010 101.686 -109.3196
50.388520 101.742 -110.1122
50.753656 101.797 -110.9057
51.121437 101.849 -111.6989
51.491884 101.901 -112.4910
51.865016 101.950 -113.2819
52.240851 101.997 -114.0714
52.619410 102.041 -114.8600
53.000712 102.083 -115.6479
53.384777 102.122 -116.4356
53.771625 102.157 -117.2234
54.161276 102.190 -118.0113
54.553751 102.219 -118.7991
54.949070 102.244 -119.5866
55.347254 102.266 -120.3730
55.748323 102.284 -121.1574
56.152298 102.298 -121.9392
56.559201 102.309 -122.7176
56.969052 102.317 -123.4924
57.381873 102.323 -124.2639
57.797686 102.327 -125.0324
58.216512 102.330 -125.7987
58.638373 102.333 -126.5633
59.063291 102.338 -127.3265
59.491288 102.345 -128.0886
59.922386 102.354 -128.8495
60.356608 102.367 -129.6090
60.793977 102.382 -130.3667
61.234515 102.400 -131.1220
61.678246 102.418 -131.8740
62.125192 102.436 -132.6221
62.575377 102.454 -133.3657
63.028824 102.469 -134.1046
63.485557 102.482 -134.8390
63.945599 102.492 -135.5687
64.408975 102.499 -136.2937
64.875709 102.503 -137.0140
65.345825 102.504 -137.7292
65.819348 102.502 -138.4392
66.296302 102.498 -139.1440
66.776713 102.493 -139.8439
67.260604 102.485 -140.5390
67.748002 102.477 -141.2299
68.238932 102.466 -141.9169
68.733420 102.455 -142.6001
69.231490 102.443 -143.2796
69.733170 102.429 -143.9556
70.238485 102.415 -144.6278
70.747463 102.400 -145.2962
71.260128 102.384 -145.9604
71.776508 102.367 -146.6203
72.296630 102.350 -147.2756
72.820521 102.332 -147.9260
73.348209 102.314 -148.5713
73.879720 102.296 -149.2114
74.415083 102.277 -149.8462
74.954326 102.258 -150.4756
75.497475 102.239 -151.0997
76.044561 102.219 -151.7184
76.595612 102.199 -152.3317
77.150655 102.178 -152.9399
77.709720 102.156 -153.5430
78.272837 102.133 -154.1411
78.840034 102.110 -154.7342
79.411342 102.086 -155.3224
79.986789 102.062 -155.9055
80.566406 102.037 -156.4834
81.150224 102.011 -157.0558
81.738272 101.985 -157.6220
82.330581 101.959 -158.1814
82.927182 101.932 -158.7334
83.528107 101.904 -159.2773
84.133386 101.876 -159.8128
84.743051 101.848 -160.3398
85.357134 101.819 -160.8585
85.975667 101.789 -161.3691
86.598682 101.760 -161.8721
87.226212 101.730 -162.3680
87.858289 101.701 -162.8571
88.494946 101.673 -163.3398
89.136217 101.646 -163.8166
89.782135 101.619 -164.2876
90.432733 101.594 -164.7532
91.088046 101.570 -165.2134
91.748108 101.547 -165.6684
92.412952 101.525 -166.1182
93.082615 101.502 -166.5633
93.757130 101.480 -167.0039
94.436533 101.457 -167.4404
95.120859 101.434 -167.8728
95.810144 101.408 -168.3012
96.504423 101.381 -168.7253
97.203734 101.352 -169.1450
97.908112 101.320 -169.5600
98.617595 101.286 -169.9700
99.332219 101.249 -170.3752
100.052021 101.210 -170.7754
100.777039 101.169 -171.1708
101.507311 101.126 -171.5617
102.242875 101.083 -171.9482
102.983769 101.039 -172.3303
103.730032 100.995 -172.7078
104.481702 100.951 -173.0805
105.238820 100.908 -173.4483
106.001424 100.867 -173.8111
106.769554 100.826 -174.1687
107.543250 100.788 -174.5214
108.322553 100.751 -174.8693
109.107503 100.715 -175.2125
109.898141 100.681 -175.5515
110.694508 100.649 -175.8866
111.496646 100.617 -176.2179
112.304596 100.586 -176.5456
113.118402 100.555 -176.8698
113.938104 100.523 -177.1904
114.763747 100.491 -177.5074
115.595372 100.459 -177.8209
116.433024 100.425 -178.1311
117.276746 100.390 -178.4381
118.126581 100.354 -178.7421
118.982575 100.318 -179.0434
119.844772 100.280 -179.3418
120.713217 100.242 -179.6374
121.587954 100.204 -179.9300
122.469031 100.166 179.7805
123.356492 100.128 179.4940
124.250384 100.091 179.2103
125.150753 100.055 178.9291
126.057647 100.019 178.6500
126.971113 99.985 178.3728
127.891198 99.951 178.0973
128.817950 99.919 177.8233
129.751418 99.888 177.5510
130.691651 99.858 177.2803
131.638696 99.829 177.0108
132.592604 99.800 176.7422
133.553425 99.771 176.4741
134.521208 99.741 176.2061
135.496004 99.710 175.9378
136.477864 99.678 175.6696
137.466839 99.642 175.4017
138.462981 99.604 175.1351
139.466340 99.562 174.8708
140.476971 99.515 174.6108
141.494925 99.464 174.3570
142.520256 99.408 174.1122
143.553016 99.348 173.8795
144.593260 99.283 173.6620
145.641043 99.214 173.4630
146.696418 99.143 173.2852
147.759441 99.069 173.1307
148.830166 98.995 173.0004
149.908651 98.921 172.8943
150.994951 98.848 172.8112
152.089123 98.778 172.7491
153.191223 98.709 172.7055
154.301310 98.644 172.6774
155.419441 98.582 172.6622
156.545674 98.523 172.6576
157.680069 98.466 172.6618
158.822683 98.412 172.6742
159.973578 98.360 172.6946
161.132813 98.309 172.7240
162.300447 98.259 172.7633
163.476543 98.209 172.8141
164.661162 98.160 172.8781
165.854364 98.111 172.9567
167.056213 98.062 173.0518
168.266772 98.014 173.1651
169.486102 97.966 173.2984
170.714268 97.919 173.4531
171.951334 97.874 173.6302
173.197364 97.831 173.8301
174.452424 97.790 174.0523
175.716578 97.752 174.2955
176.989893 97.718 174.5573
178.272434 97.688 174.8341
179.564270 97.662 175.1216
180.865467 97.641 175.4143
182.176092 97.624 175.7064
183.496216 97.613 175.9918
184.825905 97.605 176.2643
186.165229 97.602 176.5186
187.514259 97.602 176.7494
188.873065 97.604 176.9528
190.241717 97.608 177.1257
191.620287 97.613 177.2661
193.008847 97.618 177.3732
194.407468 97.622 177.4472
195.816225 97.625 177.4890
197.235190 97.625 177.5001
198.664438 97.623 177.4828
200.104042 97.618 177.4396
201.554078 97.610 177.3735
203.014622 97.599 177.2876
204.485750 97.587 177.1851
205.967538 97.572 177.0692
207.460064 97.557 176.9427
208.963405 97.540 176.8085
210.477640 97.524 176.6688
212.002848 97.509 176.5259
213.539108 97.495 176.3814
215.086500 97.483 176.2371
216.645105 97.473 176.0942
218.215005 97.467 175.9534
219.796281 97.463 175.8153
221.389015 97.463 175.6803
222.993292 97.466 175.5483
224.609193 97.472 175.4196
226.236804 97.480 175.2941
227.876209 97.491 175.1718
229.527494 97.504 175.0530
231.190745 97.519 174.9379
232.866048 97.534 174.8271
234.553491 97.551 174.7209
236.253163 97.569 174.6198
237.965150 97.587 174.5241
239.689544 97.606 174.4341
241.426433 97.624 174.3497
243.175909 97.642 174.2707
244.938062 97.659 174.1967
246.712984 97.675 174.1274
248.500768 97.689 174.0624
250.301507 97.703 174.0014
252.115295 97.714 173.9440
253.942226 97.725 173.8899
255.782396 97.734 173.8387
257.635901 97.742 173.7902
259.502837 97.749 173.7438
261.383301 97.756 173.6993
263.277392 97.761 173.6568
265.185209 97.765 173.6159
267.106850 97.769 173.5767
269.042417 97.771 173.5389
270.992009 97.771 173.5026
272.955729 97.769 173.4677
274.933678 97.764 173.4340
276.925961 97.756 173.4018
278.932681 97.745 173.3710
280.953942 97.730 173.3419
282.989850 97.711 173.3143
285.040511 97.688 173.2882
287.106032 97.660 173.2636
289.186521 97.627 173.2407
291.282086 97.591 173.2195
293.392836 97.551 173.2003
295.518881 97.507 173.1832
297.660333 97.460 173.1684
299.817302 97.410 173.1557
301.989902 97.359 173.1450
304.178245 97.307 173.1359
306.382446 97.254 173.1281
308.602620 97.201 173.1214
310.838882 97.149 173.1156
313.091348 97.099 173.1106
315.360137 97.051 173.1064
317.645367 97.006 173.1030
319.947156 96.964 173.1005
322.265625 96.926 173.0986
324.600895 96.893 173.0974
326.953086 96.864 173.0967
329.322323 96.840 173.0966
331.708729 96.821 173.0969
334.112427 96.808 173.0975
336.533543 96.800 173.0983
338.972204 96.798 173.0994
341.428536 96.801 173.1006
343.902668 96.810 173.1020
346.394729 96.822 173.1036
348.904848 96.839 173.1052
351.433156 96.859 173.1068
353.979786 96.881 173.1083
356.544869 96.905 173.1096
359.128540 96.930 173.1108
361.730934 96.954 173.1120
364.352185 96.977 173.1131
366.992431 96.997 173.1142
369.651810 97.015 173.1152
372.330459 97.029 173.1157
375.028519 97.039 173.1157
377.746130 97.044 173.1146
380.483434 97.044 173.1124
383.240574 97.039 173.1086
386.017693 97.028 173.1031
388.814937 97.013 173.0959
391.632450 96.994 173.0870
394.470380 96.971 173.0766
397.328875 96.946 173.0653
400.208084 96.919 173.0541
403.108157 96.892 173.0443
406.029245 96.865 173.0377
408.971500 96.839 173.0359
411.935076 96.816 173.0407
414.920127 96.797 173.0535
417.926810 96.782 173.0746
420.955280 96.772 173.1033
424.005695 96.767 173.1380
427.078215 96.768 173.1762
430.173000 96.773 173.2157
433.290211 96.781 173.2542
436.430010 96.792 173.2903
439.592562 96.805 173.3231
442.778031 96.817 173.3521
445.986583 96.829 173.3777
449.218386 96.839 173.4003
452.473607 96.846 173.4207
455.752418 96.850 173.4395
459.054987 96.852 173.4576
462.381489 96.851 173.4761
465.732096 96.847 173.4956
469.106983 96.841 173.5168
472.506325 96.833 173.5402
475.930301 96.824 173.5659
479.379088 96.814 173.5939
482.852867 96.803 173.6240
486.351817 96.792 173.6562
489.876123 96.781 173.6902
493.425968 96.771 173.7257
497.001536 96.762 173.7623
500.603014 96.755 173.7997
504.230589 96.750 173.8376
507.884452 96.749 173.8756
511.564792 96.753 173.9137
515.271802 96.761 173.9517
519.005673 96.776 173.9897
522.766602 96.797 174.0279
526.554785 96.824 174.0665
530.370418 96.857 174.1055
534.213700 96.897 174.1452
538.084833 96.941 174.1857
541.984018 96.989 174.2269
545.911457 97.041 174.2688
549.867357 97.093 174.3111
553.851922 97.144 174.3537
557.865362 97.194 174.3964
561.907884 97.240 174.4388
565.979700 97.282 174.4810
570.081022 97.317 174.5229
574.212064 97.345 174.5648
578.373042 97.366 174.6065
582.564171 97.377 174.6484
586.785671 97.380 174.6902
591.037762 97.373 174.7318
595.320665 97.356 174.7731
599.634604 97.329 174.8138
603.979804 97.293 174.8539
608.356491 97.248 174.8932
612.764893 97.196 174.9319
617.205240 97.137 174.9700
621.677763 97.073 175.0076
626.182696 97.006 175.0449
630.720274 96.938 175.0818
635.290733 96.871 175.1187
639.894312 96.806 175.1556
644.531250 96.745 175.1928
649.201789 96.690 175.2304
653.906173 96.642 175.2681
658.644647 96.602 175.3054
663.417457 96.570 175.3417
668.224854 96.547 175.3762
673.067086 96.534 175.4082
677.944408 96.530 175.4371
682.857073 96.535 175.4629
687.805336 96.549 175.4857
692.789457 96.571 175.5063
697.809695 96.601 175.5259
702.866312 96.638 175.5455
707.959571 96.681 175.5661
713.089738 96.729 175.5877
718.257080 96.781 175.6094
723.461867 96.835 175.6294
728.704370 96.890 175.6457
733.984862 96.944 175.6562
739.303619 96.996 175.6590
744.660918 97.045 175.6530
750.057038 97.091 175.6372
755.492260 97.132 175.6118
760.966869 97.170 175.5771
766.481148 97.203 175.5339
772.035387 97.233 175.4835
777.629873 97.259 175.4272
783.264900 97.282 175.3665
788.940760 97.301 175.3029
794.657750 97.316 175.2371
800.416168 97.327 175.1697
806.216313 97.332 175.1005
812.058489 97.331 175.0286
817.943000 97.323 174.9531
823.870152 97.308 174.8727
829.840255 97.287 174.7863
835.853619 97.258 174.6931
841.910559 97.223 174.5925
848.011390 97.183 174.4844
854.156430 97.141 174.3686
860.346000 97.097 174.2448
866.580422 97.056 174.1130
872.860020 97.018 173.9731
879.185124 96.987 173.8248
885.556062 96.964 173.6682
891.973166 96.950 173.5034
898.436771 96.946 173.3307
904.947215 96.952 173.1509
911.504835 96.968 172.9648
918.109975 96.993 172.7731
924.762978 97.026 172.5767
931.464192 97.065 172.3757
938.213966 97.108 172.1703
945.012651 97.154 171.9598
951.860602 97.201 171.7440
958.758176 97.247 171.5221
965.705733 97.292 171.2941
972.703635 97.332 171.0608
979.752246 97.369 170.8236
986.851935 97.402 170.5847
994.003071 97.430 170.3463
1001.206027 97.454 170.1105
1008.461179 97.475 169.8785
1015.768904 97.495 169.6507
1023.129584 97.514 169.4265
1030.543603 97.534 169.2051
1038.011347 97.556 168.9852
1045.533205 97.581 168.7658
1053.109569 97.610 168.5460
1060.740836 97.643 168.3256
1068.427401 97.679 168.1046
1076.169666 97.719 167.8838
1083.968035 97.762 167.6635
1091.822915 97.807 167.4438
1099.734713 97.852 167.2245
1107.703844 97.897 167.0048
1115.730723 97.938 166.7840
1123.815768 97.976 166.5616
1131.959400 98.008 166.3375
1140.162045 98.035 166.1119
1148.424129 98.054 165.8854
1156.746083 98.067 165.6587
1165.128342 98.074 165.4327
1173.571343 98.075 165.2084
1182.075524 98.073 164.9868
1190.641331 98.067 164.7688
1199.269209 98.060 164.5557
1207.959608 98.053 164.3481
1216.712981 98.048 164.1468
1225.529785 98.045 163.9518
1234.410479 98.046 163.7630
1243.355526 98.052 163.5804
1252.365393 98.062 163.4041
1261.440549 98.077 163.2336
1270.581467 98.096 163.0688
1279.788624 98.118 162.9091
1289.062500 98.144 162.7535
1298.403578 98.171 162.6014
1307.812346 98.199 162.4525
1317.289293 98.226 162.3073
1326.834914 98.252 162.1677
1336.449707 98.275 162.0361
1346.134173 98.295 161.9151
1355.888816 98.311 161.8067
1365.714145 98.323 161.7118
1375.610673 98.331 161.6302
1385.578915 98.335 161.5615
1395.619391 98.335 161.5053
1405.732624 98.330 161.4617
1415.919142 98.321 161.4310
1426.179476 98.308 161.4136
1436.514160 98.291 161.4093
1446.923734 98.272 161.4174
1457.408740 98.250 161.4364
1467.969724 98.226 161.4644
1478.607238 98.200 161.4995
1489.321836 98.171 161.5402
1500.114076 98.140 161.5858
1510.984521 98.105 161.6371
1521.933737 98.066 161.6963
1532.962297 98.022 161.7673
1544.070773 97.974 161.8550
1555.259747 97.921 161.9642
1566.529800 97.864 162.0987
1577.881521 97.804 162.2605
1589.315501 97.743 162.4494
1600.832336 97.681 162.6632
1612.432627 97.620 162.8979
1624.116978 97.560 163.1491
1635.886000 97.503 163.4128
1647.740304 97.447 163.6866
1659.680509 97.394 163.9699
1671.707238 97.342 164.2632
1683.821118 97.293 164.5679
1696.022780 97.245 164.8855
1708.312860 97.199 165.2169
1720.692000 97.156 165.5623
1733.160843 97.116 165.9207
1745.720041 97.080 166.2896
1758.370248 97.048 166.6656
1771.112124 97.021 167.0461
1783.946332 96.999 167.4290
1796.873543 96.982 167.8134
1809.894429 96.970 168.1988
1823.009670 96.964 168.5846
1836.219950 96.962 168.9705
1849.525956 96.964 169.3566
1862.928384 96.970 169.7435
1876.427931 96.979 170.1322
1890.025301 96.990 170.5229
1903.721204 97.004 170.9142
1917.516352 97.020 171.3029
1931.411466 97.037 171.6843
1945.407270 97.057 172.0528
1959.504493 97.079 172.4026
1973.703870 97.102 172.7280
1988.006142 97.127 173.0237
2002.412054 97.154 173.2851
2016.922357 97.182 173.5095
2031.537808 97.211 173.6961
2046.259169 97.242 173.8460
2061.087206 97.275 173.9607
2076.022694 97.309 174.0422
2091.066410 97.345 174.0930
2106.219139 97.383 174.1165
2121.481671 97.425 174.1163
2136.854802 97.469 174.0950
2152.339333 97.518 174.0533
2167.936071 97.570 173.9903
2183.645829 97.628 173.9042
2199.469427 97.689 173.7935
2215.407689 97.755 173.6576
2231.461446 97.825 173.4968
2247.631536 97.898 173.3121
2263.918800 97.975 173.1056
2280.324089 98.053 172.8803
2296.848258 98.134 172.6408
2313.492167 98.216 172.3918
2330.256685 98.300 172.1380
2347.142685 98.384 171.8830
2364.151049 98.470 171.6298
2381.282662 98.555 171.3807
2398.538418 98.641 171.1374
2415.919216 98.726 170.9005
2433.425962 98.809 170.6694
2451.059570 98.891 170.4432
2468.820958 98.971 170.2199
2486.711052 99.047 169.9973
2504.730786 99.119 169.7728
2522.881098 99.185 169.5439
2541.162934 99.245 169.3094
2559.577248 99.297 169.0691
2578.125000 99.340 168.8241
2596.807157 99.373 168.5765
2615.624692 99.396 168.3293
2634.578586 99.407 168.0861
2653.669829 99.407 167.8507
2672.899414 99.396 167.6271
2692.268345 99.372 167.4190
2711.777632 99.337 167.2305
2731.428290 99.291 167.0658
2751.221345 99.233 166.9297
2771.157829 99.164 166.8274
2791.238781 99.084 166.7646
2811.465248 98.994 166.7477
2831.838284 98.895 166.7831
2852.358952 98.788 166.8770
2873.028321 98.673 167.0345
2893.847468 98.553 167.2599
2914.817480 98.430 167.5558
2935.939449 98.303 167.9235
2957.214476 98.176 168.3629
2978.643672 98.050 168.8726
3000.228152 97.927 169.4498
3021.969041 97.809 170.0898
3043.867475 97.698 170.7856
3065.924593 97.595 171.5284
3088.141547 97.503 172.3066
3110.519493 97.424 173.1071
3133.059600 97.357 173.9147
3155.763041 97.305 174.7133
3178.631001 97.266 175.4858
3201.664672 97.241 176.2161
3224.865254 97.229 176.8890
3248.233957 97.229 177.4926
3271.771999 97.238 178.0186
3295.480608 97.253 178.4629
3319.361019 97.274 178.8270
3343.414477 97.298 179.1170
3367.642236 97.322 179.3437
3392.045560 97.347 179.5214
3416.625721 97.370 179.6656
3441.383999 97.394 179.7924
