* Measurement data measured by REW V5.31.3
* Source: EXCL: Headset (USB-C to 3.5mm Headphone Jack Adapter), MICROPHONE (Master Volume), 0, volume: 0.260
* Format: 256k Log Swept Sine, 1 sweep at -12.0 dBFS with no timing reference
* Dated: Mar 7, 2025 11:56:50 AM
* REW Settings:
*  C-weighting compensation: Off
*  Target level: 75.0 dB
* Note: ; 
* Measurement: Massive Mod V1 R4
* Smoothing: 1/6 octave
* Frequency Step: 96 ppo
* Start Frequency: 20.0 Hz
*
* Freq(Hz) SPL(dB) Phase(degrees)
20.141602 90.998 -26.9598
20.287556 91.002 -27.3093
20.434568 91.008 -27.7727
20.582645 91.015 -28.3305
20.731796 91.024 -28.9610
20.882027 91.036 -29.6417
21.033346 91.052 -30.3515
21.185763 91.072 -31.0717
21.339284 91.099 -31.7870
21.493917 91.133 -32.4867
21.649671 91.176 -33.1648
21.806553 91.230 -33.8199
21.964572 91.294 -34.4546
22.123737 91.369 -35.0750
22.284054 91.453 -35.6887
22.445534 91.546 -36.3039
22.608183 91.645 -36.9279
22.772012 91.749 -37.5659
22.937027 91.853 -38.2207
23.103238 91.957 -38.8921
23.270654 92.059 -39.5775
23.439282 92.156 -40.2722
23.609133 92.249 -40.9709
23.780215 92.336 -41.6680
23.952536 92.418 -42.3590
24.126106 92.495 -43.0409
24.300934 92.569 -43.7129
24.477028 92.640 -44.3759
24.654399 92.710 -45.0328
24.833055 92.779 -45.6874
25.013005 92.849 -46.3437
25.194260 92.918 -47.0055
25.376828 92.990 -47.6756
25.560719 93.063 -48.3554
25.745942 93.138 -49.0451
25.932508 93.217 -49.7432
26.120426 93.299 -50.4477
26.309705 93.385 -51.1556
26.500356 93.476 -51.8637
26.692388 93.572 -52.5685
26.885812 93.672 -53.2662
27.080638 93.776 -53.9530
27.276876 93.882 -54.6245
27.474535 93.991 -55.2762
27.673627 94.099 -55.9035
27.874161 94.206 -56.5023
28.076149 94.309 -57.0696
28.279600 94.408 -57.6043
28.484526 94.502 -58.1077
28.690937 94.590 -58.5841
28.898843 94.671 -59.0410
29.108256 94.745 -59.4880
29.319186 94.811 -59.9366
29.531645 94.870 -60.3987
29.745644 94.921 -60.8848
29.961193 94.964 -61.4035
30.178304 95.000 -61.9597
30.396989 95.029 -62.5548
30.617258 95.054 -63.1867
30.839123 95.075 -63.8501
31.062596 95.095 -64.5381
31.287688 95.117 -65.2431
31.514412 95.142 -65.9578
31.742778 95.175 -66.6766
31.972800 95.216 -67.3961
32.204488 95.268 -68.1147
32.437855 95.332 -68.8331
32.672913 95.407 -69.5529
32.909674 95.493 -70.2762
33.148151 95.589 -71.0048
33.388356 95.693 -71.7395
33.630302 95.802 -72.4800
33.874001 95.917 -73.2248
34.119466 96.033 -73.9716
34.366710 96.151 -74.7178
34.615745 96.268 -75.4610
34.866585 96.384 -76.1996
35.119243 96.497 -76.9326
35.373731 96.606 -77.6600
35.630064 96.711 -78.3824
35.888254 96.810 -79.1007
36.148315 96.904 -79.8160
36.410261 96.991 -80.5290
36.674104 97.072 -81.2408
36.939860 97.146 -81.9522
37.207542 97.213 -82.6642
37.477163 97.275 -83.3780
37.748738 97.331 -84.0948
38.022281 97.382 -84.8155
38.297806 97.429 -85.5410
38.575327 97.473 -86.2718
38.854860 97.513 -87.0085
39.136419 97.551 -87.7520
39.420017 97.587 -88.5037
39.705671 97.623 -89.2658
39.993395 97.657 -90.0409
40.283203 97.692 -90.8315
40.575112 97.725 -91.6396
40.869136 97.758 -92.4662
41.165290 97.789 -93.3106
41.463591 97.819 -94.1710
41.764053 97.848 -95.0449
42.066693 97.875 -95.9299
42.371525 97.901 -96.8239
42.678567 97.927 -97.7255
42.987834 97.953 -98.6340
43.299341 97.979 -99.5491
43.613106 98.007 -100.4705
43.929145 98.036 -101.3971
44.247473 98.066 -102.3273
44.568109 98.097 -103.2583
44.891068 98.129 -104.1865
45.216367 98.162 -105.1076
45.544023 98.196 -106.0170
45.874054 98.230 -106.9104
46.206476 98.265 -107.7847
46.541307 98.302 -108.6384
46.878565 98.339 -109.4717
47.218266 98.378 -110.2870
47.560429 98.418 -111.0879
47.905072 98.459 -111.8789
48.252212 98.499 -112.6646
48.601867 98.538 -113.4491
48.954056 98.576 -114.2358
49.308798 98.611 -115.0273
49.666109 98.645 -115.8254
50.026010 98.676 -116.6311
50.388520 98.705 -117.4441
50.753656 98.731 -118.2633
51.121437 98.756 -119.0863
51.491884 98.780 -119.9102
51.865016 98.801 -120.7319
52.240851 98.821 -121.5489
52.619410 98.840 -122.3596
53.000712 98.857 -123.1637
53.384777 98.873 -123.9619
53.771625 98.887 -124.7554
54.161276 98.899 -125.5449
54.553751 98.908 -126.3305
54.949070 98.915 -127.1113
55.347254 98.918 -127.8858
55.748323 98.918 -128.6523
56.152298 98.916 -129.4090
56.559201 98.911 -130.1548
56.969052 98.904 -130.8894
57.381873 98.896 -131.6127
57.797686 98.887 -132.3258
58.216512 98.878 -133.0301
58.638373 98.870 -133.7283
59.063291 98.863 -134.4235
59.491288 98.857 -135.1192
59.922386 98.851 -135.8187
60.356608 98.845 -136.5238
60.793977 98.839 -137.2352
61.234515 98.832 -137.9516
61.678246 98.825 -138.6709
62.125192 98.817 -139.3898
62.575377 98.807 -140.1052
63.028824 98.797 -140.8143
63.485557 98.785 -141.5147
63.945599 98.771 -142.2054
64.408975 98.756 -142.8862
64.875709 98.739 -143.5576
65.345825 98.719 -144.2207
65.819348 98.699 -144.8767
66.296302 98.677 -145.5266
66.776713 98.654 -146.1709
67.260604 98.631 -146.8098
67.748002 98.607 -147.4435
68.238932 98.582 -148.0719
68.733420 98.558 -148.6951
69.231490 98.533 -149.3132
69.733170 98.508 -149.9261
70.238485 98.482 -150.5340
70.747463 98.455 -151.1364
71.260128 98.428 -151.7332
71.776508 98.401 -152.3239
72.296630 98.373 -152.9085
72.820521 98.346 -153.4869
73.348209 98.318 -154.0594
73.879720 98.291 -154.6263
74.415083 98.263 -155.1881
74.954326 98.236 -155.7451
75.497475 98.208 -156.2975
76.044561 98.180 -156.8451
76.595612 98.151 -157.3871
77.150655 98.123 -157.9229
77.709720 98.093 -158.4516
78.272837 98.063 -158.9725
78.840034 98.032 -159.4850
79.411342 98.001 -159.9887
79.986789 97.969 -160.4831
80.566406 97.936 -160.9680
81.150224 97.902 -161.4430
81.738272 97.867 -161.9081
82.330581 97.830 -162.3635
82.927182 97.794 -162.8096
83.528107 97.756 -163.2470
84.133386 97.718 -163.6764
84.743051 97.681 -164.0983
85.357134 97.643 -164.5132
85.975667 97.607 -164.9215
86.598682 97.572 -165.3237
87.226212 97.537 -165.7204
87.858289 97.504 -166.1123
88.494946 97.473 -166.4998
89.136217 97.443 -166.8830
89.782135 97.414 -167.2619
90.432733 97.387 -167.6362
91.088046 97.361 -168.0057
91.748108 97.337 -168.3700
92.412952 97.313 -168.7287
93.082615 97.290 -169.0814
93.757130 97.267 -169.4276
94.436533 97.245 -169.7669
95.120859 97.222 -170.0995
95.810144 97.198 -170.4261
96.504423 97.173 -170.7478
97.203734 97.148 -171.0659
97.908112 97.120 -171.3816
98.617595 97.090 -171.6957
99.332219 97.059 -172.0086
100.052021 97.025 -172.3203
100.777039 96.989 -172.6306
101.507311 96.952 -172.9390
102.242875 96.914 -173.2447
102.983769 96.875 -173.5475
103.730032 96.836 -173.8472
104.481702 96.798 -174.1441
105.238820 96.760 -174.4390
106.001424 96.724 -174.7325
106.769554 96.689 -175.0254
107.543250 96.656 -175.3184
108.322553 96.625 -175.6120
109.107503 96.595 -175.9062
109.898141 96.566 -176.2004
110.694508 96.539 -176.4937
111.496646 96.512 -176.7847
112.304596 96.485 -177.0717
113.118402 96.458 -177.3531
113.938104 96.432 -177.6277
114.763747 96.405 -177.8951
115.595372 96.378 -178.1553
116.433024 96.350 -178.4096
117.276746 96.320 -178.6598
118.126581 96.290 -178.9082
118.982575 96.258 -179.1572
119.844772 96.225 -179.4086
120.713217 96.191 -179.6634
121.587954 96.157 -179.9217
122.469031 96.123 179.8173
123.356492 96.089 179.5549
124.250384 96.055 179.2927
125.150753 96.021 179.0325
126.057647 95.989 178.7759
126.971113 95.957 178.5245
127.891198 95.927 178.2794
128.817950 95.897 178.0411
129.751418 95.869 177.8099
130.691651 95.841 177.5853
131.638696 95.814 177.3665
132.592604 95.787 177.1522
133.553425 95.761 176.9410
134.521208 95.735 176.7316
135.496004 95.708 176.5231
136.477864 95.680 176.3150
137.466839 95.651 176.1074
138.462981 95.621 175.9005
139.466340 95.588 175.6949
140.476971 95.553 175.4916
141.494925 95.514 175.2923
142.520256 95.473 175.0986
143.553016 95.429 174.9123
144.593260 95.381 174.7346
145.641043 95.331 174.5665
146.696418 95.279 174.4088
147.759441 95.226 174.2621
148.830166 95.172 174.1265
149.908651 95.118 174.0023
150.994951 95.064 173.8893
152.089123 95.012 173.7871
153.191223 94.961 173.6949
154.301310 94.912 173.6114
155.419441 94.864 173.5351
156.545674 94.818 173.4645
157.680069 94.773 173.3986
158.822683 94.728 173.3370
159.973578 94.685 173.2802
161.132813 94.643 173.2292
162.300447 94.601 173.1858
163.476543 94.559 173.1516
164.661162 94.518 173.1287
165.854364 94.477 173.1186
167.056213 94.437 173.1229
168.266772 94.398 173.1429
169.486102 94.359 173.1793
170.714268 94.322 173.2325
171.951334 94.285 173.3022
173.197364 94.251 173.3875
174.452424 94.218 173.4863
175.716578 94.187 173.5964
176.989893 94.157 173.7155
178.272434 94.130 173.8414
179.564270 94.104 173.9726
180.865467 94.080 174.1070
182.176092 94.057 174.2429
183.496216 94.036 174.3781
184.825905 94.016 174.5107
186.165229 93.997 174.6385
187.514259 93.979 174.7597
188.873065 93.961 174.8723
190.241717 93.944 174.9749
191.620287 93.927 175.0659
193.008847 93.910 175.1442
194.407468 93.893 175.2086
195.816225 93.874 175.2583
197.235190 93.855 175.2932
198.664438 93.835 175.3132
200.104042 93.814 175.3186
201.554078 93.791 175.3098
203.014622 93.767 175.2877
204.485750 93.742 175.2529
205.967538 93.717 175.2067
207.460064 93.693 175.1503
208.963405 93.669 175.0850
210.477640 93.647 175.0121
212.002848 93.627 174.9326
213.539108 93.611 174.8473
215.086500 93.598 174.7571
216.645105 93.589 174.6625
218.215005 93.584 174.5639
219.796281 93.584 174.4617
221.389015 93.587 174.3564
222.993292 93.594 174.2485
224.609193 93.605 174.1391
226.236804 93.618 174.0294
227.876209 93.634 173.9203
229.527494 93.651 173.8128
231.190745 93.671 173.7075
232.866048 93.692 173.6045
234.553491 93.714 173.5039
236.253163 93.737 173.4055
237.965150 93.760 173.3092
239.689544 93.784 173.2150
241.426433 93.808 173.1231
243.175909 93.831 173.0337
244.938062 93.854 172.9472
246.712984 93.875 172.8637
248.500768 93.894 172.7833
250.301507 93.912 172.7054
252.115295 93.927 172.6296
253.942226 93.942 172.5550
255.782396 93.954 172.4811
257.635901 93.965 172.4075
259.502837 93.975 172.3337
261.383301 93.983 172.2601
263.277392 93.990 172.1870
265.185209 93.996 172.1150
267.106850 94.000 172.0450
269.042417 94.003 171.9771
270.992009 94.004 171.9113
272.955729 94.004 171.8466
274.933678 94.001 171.7824
276.925961 93.996 171.7186
278.932681 93.987 171.6555
280.953942 93.975 171.5944
282.989850 93.958 171.5359
285.040511 93.937 171.4802
287.106032 93.910 171.4266
289.186521 93.879 171.3734
291.282086 93.842 171.3187
293.392836 93.801 171.2610
295.518881 93.756 171.1998
297.660333 93.708 171.1354
299.817302 93.657 171.0690
301.989902 93.604 171.0020
304.178245 93.550 170.9360
306.382446 93.495 170.8718
308.602620 93.441 170.8102
310.838882 93.387 170.7513
313.091348 93.336 170.6949
315.360137 93.286 170.6406
317.645367 93.238 170.5876
319.947156 93.194 170.5354
322.265625 93.153 170.4831
324.600895 93.116 170.4307
326.953086 93.083 170.3781
329.322323 93.054 170.3257
331.708729 93.030 170.2740
334.112427 93.010 170.2232
336.533543 92.996 170.1734
338.972204 92.986 170.1248
341.428536 92.982 170.0774
343.902668 92.982 170.0314
346.394729 92.986 169.9871
348.904848 92.993 169.9449
351.433156 93.004 169.9055
353.979786 93.017 169.8694
356.544869 93.032 169.8371
359.128540 93.047 169.8090
361.730934 93.063 169.7848
364.352185 93.078 169.7643
366.992431 93.091 169.7468
369.651810 93.101 169.7321
372.330459 93.108 169.7198
375.028519 93.111 169.7098
377.746130 93.109 169.7022
380.483434 93.101 169.6971
383.240574 93.089 169.6944
386.017693 93.071 169.6939
388.814937 93.049 169.6954
391.632450 93.023 169.6989
394.470380 92.993 169.7041
397.328875 92.962 169.7113
400.208084 92.930 169.7209
403.108157 92.897 169.7332
406.029245 92.867 169.7491
408.971500 92.838 169.7688
411.935076 92.812 169.7925
414.920127 92.791 169.8196
417.926810 92.773 169.8495
420.955280 92.761 169.8810
424.005695 92.753 169.9134
427.078215 92.749 169.9455
430.173000 92.749 169.9768
433.290211 92.753 170.0068
436.430010 92.758 170.0355
439.592562 92.765 170.0632
442.778031 92.772 170.0908
445.986583 92.778 170.1188
449.218386 92.782 170.1479
452.473607 92.784 170.1786
455.752418 92.784 170.2116
459.054987 92.781 170.2478
462.381489 92.776 170.2878
465.732096 92.769 170.3318
469.106983 92.760 170.3798
472.506325 92.749 170.4315
475.930301 92.738 170.4863
479.379088 92.726 170.5436
482.852867 92.714 170.6031
486.351817 92.703 170.6644
489.876123 92.692 170.7271
493.425968 92.682 170.7911
497.001536 92.673 170.8559
500.603014 92.667 170.9213
504.230589 92.665 170.9870
507.884452 92.666 171.0528
511.564792 92.672 171.1183
515.271802 92.684 171.1832
519.005673 92.702 171.2466
522.766602 92.726 171.3080
526.554785 92.758 171.3666
530.370418 92.796 171.4220
534.213700 92.840 171.4741
538.084833 92.889 171.5230
541.984018 92.942 171.5693
545.911457 92.998 171.6133
549.867357 93.055 171.6557
553.851922 93.111 171.6971
557.865362 93.166 171.7377
561.907884 93.217 171.7778
565.979700 93.263 171.8169
570.081022 93.304 171.8548
574.212064 93.337 171.8907
578.373042 93.363 171.9240
582.564171 93.381 171.9540
586.785671 93.389 171.9799
591.037762 93.389 172.0008
595.320665 93.379 172.0163
599.634604 93.360 172.0258
603.979804 93.332 172.0292
608.356491 93.295 172.0265
612.764893 93.250 172.0179
617.205240 93.199 172.0037
621.677763 93.143 171.9843
626.182696 93.083 171.9597
630.720274 93.022 171.9304
635.290733 92.961 171.8965
639.894312 92.902 171.8581
644.531250 92.847 171.8156
649.201789 92.797 171.7695
653.906173 92.754 171.7198
658.644647 92.718 171.6668
663.417457 92.690 171.6102
668.224854 92.670 171.5499
673.067086 92.660 171.4851
677.944408 92.658 171.4154
682.857073 92.665 171.3403
687.805336 92.681 171.2591
692.789457 92.704 171.1716
697.809695 92.735 171.0780
702.866312 92.772 170.9787
707.959571 92.815 170.8745
713.089738 92.860 170.7665
718.257080 92.908 170.6561
723.461867 92.955 170.5446
728.704370 93.002 170.4329
733.984862 93.047 170.3219
739.303619 93.088 170.2115
744.660918 93.126 170.1009
750.057038 93.160 169.9883
755.492260 93.189 169.8717
760.966869 93.215 169.7490
766.481148 93.237 169.6186
772.035387 93.256 169.4793
777.629873 93.271 169.3309
783.264900 93.283 169.1738
788.940760 93.290 169.0087
794.657750 93.293 168.8369
800.416168 93.290 168.6599
806.216313 93.281 168.4787
812.058489 93.265 168.2944
817.943000 93.241 168.1075
823.870152 93.209 167.9188
829.840255 93.167 167.7291
835.853619 93.117 167.5389
841.910559 93.060 167.3494
848.011390 92.996 167.1611
854.156430 92.928 166.9748
860.346000 92.858 166.7909
866.580422 92.788 166.6100
872.860020 92.722 166.4324
879.185124 92.661 166.2585
885.556062 92.608 166.0882
891.973166 92.564 165.9216
898.436771 92.530 165.7584
904.947215 92.507 165.5981
911.504835 92.495 165.4403
918.109975 92.493 165.2845
924.762978 92.500 165.1299
931.464192 92.514 164.9760
938.213966 92.533 164.8220
945.012651 92.556 164.6670
951.860602 92.581 164.5105
958.758176 92.607 164.3521
965.705733 92.631 164.1920
972.703635 92.654 164.0308
979.752246 92.673 163.8697
986.851935 92.689 163.7095
994.003071 92.703 163.5511
1001.206027 92.713 163.3945
1008.461179 92.722 163.2386
1015.768904 92.731 163.0818
1023.129584 92.739 162.9219
1030.543603 92.749 162.7566
1038.011347 92.760 162.5845
1045.533205 92.773 162.4051
1053.109569 92.789 162.2193
1060.740836 92.808 162.0290
1068.427401 92.830 161.8366
1076.169666 92.854 161.6450
1083.968035 92.879 161.4562
1091.822915 92.906 161.2718
1099.734713 92.932 161.0928
1107.703844 92.957 160.9202
1115.730723 92.978 160.7548
1123.815768 92.995 160.5984
1131.959400 93.005 160.4532
1140.162045 93.010 160.3213
1148.424129 93.007 160.2047
1156.746083 92.999 160.1045
1165.128342 92.985 160.0211
1173.571343 92.967 159.9538
1182.075524 92.947 159.9011
1190.641331 92.926 159.8608
1199.269209 92.905 159.8304
1207.959608 92.888 159.8068
1216.712981 92.874 159.7869
1225.529785 92.865 159.7679
1234.410479 92.861 159.7478
1243.355526 92.862 159.7252
1252.365393 92.869 159.7000
1261.440549 92.879 159.6730
1270.581467 92.893 159.6464
1279.788624 92.910 159.6228
1289.062500 92.929 159.6058
1298.403578 92.948 159.5992
1307.812346 92.967 159.6068
1317.289293 92.986 159.6323
1326.834914 93.003 159.6795
1336.449707 93.018 159.7516
1346.134173 93.032 159.8506
1355.888816 93.045 159.9768
1365.714145 93.056 160.1287
1375.610673 93.066 160.3035
1385.578915 93.074 160.4980
1395.619391 93.081 160.7091
1405.732624 93.087 160.9332
1415.919142 93.092 161.1668
1426.179476 93.097 161.4064
1436.514160 93.100 161.6486
1446.923734 93.103 161.8906
1457.408740 93.105 162.1311
1467.969724 93.105 162.3697
1478.607238 93.104 162.6074
1489.321836 93.102 162.8460
1500.114076 93.097 163.0882
1510.984521 93.091 163.3372
1521.933737 93.082 163.5962
1532.962297 93.072 163.8672
1544.070773 93.061 164.1503
1555.259747 93.050 164.4429
1566.529800 93.038 164.7406
1577.881521 93.028 165.0380
1589.315501 93.018 165.3302
1600.832336 93.009 165.6135
1612.432627 93.002 165.8853
1624.116978 92.997 166.1439
1635.886000 92.993 166.3885
1647.740304 92.991 166.6183
1659.680509 92.991 166.8328
1671.707238 92.992 167.0322
1683.821118 92.994 167.2171
1696.022780 92.996 167.3890
1708.312860 92.998 167.5493
1720.692000 93.001 167.6990
1733.160843 93.005 167.8384
1745.720041 93.009 167.9677
1758.370248 93.014 168.0874
1771.112124 93.020 168.1987
1783.946332 93.029 168.3033
1796.873543 93.039 168.4022
1809.894429 93.051 168.4961
1823.009670 93.065 168.5852
1836.219950 93.081 168.6695
1849.525956 93.099 168.7493
1862.928384 93.117 168.8243
1876.427931 93.136 168.8939
1890.025301 93.154 168.9565
1903.721204 93.171 169.0103
1917.516352 93.185 169.0537
1931.411466 93.197 169.0858
1945.407270 93.204 169.1070
1959.504493 93.209 169.1180
1973.703870 93.209 169.1200
1988.006142 93.206 169.1138
2002.412054 93.200 169.1005
2016.922357 93.191 169.0821
2031.537808 93.180 169.0609
2046.259169 93.168 169.0392
2061.087206 93.157 169.0178
2076.022694 93.147 168.9960
2091.066410 93.140 168.9731
2106.219139 93.135 168.9483
2121.481671 93.134 168.9214
2136.854802 93.136 168.8923
2152.339333 93.143 168.8609
2167.936071 93.154 168.8275
2183.645829 93.169 168.7933
2199.469427 93.190 168.7600
2215.407689 93.216 168.7294
2231.461446 93.247 168.7032
2247.631536 93.284 168.6829
2263.918800 93.328 168.6696
2280.324089 93.378 168.6637
2296.848258 93.435 168.6648
2313.492167 93.499 168.6712
2330.256685 93.569 168.6811
2347.142685 93.645 168.6930
2364.151049 93.726 168.7067
2381.282662 93.810 168.7228
2398.538418 93.898 168.7426
2415.919216 93.989 168.7678
2433.425962 94.081 168.7994
2451.059570 94.175 168.8375
2468.820958 94.270 168.8806
2486.711052 94.365 168.9258
2504.730786 94.461 168.9682
2522.881098 94.556 169.0014
2541.162934 94.649 169.0181
2559.577248 94.741 169.0103
2578.125000 94.828 168.9707
2596.807157 94.909 168.8934
2615.624692 94.983 168.7745
2634.578586 95.048 168.6134
2653.669829 95.101 168.4122
2672.899414 95.142 168.1764
2692.268345 95.169 167.9139
2711.777632 95.181 167.6347
2731.428290 95.178 167.3497
2751.221345 95.160 167.0703
2771.157829 95.127 166.8077
2791.238781 95.080 166.5723
2811.465248 95.020 166.3734
2831.838284 94.947 166.2194
2852.358952 94.864 166.1174
2873.028321 94.771 166.0736
2893.847468 94.670 166.0933
2914.817480 94.562 166.1809
2935.939449 94.449 166.3397
2957.214476 94.332 166.5717
2978.643672 94.214 166.8773
3000.228152 94.096 167.2551
3021.969041 93.980 167.7016
3043.867475 93.869 168.2122
3065.924593 93.763 168.7808
3088.141547 93.664 169.4008
3110.519493 93.575 170.0652
3133.059600 93.495 170.7666
3155.763041 93.427 171.4966
3178.631001 93.372 172.2457
3201.664672 93.331 173.0024
3224.865254 93.304 173.7536
3248.233957 93.293 174.4846
3271.771999 93.296 175.1805
3295.480608 93.315 175.8276
3319.361019 93.347 176.4147
3343.414477 93.392 176.9343
3367.642236 93.449 177.3831
3392.045560 93.515 177.7620
3416.625721 93.590 178.0740
3441.383999 93.674 178.3237
3466.321686 93.765 178.5151
3491.440082 93.864 178.6499
3516.740496 93.971 178.7272
3542.224247 94.086 178.7428
3567.892664 94.207 178.6901
