* Measurement data measured by REW V5.31.3
* Source: EXCL: Headset (USB-C to 3.5mm Headphone Jack Adapter), MICROPHONE (Master Volume), 0, volume: 0.260
* Format: 256k Log Swept Sine, 1 sweep at -12.0 dBFS with no timing reference
* Dated: Feb 14, 2025 1:51:32 PM
* REW Settings:
*  C-weighting compensation: Off
*  Target level: 75.0 dB
* Note: ; 
* Measurement: Satyr 3 R5
* Smoothing: 1/6 octave
* Frequency Step: 96 ppo
* Start Frequency: 20.0 Hz
*
* Freq(Hz) SPL(dB) Phase(degrees)
20.141602 94.530 -30.1616
20.287556 94.547 -30.3991
20.434568 94.568 -30.7166
20.582645 94.590 -31.1046
20.731796 94.611 -31.5526
20.882027 94.627 -32.0499
21.033346 94.637 -32.5864
21.185763 94.639 -33.1529
21.339284 94.633 -33.7411
21.493917 94.620 -34.3445
21.649671 94.600 -34.9576
21.806553 94.574 -35.5764
21.964572 94.545 -36.1981
22.123737 94.513 -36.8210
22.284054 94.480 -37.4444
22.445534 94.449 -38.0681
22.608183 94.422 -38.6925
22.772012 94.399 -39.3182
22.937027 94.382 -39.9458
23.103238 94.372 -40.5757
23.270654 94.371 -41.2082
23.439282 94.379 -41.8432
23.609133 94.398 -42.4802
23.780215 94.429 -43.1187
23.952536 94.471 -43.7577
24.126106 94.526 -44.3963
24.300934 94.593 -45.0337
24.477028 94.672 -45.6689
24.654399 94.762 -46.3015
24.833055 94.862 -46.9310
25.013005 94.969 -47.5574
25.194260 95.081 -48.1809
25.376828 95.196 -48.8019
25.560719 95.313 -49.4210
25.745942 95.427 -50.0391
25.932508 95.539 -50.6569
26.120426 95.645 -51.2753
26.309705 95.745 -51.8952
26.500356 95.837 -52.5173
26.692388 95.922 -53.1426
26.885812 95.999 -53.7716
27.080638 96.068 -54.4052
27.276876 96.132 -55.0442
27.474535 96.190 -55.6892
27.673627 96.246 -56.3410
27.874161 96.302 -57.0003
28.076149 96.361 -57.6676
28.279600 96.424 -58.3433
28.484526 96.497 -59.0272
28.690937 96.580 -59.7192
28.898843 96.677 -60.4184
29.108256 96.790 -61.1238
29.319186 96.918 -61.8341
29.531645 97.063 -62.5481
29.745644 97.222 -63.2644
29.961193 97.393 -63.9821
30.178304 97.573 -64.7004
30.396989 97.757 -65.4187
30.617258 97.941 -66.1368
30.839123 98.119 -66.8543
31.062596 98.287 -67.5707
31.287688 98.441 -68.2852
31.514412 98.575 -68.9967
31.742778 98.687 -69.7033
31.972800 98.773 -70.4031
32.204488 98.832 -71.0940
32.437855 98.862 -71.7742
32.672913 98.863 -72.4424
32.909674 98.837 -73.0979
33.148151 98.784 -73.7409
33.388356 98.707 -74.3726
33.630302 98.609 -74.9949
33.874001 98.493 -75.6099
34.119466 98.363 -76.2201
34.366710 98.223 -76.8277
34.615745 98.078 -77.4346
34.866585 97.932 -78.0419
35.119243 97.790 -78.6501
35.373731 97.655 -79.2588
35.630064 97.531 -79.8673
35.888254 97.422 -80.4743
36.148315 97.332 -81.0783
36.410261 97.262 -81.6779
36.674104 97.215 -82.2719
36.939860 97.192 -82.8600
37.207542 97.194 -83.4420
37.477163 97.221 -84.0186
37.748738 97.273 -84.5911
38.022281 97.348 -85.1608
38.297806 97.447 -85.7294
38.575327 97.566 -86.2987
38.854860 97.706 -86.8702
39.136419 97.866 -87.4450
39.420017 98.043 -88.0243
39.705671 98.236 -88.6090
39.993395 98.446 -89.1998
40.283203 98.669 -89.7974
40.575112 98.906 -90.4023
40.869136 99.154 -91.0150
41.165290 99.413 -91.6357
41.463591 99.679 -92.2641
41.764053 99.952 -92.8998
42.066693 100.229 -93.5422
42.371525 100.509 -94.1904
42.678567 100.788 -94.8432
42.987834 101.064 -95.4999
43.299341 101.336 -96.1594
43.613106 101.601 -96.8214
43.929145 101.856 -97.4854
44.247473 102.100 -98.1516
44.568109 102.330 -98.8202
44.891068 102.545 -99.4917
45.216367 102.744 -100.1666
45.544023 102.926 -100.8455
45.874054 103.090 -101.5287
46.206476 103.235 -102.2166
46.541307 103.362 -102.9095
46.878565 103.471 -103.6074
47.218266 103.561 -104.3099
47.560429 103.635 -105.0165
47.905072 103.693 -105.7265
48.252212 103.736 -106.4389
48.601867 103.766 -107.1529
48.954056 103.784 -107.8678
49.308798 103.792 -108.5836
49.666109 103.793 -109.3006
50.026010 103.788 -110.0196
50.388520 103.779 -110.7418
50.753656 103.768 -111.4682
51.121437 103.756 -112.2000
51.491884 103.745 -112.9376
51.865016 103.737 -113.6813
52.240851 103.730 -114.4305
52.619410 103.726 -115.1844
53.000712 103.725 -115.9414
53.384777 103.726 -116.6999
53.771625 103.729 -117.4584
54.161276 103.733 -118.2154
54.553751 103.739 -118.9698
54.949070 103.744 -119.7212
55.347254 103.749 -120.4695
55.748323 103.752 -121.2154
56.152298 103.753 -121.9597
56.559201 103.751 -122.7032
56.969052 103.746 -123.4465
57.381873 103.737 -124.1898
57.797686 103.725 -124.9333
58.216512 103.709 -125.6767
58.638373 103.689 -126.4201
59.063291 103.665 -127.1638
59.491288 103.637 -127.9084
59.922386 103.606 -128.6543
60.356608 103.571 -129.4022
60.793977 103.533 -130.1525
61.234515 103.492 -130.9053
61.678246 103.450 -131.6606
62.125192 103.406 -132.4180
62.575377 103.362 -133.1765
63.028824 103.318 -133.9352
63.485557 103.275 -134.6930
63.945599 103.234 -135.4487
64.408975 103.194 -136.2014
64.875709 103.157 -136.9501
65.345825 103.122 -137.6943
65.819348 103.090 -138.4334
66.296302 103.060 -139.1671
66.776713 103.034 -139.8954
67.260604 103.009 -140.6184
67.748002 102.987 -141.3361
68.238932 102.967 -142.0488
68.733420 102.948 -142.7563
69.231490 102.931 -143.4584
69.733170 102.915 -144.1546
70.238485 102.899 -144.8444
70.747463 102.884 -145.5271
71.260128 102.869 -146.2023
71.776508 102.855 -146.8697
72.296630 102.841 -147.5291
72.820521 102.827 -148.1808
73.348209 102.813 -148.8251
73.879720 102.799 -149.4621
74.415083 102.786 -150.0921
74.954326 102.772 -150.7154
75.497475 102.759 -151.3320
76.044561 102.744 -151.9420
76.595612 102.729 -152.5452
77.150655 102.712 -153.1419
77.709720 102.693 -153.7322
78.272837 102.671 -154.3163
78.840034 102.646 -154.8944
79.411342 102.618 -155.4667
79.986789 102.586 -156.0334
80.566406 102.550 -156.5947
81.150224 102.511 -157.1504
81.738272 102.468 -157.7008
82.330581 102.423 -158.2455
82.927182 102.375 -158.7845
83.528107 102.327 -159.3175
84.133386 102.279 -159.8442
84.743051 102.235 -160.3646
85.357134 102.196 -160.8788
85.975667 102.166 -161.3870
86.598682 102.147 -161.8896
87.226212 102.143 -162.3869
87.858289 102.158 -162.8793
88.494946 102.194 -163.3668
89.136217 102.252 -163.8500
89.782135 102.335 -164.3289
90.432733 102.440 -164.8039
91.088046 102.566 -165.2749
91.748108 102.711 -165.7420
92.412952 102.869 -166.2050
93.082615 103.035 -166.6635
93.757130 103.205 -167.1175
94.436533 103.372 -167.5665
95.120859 103.532 -168.0106
95.810144 103.680 -168.4493
96.504423 103.814 -168.8825
97.203734 103.932 -169.3098
97.908112 104.032 -169.7310
98.617595 104.114 -170.1458
99.332219 104.179 -170.5543
100.052021 104.230 -170.9565
100.777039 104.267 -171.3524
101.507311 104.294 -171.7422
102.242875 104.311 -172.1262
102.983769 104.322 -172.5047
103.730032 104.327 -172.8781
104.481702 104.327 -173.2466
105.238820 104.323 -173.6104
106.001424 104.313 -173.9696
106.769554 104.297 -174.3238
107.543250 104.274 -174.6725
108.322553 104.241 -175.0151
109.107503 104.197 -175.3515
109.898141 104.142 -175.6813
110.694508 104.073 -176.0048
111.496646 103.990 -176.3224
112.304596 103.894 -176.6346
113.118402 103.786 -176.9422
113.938104 103.667 -177.2456
114.763747 103.540 -177.5456
115.595372 103.405 -177.8427
116.433024 103.266 -178.1372
117.276746 103.125 -178.4293
118.126581 102.984 -178.7188
118.982575 102.845 -179.0050
119.844772 102.707 -179.2875
120.713217 102.573 -179.5657
121.587954 102.441 -179.8395
122.469031 102.312 179.8911
123.356492 102.183 179.6259
124.250384 102.055 179.3650
125.150753 101.926 179.1082
126.057647 101.793 178.8556
126.971113 101.657 178.6072
127.891198 101.515 178.3630
128.817950 101.367 178.1230
129.751418 101.213 177.8869
130.691651 101.053 177.6546
131.638696 100.887 177.4261
132.592604 100.718 177.2013
133.553425 100.547 176.9803
134.521208 100.376 176.7630
135.496004 100.209 176.5491
136.477864 100.049 176.3383
137.466839 99.899 176.1302
138.462981 99.762 175.9246
139.466340 99.641 175.7211
140.476971 99.538 175.5199
141.494925 99.452 175.3213
142.520256 99.385 175.1259
143.553016 99.333 174.9347
144.593260 99.295 174.7488
145.641043 99.266 174.5698
146.696418 99.242 174.3987
147.759441 99.221 174.2371
148.830166 99.197 174.0862
149.908651 99.169 173.9474
150.994951 99.134 173.8219
152.089123 99.091 173.7110
153.191223 99.041 173.6160
154.301310 98.983 173.5379
155.419441 98.920 173.4775
156.545674 98.853 173.4352
157.680069 98.784 173.4112
158.822683 98.715 173.4051
159.973578 98.647 173.4162
161.132813 98.583 173.4435
162.300447 98.523 173.4861
163.476543 98.468 173.5428
164.661162 98.418 173.6129
165.854364 98.374 173.6957
167.056213 98.336 173.7907
168.266772 98.305 173.8970
169.486102 98.281 174.0139
170.714268 98.263 174.1400
171.951334 98.253 174.2740
173.197364 98.250 174.4144
174.452424 98.255 174.5593
175.716578 98.267 174.7069
176.989893 98.285 174.8550
178.272434 98.310 175.0015
179.564270 98.339 175.1443
180.865467 98.371 175.2814
182.176092 98.406 175.4107
183.496216 98.442 175.5306
184.825905 98.478 175.6396
186.165229 98.513 175.7365
187.514259 98.547 175.8200
188.873065 98.580 175.8896
190.241717 98.611 175.9445
191.620287 98.642 175.9843
193.008847 98.673 176.0090
194.407468 98.703 176.0185
195.816225 98.733 176.0131
197.235190 98.762 175.9932
198.664438 98.791 175.9594
200.104042 98.819 175.9127
201.554078 98.846 175.8538
203.014622 98.870 175.7841
204.485750 98.891 175.7049
205.967538 98.909 175.6174
207.460064 98.923 175.5228
208.963405 98.933 175.4220
210.477640 98.939 175.3159
212.002848 98.940 175.2053
213.539108 98.937 175.0907
215.086500 98.931 174.9727
216.645105 98.921 174.8518
218.215005 98.908 174.7286
219.796281 98.893 174.6038
221.389015 98.874 174.4778
222.993292 98.852 174.3513
224.609193 98.826 174.2250
226.236804 98.796 174.0994
227.876209 98.760 173.9750
229.527494 98.719 173.8524
231.190745 98.672 173.7317
232.866048 98.619 173.6132
234.553491 98.560 173.4970
236.253163 98.497 173.3831
237.965150 98.428 173.2718
239.689544 98.356 173.1631
241.426433 98.281 173.0571
243.175909 98.205 172.9538
244.938062 98.128 172.8531
246.712984 98.051 172.7546
248.500768 97.976 172.6579
250.301507 97.903 172.5625
252.115295 97.834 172.4681
253.942226 97.768 172.3747
255.782396 97.707 172.2823
257.635901 97.652 172.1910
259.502837 97.602 172.1012
261.383301 97.559 172.0130
263.277392 97.522 171.9265
265.185209 97.492 171.8418
267.106850 97.468 171.7589
269.042417 97.451 171.6782
270.992009 97.440 171.5999
272.955729 97.434 171.5241
274.933678 97.433 171.4513
276.925961 97.435 171.3812
278.932681 97.441 171.3138
280.953942 97.449 171.2490
282.989850 97.459 171.1864
285.040511 97.472 171.1262
287.106032 97.487 171.0682
289.186521 97.506 171.0123
291.282086 97.529 170.9586
293.392836 97.556 170.9067
295.518881 97.589 170.8566
297.660333 97.628 170.8081
299.817302 97.673 170.7614
301.989902 97.722 170.7166
304.178245 97.775 170.6735
306.382446 97.830 170.6326
308.602620 97.886 170.5938
310.838882 97.940 170.5574
313.091348 97.991 170.5237
315.360137 98.038 170.4927
317.645367 98.079 170.4647
319.947156 98.112 170.4393
322.265625 98.138 170.4161
324.600895 98.155 170.3947
326.953086 98.163 170.3741
329.322323 98.160 170.3538
331.708729 98.148 170.3330
334.112427 98.125 170.3113
336.533543 98.092 170.2885
338.972204 98.049 170.2645
341.428536 97.997 170.2396
343.902668 97.936 170.2139
346.394729 97.868 170.1877
348.904848 97.795 170.1614
351.433156 97.718 170.1351
353.979786 97.640 170.1094
356.544869 97.563 170.0846
359.128540 97.490 170.0611
361.730934 97.424 170.0392
364.352185 97.368 170.0189
366.992431 97.324 170.0001
369.651810 97.294 169.9825
372.330459 97.281 169.9654
375.028519 97.285 169.9485
377.746130 97.306 169.9313
380.483434 97.345 169.9137
383.240574 97.399 169.8958
386.017693 97.466 169.8779
388.814937 97.545 169.8601
391.632450 97.632 169.8427
394.470380 97.725 169.8260
397.328875 97.820 169.8101
400.208084 97.916 169.7954
403.108157 98.012 169.7819
406.029245 98.105 169.7696
408.971500 98.195 169.7583
411.935076 98.282 169.7480
414.920127 98.366 169.7382
417.926810 98.448 169.7290
420.955280 98.527 169.7203
424.005695 98.606 169.7123
427.078215 98.684 169.7053
430.173000 98.763 169.6996
433.290211 98.841 169.6957
436.430010 98.920 169.6938
439.592562 98.999 169.6938
442.778031 99.076 169.6960
445.986583 99.150 169.6999
449.218386 99.221 169.7054
452.473607 99.286 169.7122
455.752418 99.344 169.7198
459.054987 99.393 169.7282
462.381489 99.433 169.7374
465.732096 99.463 169.7473
469.106983 99.482 169.7582
472.506325 99.491 169.7700
475.930301 99.490 169.7827
479.379088 99.481 169.7963
482.852867 99.463 169.8107
486.351817 99.439 169.8260
489.876123 99.409 169.8423
493.425968 99.374 169.8599
497.001536 99.335 169.8787
500.603014 99.293 169.8987
504.230589 99.248 169.9198
507.884452 99.200 169.9420
511.564792 99.149 169.9651
515.271802 99.096 169.9889
519.005673 99.041 170.0135
522.766602 98.986 170.0388
526.554785 98.930 170.0651
530.370418 98.877 170.0922
534.213700 98.827 170.1199
538.084833 98.783 170.1476
541.984018 98.747 170.1747
545.911457 98.720 170.2002
549.867357 98.702 170.2235
553.851922 98.694 170.2442
557.865362 98.695 170.2621
561.907884 98.704 170.2772
565.979700 98.718 170.2894
570.081022 98.736 170.2991
574.212064 98.755 170.3064
578.373042 98.774 170.3117
582.564171 98.790 170.3155
586.785671 98.802 170.3184
591.037762 98.808 170.3210
595.320665 98.809 170.3242
599.634604 98.802 170.3285
603.979804 98.788 170.3348
608.356491 98.768 170.3437
612.764893 98.741 170.3558
617.205240 98.709 170.3715
621.677763 98.673 170.3902
626.182696 98.634 170.4111
630.720274 98.595 170.4329
635.290733 98.558 170.4534
639.894312 98.524 170.4709
644.531250 98.495 170.4837
649.201789 98.472 170.4904
653.906173 98.456 170.4901
658.644647 98.449 170.4821
663.417457 98.448 170.4663
668.224854 98.455 170.4427
673.067086 98.467 170.4116
677.944408 98.483 170.3736
682.857073 98.501 170.3296
687.805336 98.520 170.2805
692.789457 98.538 170.2273
697.809695 98.553 170.1707
702.866312 98.565 170.1112
707.959571 98.573 170.0489
713.089738 98.576 169.9836
718.257080 98.574 169.9153
723.461867 98.568 169.8436
728.704370 98.556 169.7687
733.984862 98.541 169.6907
739.303619 98.522 169.6099
744.660918 98.500 169.5271
750.057038 98.475 169.4428
755.492260 98.449 169.3578
760.966869 98.422 169.2729
766.481148 98.394 169.1887
772.035387 98.364 169.1052
777.629873 98.332 169.0222
783.264900 98.298 168.9388
788.940760 98.262 168.8536
794.657750 98.221 168.7650
800.416168 98.176 168.6714
806.216313 98.126 168.5714
812.058489 98.069 168.4641
817.943000 98.006 168.3487
823.870152 97.936 168.2252
829.840255 97.860 168.0939
835.853619 97.777 167.9553
841.910559 97.689 167.8102
848.011390 97.596 167.6594
854.156430 97.500 167.5038
860.346000 97.400 167.3444
866.580422 97.299 167.1825
872.860020 97.198 167.0196
879.185124 97.097 166.8574
885.556062 96.997 166.6979
891.973166 96.900 166.5430
898.436771 96.808 166.3942
904.947215 96.720 166.2534
911.504835 96.640 166.1215
918.109975 96.567 165.9998
924.762978 96.502 165.8886
931.464192 96.448 165.7880
938.213966 96.404 165.6972
945.012651 96.370 165.6151
951.860602 96.346 165.5399
958.758176 96.333 165.4699
965.705733 96.330 165.4033
972.703635 96.335 165.3382
979.752246 96.348 165.2729
986.851935 96.368 165.2054
994.003071 96.395 165.1335
1001.206027 96.428 165.0550
1008.461179 96.466 164.9679
1015.768904 96.510 164.8702
1023.129584 96.560 164.7604
1030.543603 96.615 164.6374
1038.011347 96.676 164.5006
1045.533205 96.743 164.3500
1053.109569 96.816 164.1862
1060.740836 96.895 164.0096
1068.427401 96.980 163.8210
1076.169666 97.069 163.6210
1083.968035 97.161 163.4105
1091.822915 97.254 163.1907
1099.734713 97.347 162.9631
1107.703844 97.437 162.7294
1115.730723 97.523 162.4916
1123.815768 97.602 162.2524
1131.959400 97.673 162.0146
1140.162045 97.735 161.7820
1148.424129 97.788 161.5582
1156.746083 97.832 161.3474
1165.128342 97.867 161.1529
1173.571343 97.895 160.9777
1182.075524 97.917 160.8231
1190.641331 97.937 160.6893
1199.269209 97.954 160.5748
1207.959608 97.970 160.4771
1216.712981 97.987 160.3933
1225.529785 98.005 160.3204
1234.410479 98.023 160.2564
1243.355526 98.042 160.1996
1252.365393 98.060 160.1492
1261.440549 98.076 160.1056
1270.581467 98.090 160.0696
1279.788624 98.100 160.0435
1289.062500 98.107 160.0297
1298.403578 98.110 160.0310
1307.812346 98.109 160.0498
1317.289293 98.105 160.0875
1326.834914 98.098 160.1439
1336.449707 98.091 160.2172
1346.134173 98.082 160.3043
1355.888816 98.073 160.4006
1365.714145 98.064 160.5016
1375.610673 98.054 160.6029
1385.578915 98.044 160.7015
1395.619391 98.032 160.7958
1405.732624 98.018 160.8864
1415.919142 98.001 160.9759
1426.179476 97.981 161.0682
1436.514160 97.959 161.1681
1446.923734 97.936 161.2806
1457.408740 97.912 161.4101
1467.969724 97.888 161.5597
1478.607238 97.868 161.7307
1489.321836 97.851 161.9224
1500.114076 97.839 162.1321
1510.984521 97.833 162.3557
1521.933737 97.834 162.5881
1532.962297 97.841 162.8249
1544.070773 97.853 163.0623
1555.259747 97.870 163.2986
1566.529800 97.890 163.5338
1577.881521 97.914 163.7691
1589.315501 97.940 164.0060
1600.832336 97.969 164.2454
1612.432627 97.999 164.4866
1624.116978 98.030 164.7278
1635.886000 98.063 164.9665
1647.740304 98.098 165.2008
1659.680509 98.133 165.4293
1671.707238 98.170 165.6521
1683.821118 98.207 165.8702
1696.022780 98.245 166.0855
1708.312860 98.285 166.3000
1720.692000 98.326 166.5157
1733.160843 98.370 166.7335
1745.720041 98.416 166.9524
1758.370248 98.465 167.1699
1771.112124 98.517 167.3817
1783.946332 98.571 167.5829
1796.873543 98.626 167.7691
1809.894429 98.681 167.9373
1823.009670 98.735 168.0872
1836.219950 98.787 168.2204
1849.525956 98.836 168.3403
1862.928384 98.882 168.4512
1876.427931 98.926 168.5577
1890.025301 98.967 168.6641
1903.721204 99.006 168.7736
1917.516352 99.044 168.8873
1931.411466 99.082 169.0051
1945.407270 99.120 169.1250
1959.504493 99.157 169.2444
1973.703870 99.193 169.3602
1988.006142 99.227 169.4693
2002.412054 99.259 169.5683
2016.922357 99.286 169.6543
2031.537808 99.308 169.7250
2046.259169 99.324 169.7786
2061.087206 99.333 169.8137
2076.022694 99.335 169.8292
2091.066410 99.328 169.8247
2106.219139 99.313 169.8013
2121.481671 99.291 169.7614
2136.854802 99.261 169.7083
2152.339333 99.226 169.6448
2167.936071 99.186 169.5726
2183.645829 99.144 169.4919
2199.469427 99.101 169.4020
2215.407689 99.058 169.3014
2231.461446 99.016 169.1890
2247.631536 98.976 169.0641
2263.918800 98.938 168.9266
2280.324089 98.902 168.7766
2296.848258 98.869 168.6141
2313.492167 98.839 168.4387
2330.256685 98.810 168.2495
2347.142685 98.783 168.0451
2364.151049 98.757 167.8242
2381.282662 98.732 167.5864
2398.538418 98.706 167.3325
2415.919216 98.680 167.0640
2433.425962 98.652 166.7828
2451.059570 98.624 166.4902
2468.820958 98.594 166.1873
2486.711052 98.563 165.8743
2504.730786 98.531 165.5517
2522.881098 98.499 165.2203
2541.162934 98.466 164.8817
2559.577248 98.432 164.5380
2578.125000 98.399 164.1920
2596.807157 98.367 163.8467
2615.624692 98.335 163.5055
2634.578586 98.306 163.1717
2653.669829 98.280 162.8486
2672.899414 98.258 162.5400
2692.268345 98.239 162.2496
2711.777632 98.225 161.9818
2731.428290 98.215 161.7409
2751.221345 98.209 161.5314
2771.157829 98.207 161.3573
2791.238781 98.207 161.2221
2811.465248 98.208 161.1293
2831.838284 98.210 161.0823
2852.358952 98.210 161.0844
2873.028321 98.208 161.1388
2893.847468 98.201 161.2493
2914.817480 98.189 161.4196
2935.939449 98.172 161.6534
2957.214476 98.148 161.9540
2978.643672 98.119 162.3236
3000.228152 98.083 162.7629
3021.969041 98.044 163.2708
3043.867475 98.000 163.8440
3065.924593 97.955 164.4777
3088.141547 97.910 165.1656
3110.519493 97.865 165.9007
3133.059600 97.824 166.6747
3155.763041 97.788 167.4779
3178.631001 97.759 168.2985
3201.664672 97.737 169.1228
3224.865254 97.726 169.9352
3248.233957 97.724 170.7196
3271.771999 97.732 171.4605
3295.480608 97.750 172.1445
3319.361019 97.774 172.7616
3343.414477 97.805 173.3060
3367.642236 97.840 173.7770
3392.045560 97.878 174.1786
3416.625721 97.916 174.5182
3441.383999 97.954 174.8056
