* Measurement data measured by REW V5.31.3
* Source: EXCL: Headset (USB-C to 3.5mm Headphone Jack Adapter), MICROPHONE (Master Volume), 0, volume: 0.750
* Format: 256k Log Swept Sine, 1 sweep at -12.0 dBFS with no timing reference
* Dated: Apr 1, 2025 10:34:06 PM
* REW Settings:
*  C-weighting compensation: Off
*  Target level: 75.0 dB
* Note: ; 
* Measurement: Satyr 3 (Massive Mod) R7
* Smoothing: 1/6 octave
* Frequency Step: 96 ppo
* Start Frequency: 20.0 Hz
*
* Freq(Hz) SPL(dB) Phase(degrees)
20.187378 88.071 -115.8839
20.333664 88.102 -115.9583
20.481010 88.145 -116.0580
20.629424 88.197 -116.1807
20.778913 88.258 -116.3244
20.929486 88.325 -116.4881
21.081150 88.398 -116.6718
21.233912 88.475 -116.8766
21.387782 88.555 -117.1044
21.542767 88.637 -117.3577
21.698874 88.722 -117.6388
21.856113 88.806 -117.9499
22.014492 88.891 -118.2920
22.174018 88.975 -118.6653
22.334700 89.057 -119.0684
22.496546 89.136 -119.4984
22.659566 89.213 -119.9513
22.823766 89.286 -120.4217
22.989157 89.354 -120.9035
23.155745 89.418 -121.3904
23.323542 89.478 -121.8763
23.492554 89.532 -122.3557
23.662790 89.582 -122.8245
23.834261 89.627 -123.2800
24.006973 89.667 -123.7212
24.180938 89.703 -124.1486
24.356163 89.735 -124.5638
24.532658 89.763 -124.9696
24.710431 89.787 -125.3690
24.889493 89.808 -125.7649
25.069853 89.825 -126.1598
25.251519 89.839 -126.5554
25.434502 89.850 -126.9524
25.618811 89.858 -127.3506
25.804456 89.863 -127.7493
25.991445 89.867 -128.1472
26.179790 89.870 -128.5434
26.369500 89.872 -128.9367
26.560584 89.874 -129.3270
26.753053 89.876 -129.7146
26.946917 89.880 -130.1006
27.142185 89.884 -130.4863
27.338869 89.889 -130.8739
27.536977 89.895 -131.2654
27.736522 89.902 -131.6625
27.937512 89.909 -132.0669
28.139959 89.916 -132.4794
28.343872 89.924 -132.9005
28.549264 89.932 -133.3300
28.756143 89.940 -133.7667
28.964522 89.949 -134.2094
29.174411 89.959 -134.6558
29.385821 89.970 -135.1038
29.598763 89.982 -135.5509
29.813248 89.997 -135.9948
30.029287 90.015 -136.4334
30.246891 90.036 -136.8654
30.466073 90.060 -137.2900
30.686842 90.088 -137.7074
30.909212 90.119 -138.1184
31.133193 90.154 -138.5240
31.358797 90.192 -138.9257
31.586035 90.233 -139.3248
31.814921 90.278 -139.7220
32.045465 90.325 -140.1176
32.277680 90.375 -140.5110
32.511577 90.427 -140.9012
32.747169 90.483 -141.2868
32.984469 90.540 -141.6662
33.223488 90.601 -142.0381
33.464239 90.664 -142.4012
33.706735 90.730 -142.7550
33.950987 90.799 -143.0991
34.197010 90.869 -143.4339
34.444816 90.941 -143.7602
34.694417 91.013 -144.0788
34.945827 91.086 -144.3911
35.199059 91.159 -144.6982
35.454126 91.232 -145.0014
35.711041 91.303 -145.3013
35.969818 91.374 -145.5983
36.230470 91.443 -145.8925
36.493011 91.511 -146.1831
36.757455 91.578 -146.4697
37.023814 91.645 -146.7517
37.292104 91.711 -147.0289
37.562338 91.777 -147.3016
37.834530 91.844 -147.5709
38.108695 91.910 -147.8385
38.384846 91.978 -148.1064
38.662999 92.045 -148.3770
38.943167 92.113 -148.6525
39.225365 92.180 -148.9349
39.509608 92.248 -149.2257
39.795911 92.315 -149.5261
40.084289 92.381 -149.8367
40.374756 92.446 -150.1574
40.667328 92.509 -150.4875
40.962020 92.571 -150.8259
41.258848 92.631 -151.1713
41.557827 92.689 -151.5222
41.858972 92.745 -151.8779
42.162299 92.799 -152.2381
42.467824 92.852 -152.6033
42.775564 92.903 -152.9748
43.085533 92.953 -153.3539
43.397749 93.001 -153.7419
43.712227 93.047 -154.1392
44.028983 93.091 -154.5454
44.348036 93.134 -154.9593
44.669400 93.175 -155.3788
44.993093 93.214 -155.8015
45.319131 93.251 -156.2251
45.647532 93.288 -156.6477
45.978313 93.323 -157.0680
46.311491 93.357 -157.4857
46.647083 93.390 -157.9011
46.985107 93.422 -158.3154
47.325581 93.452 -158.7298
47.668521 93.481 -159.1457
48.013947 93.506 -159.5645
48.361876 93.529 -159.9870
48.712326 93.549 -160.4137
49.065315 93.565 -160.8443
49.420863 93.578 -161.2786
49.778987 93.587 -161.7158
50.139706 93.595 -162.1549
50.503039 93.600 -162.5949
50.869005 93.603 -163.0347
51.237623 93.606 -163.4734
51.608912 93.607 -163.9106
51.982891 93.607 -164.3461
52.359580 93.607 -164.7805
52.739000 93.606 -165.2148
53.121168 93.604 -165.6505
53.506106 93.602 -166.0888
53.893833 93.599 -166.5309
54.284370 93.595 -166.9775
54.677737 93.591 -167.4286
55.073955 93.587 -167.8841
55.473043 93.582 -168.3435
55.875024 93.576 -168.8063
56.279917 93.569 -169.2725
56.687745 93.563 -169.7419
57.098527 93.555 -170.2143
57.512287 93.548 -170.6891
57.929045 93.542 -171.1647
58.348822 93.536 -171.6384
58.771642 93.532 -172.1063
59.197525 93.530 -172.5639
59.626495 93.532 -173.0075
60.058573 93.537 -173.4347
60.493782 93.546 -173.8453
60.932145 93.559 -174.2415
61.373685 93.575 -174.6267
61.818424 93.593 -175.0047
62.266386 93.614 -175.3793
62.717593 93.635 -175.7532
63.172071 93.657 -176.1286
63.629842 93.680 -176.5070
64.090930 93.703 -176.8889
64.555359 93.726 -177.2746
65.023154 93.749 -177.6638
65.494339 93.772 -178.0558
65.968938 93.794 -178.4499
66.446976 93.816 -178.8450
66.928478 93.836 -179.2404
67.413469 93.856 -179.6349
67.901975 93.874 179.9722
68.394021 93.890 179.5818
68.889632 93.905 179.1943
69.388835 93.918 178.8099
69.891655 93.929 178.4282
70.398118 93.938 178.0488
70.908252 93.945 177.6713
71.422083 93.950 177.2954
71.939636 93.952 176.9211
72.460941 93.952 176.5489
72.986023 93.950 176.1793
73.514909 93.945 175.8130
74.047629 93.937 175.4506
74.584208 93.928 175.0924
75.124676 93.915 174.7387
75.669061 93.901 174.3895
76.217390 93.884 174.0447
76.769692 93.865 173.7040
77.325997 93.844 173.3673
77.886333 93.821 173.0341
78.450730 93.796 172.7038
79.019216 93.769 172.3759
79.591822 93.742 172.0501
80.168577 93.713 171.7261
80.749512 93.683 171.4037
81.334656 93.653 171.0830
81.924040 93.623 170.7642
82.517696 93.592 170.4474
83.115653 93.560 170.1326
83.717943 93.529 169.8200
84.324598 93.497 169.5096
84.935649 93.465 169.2016
85.551128 93.432 168.8959
86.171066 93.400 168.5926
86.795497 93.367 168.2921
87.424453 93.334 167.9944
88.057967 93.300 167.7000
88.696071 93.266 167.4089
89.338800 93.232 167.1216
89.986185 93.198 166.8381
90.638262 93.164 166.5586
91.295065 93.129 166.2832
91.956626 93.094 166.0118
92.622982 93.058 165.7444
93.294166 93.023 165.4809
93.970214 92.987 165.2210
94.651161 92.952 164.9647
95.337042 92.916 164.7118
96.027894 92.881 164.4623
96.723752 92.845 164.2159
97.424652 92.810 163.9724
98.130631 92.775 163.7316
98.841726 92.741 163.4935
99.557974 92.707 163.2581
100.279412 92.674 163.0258
101.006078 92.642 162.7967
101.738010 92.610 162.5712
102.475245 92.580 162.3493
103.217823 92.550 162.1311
103.965782 92.522 161.9165
104.719161 92.496 161.7053
105.477999 92.471 161.4971
106.242336 92.447 161.2918
107.012212 92.425 161.0888
107.787666 92.404 160.8879
108.568740 92.385 160.6888
109.355474 92.367 160.4911
110.147909 92.349 160.2946
110.946086 92.333 160.0991
111.750047 92.317 159.9042
112.559834 92.302 159.7098
113.375489 92.288 159.5160
114.197055 92.273 159.3226
115.024574 92.259 159.1300
115.858089 92.245 158.9385
116.697645 92.230 158.7485
117.543284 92.216 158.5604
118.395051 92.202 158.3746
119.252990 92.188 158.1910
120.117147 92.173 158.0098
120.987565 92.159 157.8306
121.864291 92.145 157.6533
122.747370 92.130 157.4777
123.636848 92.115 157.3040
124.532771 92.100 157.1324
125.435187 92.084 156.9633
126.344142 92.067 156.7967
127.259684 92.050 156.6327
128.181860 92.032 156.4711
129.110718 92.013 156.3115
130.046308 91.994 156.1534
130.988677 91.973 155.9961
131.937875 91.951 155.8395
132.893951 91.928 155.6834
133.856956 91.904 155.5283
134.826938 91.879 155.3745
135.803950 91.852 155.2224
136.788041 91.824 155.0725
137.779264 91.794 154.9247
138.777669 91.764 154.7791
139.783309 91.732 154.6353
140.796237 91.698 154.4933
141.816504 91.664 154.3528
142.844165 91.628 154.2139
143.879273 91.591 154.0766
144.921881 91.552 153.9413
145.972045 91.513 153.8084
147.029819 91.472 153.6784
148.095257 91.429 153.5519
149.168417 91.386 153.4298
150.249353 91.343 153.3128
151.338121 91.298 153.2016
152.434780 91.253 153.0968
153.539385 91.207 152.9989
154.651995 91.162 152.9083
155.772667 91.116 152.8255
156.901460 91.070 152.7510
158.038432 91.023 152.6854
159.183644 90.978 152.6295
160.337154 90.932 152.5837
161.499023 90.887 152.5488
162.669312 90.842 152.5251
163.848081 90.799 152.5131
165.035392 90.756 152.5126
166.231306 90.714 152.5236
167.435887 90.674 152.5455
168.649196 90.636 152.5781
169.871298 90.599 152.6208
171.102255 90.564 152.6734
172.342133 90.532 152.7352
173.590995 90.501 152.8056
174.848907 90.473 152.8835
176.115934 90.446 152.9678
177.392143 90.422 153.0571
178.677599 90.401 153.1499
179.972371 90.381 153.2449
181.276525 90.364 153.3402
182.590129 90.348 153.4340
183.913252 90.335 153.5239
185.245964 90.325 153.6078
186.588332 90.316 153.6834
187.940428 90.309 153.7487
189.302322 90.303 153.8019
190.674085 90.299 153.8417
192.055788 90.297 153.8668
193.447503 90.294 153.8765
194.849303 90.293 153.8706
196.261262 90.291 153.8499
197.683452 90.290 153.8156
199.115948 90.289 153.7698
200.558824 90.288 153.7147
202.012156 90.286 153.6524
203.476019 90.284 153.5844
204.950490 90.281 153.5116
206.435646 90.278 153.4342
207.931564 90.274 153.3521
209.438322 90.269 153.2647
210.955998 90.264 153.1719
212.484672 90.258 153.0734
214.024424 90.252 152.9692
215.575333 90.246 152.8594
217.137481 90.240 152.7439
218.710948 90.234 152.6223
220.295818 90.229 152.4944
221.892172 90.224 152.3605
223.500094 90.219 152.2213
225.119668 90.214 152.0776
226.750978 90.210 151.9309
228.394109 90.207 151.7825
230.049147 90.204 151.6337
231.716178 90.202 151.4859
233.395289 90.201 151.3400
235.086567 90.200 151.1967
236.790102 90.200 151.0560
238.505980 90.201 150.9178
240.234293 90.202 150.7817
241.975130 90.204 150.6471
243.728581 90.206 150.5135
245.494739 90.209 150.3804
247.273695 90.211 150.2473
249.065542 90.213 150.1137
250.870374 90.216 149.9793
252.688284 90.218 149.8439
254.519367 90.219 149.7078
256.363720 90.220 149.5712
258.221437 90.220 149.4346
260.092616 90.220 149.2989
261.977354 90.219 149.1646
263.875750 90.217 149.0323
265.787903 90.215 148.9025
267.713911 90.213 148.7755
269.653877 90.211 148.6518
271.607900 90.208 148.5313
273.576083 90.205 148.4141
275.558528 90.202 148.2998
277.555338 90.199 148.1883
279.566619 90.196 148.0791
281.592474 90.194 147.9720
283.633009 90.192 147.8670
285.688331 90.191 147.7638
287.758546 90.190 147.6622
289.843763 90.190 147.5625
291.944090 90.190 147.4647
294.059638 90.192 147.3690
296.190515 90.194 147.2754
298.336833 90.197 147.1837
300.498705 90.200 147.0934
302.676243 90.205 147.0035
304.869559 90.209 146.9136
307.078770 90.215 146.8228
309.303989 90.220 146.7310
311.545334 90.226 146.6378
313.802919 90.231 146.5431
316.076865 90.237 146.4467
318.367288 90.243 146.3487
320.674309 90.249 146.2494
322.998047 90.254 146.1489
325.338624 90.260 146.0477
327.696162 90.265 145.9459
330.070783 90.269 145.8434
332.462612 90.273 145.7404
334.871773 90.276 145.6364
337.298392 90.278 145.5312
339.742595 90.279 145.4243
342.204510 90.278 145.3156
344.684265 90.275 145.2053
347.181989 90.271 145.0944
349.697813 90.265 144.9846
352.231868 90.256 144.8779
354.784285 90.246 144.7773
357.355198 90.234 144.6852
359.944741 90.220 144.6042
362.553049 90.206 144.5355
365.180258 90.193 144.4791
367.826505 90.179 144.4332
370.491927 90.167 144.3947
373.176665 90.156 144.3598
375.880856 90.146 144.3248
378.604644 90.138 144.2867
381.348169 90.131 144.2434
384.111575 90.124 144.1939
386.895006 90.117 144.1381
389.698607 90.111 144.0764
392.522524 90.104 144.0093
395.366904 90.097 143.9377
398.231895 90.090 143.8618
401.117648 90.081 143.7823
404.024312 90.072 143.6995
406.952038 90.062 143.6139
409.900981 90.051 143.5258
412.871292 90.039 143.4359
415.863128 90.025 143.3444
418.876643 90.010 143.2519
421.911996 89.994 143.1588
424.969344 89.976 143.0655
428.048847 89.956 142.9725
431.150666 89.935 142.8800
434.274961 89.912 142.7881
437.421897 89.888 142.6967
440.591636 89.861 142.6056
443.784345 89.834 142.5146
447.000189 89.805 142.4235
450.239337 89.776 142.3322
453.501956 89.746 142.2408
456.788219 89.715 142.1493
460.098294 89.684 142.0579
463.432356 89.653 141.9667
466.790578 89.622 141.8756
470.173135 89.592 141.7846
473.580203 89.562 141.6932
477.011961 89.534 141.6012
480.468586 89.506 141.5078
483.950259 89.478 141.4127
487.457163 89.452 141.3152
490.989478 89.428 141.2151
494.547390 89.404 141.1119
498.131084 89.381 141.0050
501.740748 89.360 140.8943
505.376568 89.341 140.7797
509.038735 89.322 140.6612
512.727439 89.304 140.5391
516.442874 89.288 140.4141
520.185232 89.272 140.2867
523.954708 89.257 140.1582
527.751500 89.242 140.0304
531.575805 89.228 139.9057
535.427822 89.214 139.7873
539.307753 89.201 139.6791
543.215800 89.189 139.5850
547.152165 89.179 139.5081
551.117055 89.171 139.4500
555.110677 89.166 139.4100
559.133237 89.165 139.3846
563.184947 89.168 139.3683
567.266018 89.176 139.3544
571.376661 89.188 139.3372
575.517092 89.202 139.3116
579.687526 89.220 139.2745
583.888181 89.239 139.2244
588.119275 89.259 139.1610
592.381030 89.278 139.0853
596.673667 89.298 138.9990
600.997410 89.316 138.9039
605.352485 89.333 138.8022
609.739119 89.349 138.6956
614.157540 89.363 138.5857
618.607979 89.375 138.4740
623.090667 89.386 138.3617
627.605839 89.395 138.2495
632.153730 89.402 138.1384
636.734576 89.408 138.0284
641.348617 89.412 137.9197
645.996094 89.415 137.8120
650.677248 89.417 137.7048
655.392323 89.418 137.5976
660.141566 89.418 137.4902
664.925224 89.416 137.3823
669.743546 89.414 137.2737
674.596784 89.410 137.1639
679.485191 89.406 137.0527
684.409020 89.401 136.9391
689.368530 89.396 136.8226
694.363979 89.390 136.7023
699.395626 89.383 136.5773
704.463736 89.375 136.4474
709.568570 89.366 136.3126
714.710396 89.356 136.1731
719.889483 89.345 136.0297
725.106099 89.332 135.8832
730.360516 89.317 135.7343
735.653010 89.301 135.5832
740.983855 89.283 135.4299
746.353329 89.264 135.2741
751.761713 89.244 135.1154
757.209288 89.221 134.9532
762.696339 89.198 134.7878
768.223151 89.173 134.6194
773.790013 89.146 134.4487
779.397214 89.118 134.2766
785.045047 89.088 134.1039
790.733808 89.058 133.9310
796.463791 89.028 133.7578
802.235296 88.997 133.5837
808.048623 88.966 133.4078
813.904077 88.935 133.2291
819.801961 88.904 133.0470
825.742584 88.874 132.8611
831.726255 88.844 132.6714
837.753287 88.815 132.4779
843.823992 88.786 132.2804
849.938689 88.758 132.0786
856.097695 88.730 131.8724
862.301332 88.702 131.6619
868.549922 88.675 131.4474
874.843793 88.647 131.2293
881.183272 88.619 131.0087
887.568689 88.591 130.7865
894.000378 88.564 130.5635
900.478673 88.536 130.3404
907.003913 88.509 130.1176
913.576437 88.482 129.8950
920.196588 88.455 129.6726
926.864712 88.429 129.4506
933.581156 88.404 129.2294
940.346270 88.380 129.0098
947.160407 88.356 128.7927
954.023921 88.333 128.5791
960.937172 88.311 128.3703
967.900519 88.290 128.1671
974.914325 88.271 127.9704
981.978956 88.254 127.7808
989.094780 88.239 127.5984
996.262169 88.226 127.4227
1003.481495 88.217 127.2525
1010.753136 88.210 127.0858
1018.077470 88.207 126.9198
1025.454879 88.206 126.7515
1032.885748 88.208 126.5782
1040.370463 88.212 126.3979
1047.909417 88.218 126.2096
1055.503000 88.225 126.0134
1063.151610 88.232 125.8102
1070.855645 88.240 125.6011
1078.615506 88.247 125.3876
1086.431599 88.253 125.1710
1094.304330 88.257 124.9528
1102.234110 88.261 124.7349
1110.221353 88.263 124.5193
1118.266475 88.263 124.3081
1126.369895 88.261 124.1036
1134.532035 88.257 123.9080
1142.753322 88.251 123.7228
1151.034184 88.244 123.5490
1159.375052 88.236 123.3869
1167.776361 88.227 123.2362
1176.238550 88.216 123.0965
1184.762060 88.205 122.9673
1193.347334 88.194 122.8483
1201.994821 88.182 122.7392
1210.704971 88.169 122.6396
1219.478238 88.156 122.5494
1228.315080 88.142 122.4693
1237.215957 88.127 122.4004
1246.181334 88.113 122.3442
1255.211678 88.098 122.3022
1264.307459 88.083 122.2754
1273.469152 88.069 122.2641
1282.697235 88.056 122.2681
1291.992188 88.043 122.2868
1301.354495 88.032 122.3190
1310.784647 88.021 122.3633
1320.283132 88.012 122.4180
1329.850448 88.004 122.4816
1339.487093 87.997 122.5534
1349.193569 87.991 122.6330
1358.970381 87.986 122.7209
1368.818041 87.982 122.8179
1378.737061 87.979 122.9248
1388.727958 87.978 123.0422
1398.791253 87.978 123.1705
1408.927471 87.981 123.3099
1419.137140 87.986 123.4597
1429.420793 87.993 123.6190
1439.778965 88.004 123.7867
1450.212197 88.018 123.9614
1460.721033 88.034 124.1418
1471.306019 88.053 124.3269
1481.967709 88.075 124.5153
1492.706658 88.099 124.7065
1503.523426 88.124 124.9003
1514.418576 88.149 125.0969
1525.392678 88.175 125.2970
1536.446302 88.201 125.5019
1547.580025 88.225 125.7136
1558.794428 88.248 125.9349
1570.090095 88.269 126.1693
1581.467615 88.288 126.4203
1592.927581 88.305 126.6916
1604.470591 88.319 126.9862
1616.097246 88.333 127.3064
1627.808153 88.345 127.6530
1639.603922 88.358 128.0252
1651.485168 88.371 128.4200
1663.452510 88.386 128.8321
1675.506573 88.403 129.2552
1687.647984 88.423 129.6822
1699.877377 88.446 130.1058
1712.195390 88.471 130.5200
1724.602663 88.499 130.9191
1737.099845 88.529 131.2993
1749.687587 88.560 131.6583
1762.366544 88.592 131.9954
1775.137379 88.624 132.3113
1788.000756 88.656 132.6075
1800.957346 88.688 132.8861
1814.007826 88.720 133.1491
1827.152874 88.751 133.3981
1840.393177 88.781 133.6340
1853.729425 88.811 133.8567
1867.162312 88.841 134.0649
1880.692540 88.869 134.2568
1894.320813 88.897 134.4304
1908.047843 88.923 134.5833
1921.874344 88.948 134.7139
1935.801038 88.971 134.8210
1949.828650 88.991 134.9041
1963.957912 89.007 134.9637
1978.189561 89.021 135.0006
1992.524338 89.031 135.0165
2006.962991 89.037 135.0129
2021.506272 89.039 134.9913
2036.154940 89.038 134.9529
2050.909758 89.033 134.8984
2065.771495 89.025 134.8283
2080.740927 89.013 134.7429
2095.818833 88.999 134.6428
2111.006001 88.982 134.5288
2126.303220 88.962 134.4021
2141.711290 88.939 134.2639
2157.231013 88.914 134.1155
2172.863198 88.885 133.9588
2188.608660 88.855 133.7956
2204.468221 88.822 133.6280
2220.442706 88.787 133.4579
2236.532950 88.750 133.2873
2252.739789 88.712 133.1174
2269.064070 88.672 132.9492
2285.506644 88.631 132.7832
2302.068367 88.590 132.6198
2318.750104 88.547 132.4590
2335.552723 88.505 132.3013
2352.477101 88.463 132.1464
2369.524119 88.421 131.9944
2386.694668 88.379 131.8446
2403.989641 88.338 131.6959
2421.409941 88.299 131.5467
2438.956476 88.261 131.3953
2456.630160 88.224 131.2397
2474.431915 88.189 131.0778
2492.362668 88.155 130.9082
2510.423356 88.122 130.7297
2528.614918 88.090 130.5421
2546.938304 88.057 130.3462
2565.394469 88.024 130.1438
2583.984375 87.989 129.9376
2602.708991 87.953 129.7311
2621.569293 87.915 129.5284
2640.566265 87.875 129.3338
2659.700897 87.832 129.1521
2678.974186 87.786 128.9879
2698.387137 87.738 128.8458
2717.940763 87.687 128.7305
2737.636082 87.633 128.6469
2757.474121 87.576 128.5995
2777.455915 87.517 128.5933
2797.582506 87.456 128.6327
2817.854942 87.393 128.7220
2838.274281 87.329 128.8658
2858.841586 87.263 129.0684
2879.557931 87.196 129.3337
2900.424394 87.130 129.6660
2921.442065 87.063 130.0687
2942.612039 86.998 130.5449
2963.935418 86.934 131.0967
2985.413316 86.873 131.7255
3007.046852 86.815 132.4316
3028.837153 86.761 133.2143
3050.785356 86.712 134.0713
3072.892604 86.668 134.9990
3095.160050 86.631 135.9922
3117.588856 86.601 137.0435
3140.180190 86.579 138.1437
3162.935230 86.565 139.2816
3185.855163 86.561 140.4438
3208.941182 86.566 141.6152
3232.194493 86.580 142.7793
3255.616307 86.602 143.9195
3279.207844 86.632 145.0201
3302.970336 86.668 146.0676
3326.905021 86.710 147.0514
3351.013146 86.754 147.9648
3375.295969 86.800 148.8052
3399.754755 86.847 149.5733
3424.390779 86.893 150.2728
3449.205326 86.938 150.9084
3474.199690 86.981 151.4851
3499.375173 87.024 152.0063
3524.733088 87.067 152.4730
3550.274757 87.111 152.8831
