* Measurement data measured by REW V5.31.3
* Source: EXCL: Headset (USB-C to 3.5mm Headphone Jack Adapter), MICROPHONE (Master Volume), 0, volume: 0.260
* Format: 256k Log Swept Sine, 1 sweep at -12.0 dBFS with no timing reference
* Dated: Feb 14, 2025 1:50:33 PM
* REW Settings:
*  C-weighting compensation: Off
*  Target level: 75.0 dB
* Note: ; 
* Measurement: Satyr 3 R2
* Smoothing: 1/6 octave
* Frequency Step: 96 ppo
* Start Frequency: 20.0 Hz
*
* Freq(Hz) SPL(dB) Phase(degrees)
20.141602 94.916 -33.2616
20.287556 94.930 -33.4750
20.434568 94.948 -33.7594
20.582645 94.966 -34.1053
20.731796 94.982 -34.5026
20.882027 94.995 -34.9423
21.033346 95.001 -35.4166
21.185763 95.001 -35.9192
21.339284 94.994 -36.4455
21.493917 94.979 -36.9923
21.649671 94.958 -37.5572
21.806553 94.932 -38.1385
21.964572 94.901 -38.7346
22.123737 94.867 -39.3437
22.284054 94.831 -39.9640
22.445534 94.795 -40.5932
22.608183 94.761 -41.2288
22.772012 94.729 -41.8682
22.937027 94.702 -42.5089
23.103238 94.681 -43.1488
23.270654 94.667 -43.7862
23.439282 94.662 -44.4201
23.609133 94.666 -45.0504
23.780215 94.683 -45.6777
23.952536 94.711 -46.3031
24.126106 94.753 -46.9282
24.300934 94.807 -47.5547
24.477028 94.873 -48.1843
24.654399 94.952 -48.8182
24.833055 95.040 -49.4571
25.013005 95.136 -50.1011
25.194260 95.239 -50.7494
25.376828 95.346 -51.4008
25.560719 95.455 -52.0536
25.745942 95.565 -52.7061
25.932508 95.673 -53.3565
26.120426 95.778 -54.0034
26.309705 95.879 -54.6462
26.500356 95.975 -55.2846
26.692388 96.066 -55.9192
26.885812 96.150 -56.5512
27.080638 96.229 -57.1818
27.276876 96.303 -57.8128
27.474535 96.371 -58.4457
27.673627 96.435 -59.0816
27.874161 96.497 -59.7214
28.076149 96.559 -60.3652
28.279600 96.623 -61.0128
28.484526 96.692 -61.6638
28.690937 96.769 -62.3173
28.898843 96.858 -62.9727
29.108256 96.960 -63.6296
29.319186 97.077 -64.2878
29.531645 97.211 -64.9474
29.745644 97.359 -65.6091
29.961193 97.521 -66.2734
30.178304 97.694 -66.9410
30.396989 97.872 -67.6122
30.617258 98.052 -68.2871
30.839123 98.228 -68.9651
31.062596 98.395 -69.6453
31.287688 98.548 -70.3261
31.514412 98.682 -71.0059
31.742778 98.794 -71.6829
31.972800 98.881 -72.3556
32.204488 98.941 -73.0227
32.437855 98.973 -73.6835
32.672913 98.976 -74.3377
32.909674 98.952 -74.9857
33.148151 98.901 -75.6280
33.388356 98.826 -76.2654
33.630302 98.730 -76.8989
33.874001 98.616 -77.5292
34.119466 98.488 -78.1565
34.366710 98.350 -78.7811
34.615745 98.207 -79.4026
34.866585 98.063 -80.0204
35.119243 97.922 -80.6340
35.373731 97.788 -81.2427
35.630064 97.666 -81.8460
35.888254 97.558 -82.4439
36.148315 97.467 -83.0363
36.410261 97.397 -83.6235
36.674104 97.349 -84.2059
36.939860 97.323 -84.7836
37.207542 97.322 -85.3569
37.477163 97.344 -85.9259
37.748738 97.390 -86.4904
38.022281 97.460 -87.0504
38.297806 97.552 -87.6061
38.575327 97.666 -88.1578
38.854860 97.802 -88.7065
39.136419 97.957 -89.2531
39.420017 98.131 -89.7990
39.705671 98.323 -90.3457
39.993395 98.531 -90.8944
40.283203 98.754 -91.4465
40.575112 98.991 -92.0031
40.869136 99.239 -92.5651
41.165290 99.498 -93.1331
41.463591 99.765 -93.7078
41.764053 100.038 -94.2894
42.066693 100.316 -94.8782
42.371525 100.595 -95.4742
42.678567 100.875 -96.0772
42.987834 101.152 -96.6870
43.299341 101.423 -97.3036
43.613106 101.688 -97.9268
43.929145 101.942 -98.5570
44.247473 102.185 -99.1943
44.568109 102.414 -99.8393
44.891068 102.628 -100.4924
45.216367 102.826 -101.1539
45.544023 103.007 -101.8239
45.874054 103.169 -102.5023
46.206476 103.314 -103.1886
46.541307 103.440 -103.8819
46.878565 103.548 -104.5809
47.218266 103.639 -105.2842
47.560429 103.712 -105.9900
47.905072 103.770 -106.6971
48.252212 103.814 -107.4041
48.601867 103.844 -108.1106
48.954056 103.864 -108.8167
49.308798 103.873 -109.5226
49.666109 103.875 -110.2292
50.026010 103.871 -110.9370
50.388520 103.862 -111.6466
50.753656 103.851 -112.3587
51.121437 103.840 -113.0735
51.491884 103.829 -113.7915
51.865016 103.819 -114.5131
52.240851 103.812 -115.2385
52.619410 103.807 -115.9678
53.000712 103.806 -116.7008
53.384777 103.806 -117.4370
53.771625 103.809 -118.1758
54.161276 103.814 -118.9166
54.553751 103.818 -119.6587
54.949070 103.823 -120.4015
55.347254 103.826 -121.1445
55.748323 103.828 -121.8875
56.152298 103.827 -122.6300
56.559201 103.822 -123.3721
56.969052 103.815 -124.1132
57.381873 103.804 -124.8534
57.797686 103.789 -125.5924
58.216512 103.771 -126.3307
58.638373 103.748 -127.0689
59.063291 103.723 -127.8078
59.491288 103.694 -128.5486
59.922386 103.663 -129.2918
60.356608 103.630 -130.0375
60.793977 103.594 -130.7853
61.234515 103.557 -131.5340
61.678246 103.519 -132.2821
62.125192 103.480 -133.0283
62.575377 103.441 -133.7710
63.028824 103.402 -134.5094
63.485557 103.363 -135.2427
63.945599 103.326 -135.9706
64.408975 103.289 -136.6929
64.875709 103.254 -137.4101
65.345825 103.221 -138.1226
65.819348 103.190 -138.8312
66.296302 103.161 -139.5365
66.776713 103.133 -140.2392
67.260604 103.108 -140.9397
67.748002 103.085 -141.6382
68.238932 103.063 -142.3344
68.733420 103.043 -143.0277
69.231490 103.025 -143.7174
69.733170 103.008 -144.4026
70.238485 102.992 -145.0824
70.747463 102.976 -145.7559
71.260128 102.962 -146.4229
71.776508 102.948 -147.0833
72.296630 102.935 -147.7373
72.820521 102.922 -148.3852
73.348209 102.909 -149.0275
73.879720 102.896 -149.6644
74.415083 102.883 -150.2961
74.954326 102.870 -150.9223
75.497475 102.857 -151.5426
76.044561 102.842 -152.1566
76.595612 102.827 -152.7635
77.150655 102.810 -153.3629
77.709720 102.791 -153.9545
78.272837 102.770 -154.5380
78.840034 102.746 -155.1136
79.411342 102.719 -155.6817
79.986789 102.688 -156.2428
80.566406 102.653 -156.7972
81.150224 102.615 -157.3455
81.738272 102.573 -157.8882
82.330581 102.528 -158.4257
82.927182 102.480 -158.9583
83.528107 102.432 -159.4863
84.133386 102.384 -160.0096
84.743051 102.339 -160.5282
85.357134 102.300 -161.0420
85.975667 102.270 -161.5506
86.598682 102.251 -162.0539
87.226212 102.248 -162.5515
87.858289 102.263 -163.0434
88.494946 102.299 -163.5295
89.136217 102.358 -164.0100
89.782135 102.441 -164.4850
90.432733 102.548 -164.9546
91.088046 102.675 -165.4189
91.748108 102.821 -165.8780
92.412952 102.980 -166.3318
93.082615 103.148 -166.7804
93.757130 103.318 -167.2235
94.436533 103.486 -167.6612
95.120859 103.646 -168.0935
95.810144 103.795 -168.5204
96.504423 103.930 -168.9422
97.203734 104.047 -169.3589
97.908112 104.147 -169.7708
98.617595 104.229 -170.1782
99.332219 104.295 -170.5815
100.052021 104.345 -170.9811
100.777039 104.382 -171.3771
101.507311 104.409 -171.7698
102.242875 104.427 -172.1590
102.983769 104.438 -172.5445
103.730032 104.444 -172.9260
104.481702 104.445 -173.3030
105.238820 104.441 -173.6751
106.001424 104.432 -174.0419
106.769554 104.417 -174.4030
107.543250 104.393 -174.7583
108.322553 104.360 -175.1079
109.107503 104.315 -175.4519
109.898141 104.258 -175.7905
110.694508 104.187 -176.1241
111.496646 104.102 -176.4530
112.304596 104.005 -176.7776
113.118402 103.894 -177.0981
113.938104 103.774 -177.4147
114.763747 103.644 -177.7276
115.595372 103.508 -178.0363
116.433024 103.367 -178.3406
117.276746 103.224 -178.6399
118.126581 103.081 -178.9334
118.982575 102.939 -179.2206
119.844772 102.799 -179.5008
120.713217 102.662 -179.7739
121.587954 102.528 179.9603
122.469031 102.395 179.7015
123.356492 102.264 179.4492
124.250384 102.133 179.2032
125.150753 102.001 178.9627
126.057647 101.865 178.7275
126.971113 101.726 178.4971
127.891198 101.581 178.2713
128.817950 101.430 178.0500
129.751418 101.272 177.8332
130.691651 101.109 177.6210
131.638696 100.939 177.4136
132.592604 100.765 177.2115
133.553425 100.589 177.0151
134.521208 100.413 176.8251
135.496004 100.240 176.6420
136.477864 100.074 176.4664
137.466839 99.919 176.2988
138.462981 99.777 176.1393
139.466340 99.652 175.9883
140.476971 99.544 175.8458
141.494925 99.457 175.7118
142.520256 99.388 175.5861
143.553016 99.336 175.4683
144.593260 99.298 175.3579
145.641043 99.272 175.2544
146.696418 99.253 175.1572
147.759441 99.237 175.0656
148.830166 99.220 174.9791
149.908651 99.200 174.8972
150.994951 99.175 174.8196
152.089123 99.142 174.7465
153.191223 99.102 174.6782
154.301310 99.055 174.6157
155.419441 99.002 174.5599
156.545674 98.945 174.5121
157.680069 98.885 174.4738
158.822683 98.824 174.4461
159.973578 98.764 174.4304
161.132813 98.707 174.4274
162.300447 98.652 174.4379
163.476543 98.601 174.4626
164.661162 98.554 174.5020
165.854364 98.512 174.5563
167.056213 98.476 174.6259
168.266772 98.445 174.7103
169.486102 98.420 174.8092
170.714268 98.402 174.9216
171.951334 98.391 175.0461
173.197364 98.388 175.1813
174.452424 98.391 175.3253
175.716578 98.402 175.4763
176.989893 98.420 175.6320
178.272434 98.444 175.7903
179.564270 98.472 175.9489
180.865467 98.505 176.1057
182.176092 98.539 176.2586
183.496216 98.575 176.4056
184.825905 98.612 176.5446
186.165229 98.648 176.6738
187.514259 98.683 176.7915
188.873065 98.718 176.8960
190.241717 98.752 176.9861
191.620287 98.786 177.0609
193.008847 98.820 177.1196
194.407468 98.854 177.1618
195.816225 98.888 177.1874
197.235190 98.923 177.1963
198.664438 98.957 177.1889
200.104042 98.991 177.1656
201.554078 99.023 177.1271
203.014622 99.053 177.0745
204.485750 99.079 177.0089
205.967538 99.102 176.9316
207.460064 99.121 176.8437
208.963405 99.135 176.7465
210.477640 99.144 176.6412
212.002848 99.149 176.5292
213.539108 99.150 176.4116
215.086500 99.147 176.2897
216.645105 99.141 176.1644
218.215005 99.132 176.0365
219.796281 99.120 175.9070
221.389015 99.105 175.7766
222.993292 99.087 175.6457
224.609193 99.064 175.5148
226.236804 99.037 175.3841
227.876209 99.005 175.2536
229.527494 98.967 175.1233
231.190745 98.923 174.9932
232.866048 98.873 174.8632
234.553491 98.818 174.7335
236.253163 98.757 174.6045
237.965150 98.692 174.4764
239.689544 98.624 174.3496
241.426433 98.553 174.2247
243.175909 98.481 174.1023
244.938062 98.409 173.9832
246.712984 98.337 173.8681
248.500768 98.267 173.7580
250.301507 98.200 173.6531
252.115295 98.136 173.5536
253.942226 98.076 173.4592
255.782396 98.020 173.3690
257.635901 97.970 173.2822
259.502837 97.924 173.1978
261.383301 97.884 173.1151
263.277392 97.850 173.0337
265.185209 97.823 172.9532
267.106850 97.801 172.8735
269.042417 97.785 172.7946
270.992009 97.776 172.7162
272.955729 97.771 172.6380
274.933678 97.772 172.5598
276.925961 97.776 172.4815
278.932681 97.784 172.4030
280.953942 97.795 172.3245
282.989850 97.808 172.2461
285.040511 97.824 172.1680
287.106032 97.842 172.0907
289.186521 97.864 172.0146
291.282086 97.891 171.9402
293.392836 97.922 171.8680
295.518881 97.958 171.7981
297.660333 98.001 171.7305
299.817302 98.048 171.6652
301.989902 98.101 171.6021
304.178245 98.157 171.5410
306.382446 98.214 171.4820
308.602620 98.272 171.4252
310.838882 98.329 171.3708
313.091348 98.382 171.3188
315.360137 98.430 171.2694
317.645367 98.472 171.2224
319.947156 98.507 171.1778
322.265625 98.534 171.1355
324.600895 98.552 171.0952
326.953086 98.561 171.0566
329.322323 98.560 171.0196
331.708729 98.549 170.9839
334.112427 98.528 170.9492
336.533543 98.496 170.9155
338.972204 98.456 170.8825
341.428536 98.406 170.8500
343.902668 98.348 170.8177
346.394729 98.283 170.7854
348.904848 98.213 170.7526
351.433156 98.140 170.7189
353.979786 98.065 170.6841
356.544869 97.992 170.6476
359.128540 97.923 170.6092
361.730934 97.860 170.5688
364.352185 97.807 170.5264
366.992431 97.766 170.4821
369.651810 97.739 170.4362
372.330459 97.729 170.3891
375.028519 97.736 170.3409
377.746130 97.760 170.2919
380.483434 97.801 170.2424
383.240574 97.857 170.1927
386.017693 97.927 170.1429
388.814937 98.007 170.0933
391.632450 98.095 170.0441
394.470380 98.189 169.9958
397.328875 98.285 169.9488
400.208084 98.381 169.9033
403.108157 98.477 169.8593
406.029245 98.570 169.8170
408.971500 98.659 169.7764
411.935076 98.746 169.7372
414.920127 98.828 169.6997
417.926810 98.909 169.6637
420.955280 98.987 169.6294
424.005695 99.064 169.5968
427.078215 99.140 169.5661
430.173000 99.216 169.5374
433.290211 99.293 169.5108
436.430010 99.369 169.4866
439.592562 99.446 169.4650
442.778031 99.521 169.4463
445.986583 99.593 169.4305
449.218386 99.662 169.4175
452.473607 99.725 169.4073
455.752418 99.781 169.3998
459.054987 99.828 169.3949
462.381489 99.866 169.3926
465.732096 99.894 169.3929
469.106983 99.911 169.3959
472.506325 99.918 169.4017
475.930301 99.916 169.4102
479.379088 99.905 169.4212
482.852867 99.886 169.4348
486.351817 99.861 169.4508
489.876123 99.831 169.4690
493.425968 99.795 169.4893
497.001536 99.757 169.5117
500.603014 99.715 169.5358
504.230589 99.671 169.5614
507.884452 99.624 169.5880
511.564792 99.574 169.6151
515.271802 99.523 169.6423
519.005673 99.470 169.6692
522.766602 99.417 169.6957
526.554785 99.364 169.7217
530.370418 99.313 169.7471
534.213700 99.267 169.7716
538.084833 99.226 169.7947
541.984018 99.193 169.8158
545.911457 99.170 169.8344
549.867357 99.156 169.8498
553.851922 99.152 169.8617
557.865362 99.156 169.8697
561.907884 99.169 169.8737
565.979700 99.187 169.8736
570.081022 99.209 169.8696
574.212064 99.232 169.8617
578.373042 99.255 169.8504
582.564171 99.275 169.8362
586.785671 99.290 169.8198
591.037762 99.300 169.8018
595.320665 99.304 169.7830
599.634604 99.301 169.7641
603.979804 99.290 169.7457
608.356491 99.273 169.7285
612.764893 99.249 169.7129
617.205240 99.219 169.6990
621.677763 99.186 169.6865
626.182696 99.150 169.6746
630.720274 99.113 169.6622
635.290733 99.077 169.6479
639.894312 99.045 169.6304
644.531250 99.017 169.6085
649.201789 98.995 169.5813
653.906173 98.981 169.5482
658.644647 98.974 169.5089
663.417457 98.975 169.4631
668.224854 98.983 169.4108
673.067086 98.996 169.3519
677.944408 99.014 169.2869
682.857073 99.033 169.2162
687.805336 99.054 169.1403
692.789457 99.073 169.0598
697.809695 99.090 168.9750
702.866312 99.104 168.8860
707.959571 99.114 168.7926
713.089738 99.119 168.6945
718.257080 99.119 168.5914
723.461867 99.114 168.4831
728.704370 99.105 168.3695
733.984862 99.091 168.2511
739.303619 99.073 168.1284
744.660918 99.053 168.0020
750.057038 99.029 167.8730
755.492260 99.004 167.7425
760.966869 98.978 167.6115
766.481148 98.949 167.4810
772.035387 98.919 167.3514
777.629873 98.888 167.2230
783.264900 98.853 167.0947
788.940760 98.816 166.9654
794.657750 98.775 166.8333
800.416168 98.730 166.6967
806.216313 98.678 166.5541
812.058489 98.621 166.4042
817.943000 98.557 166.2463
823.870152 98.487 166.0800
829.840255 98.409 165.9056
835.853619 98.326 165.7238
841.910559 98.236 165.5353
848.011390 98.142 165.3410
854.156430 98.045 165.1417
860.346000 97.944 164.9384
866.580422 97.841 164.7324
872.860020 97.738 164.5252
879.185124 97.635 164.3187
885.556062 97.534 164.1147
891.973166 97.435 163.9152
898.436771 97.340 163.7220
904.947215 97.250 163.5365
911.504835 97.167 163.3604
918.109975 97.091 163.1945
924.762978 97.023 163.0396
931.464192 96.965 162.8955
938.213966 96.918 162.7615
945.012651 96.880 162.6364
951.860602 96.853 162.5182
958.758176 96.836 162.4055
965.705733 96.828 162.2963
972.703635 96.829 162.1893
979.752246 96.838 162.0828
986.851935 96.853 161.9753
994.003071 96.875 161.8649
1001.206027 96.903 161.7499
1008.461179 96.936 161.6282
1015.768904 96.976 161.4980
1023.129584 97.021 161.3573
1030.543603 97.071 161.2046
1038.011347 97.128 161.0388
1045.533205 97.191 160.8595
1053.109569 97.261 160.6668
1060.740836 97.336 160.4611
1068.427401 97.417 160.2430
1076.169666 97.502 160.0135
1083.968035 97.590 159.7736
1091.822915 97.680 159.5248
1099.734713 97.769 159.2686
1107.703844 97.855 159.0070
1115.730723 97.937 158.7418
1123.815768 98.012 158.4760
1131.959400 98.080 158.2123
1140.162045 98.138 157.9543
1148.424129 98.187 157.7059
1156.746083 98.228 157.4706
1165.128342 98.260 157.2516
1173.571343 98.285 157.0511
1182.075524 98.305 156.8699
1190.641331 98.322 156.7074
1199.269209 98.337 156.5618
1207.959608 98.351 156.4305
1216.712981 98.366 156.3103
1225.529785 98.381 156.1983
1234.410479 98.397 156.0925
1243.355526 98.413 155.9913
1252.365393 98.428 155.8941
1261.440549 98.441 155.8011
1270.581467 98.452 155.7137
1279.788624 98.459 155.6340
1289.062500 98.461 155.5648
1298.403578 98.459 155.5089
1307.812346 98.453 155.4689
1317.289293 98.443 155.4466
1326.834914 98.430 155.4424
1336.449707 98.415 155.4553
1346.134173 98.398 155.4830
1355.888816 98.380 155.5225
1365.714145 98.361 155.5700
1375.610673 98.340 155.6225
1385.578915 98.319 155.6777
1395.619391 98.295 155.7351
1405.732624 98.268 155.7956
1415.919142 98.239 155.8618
1426.179476 98.208 155.9374
1436.514160 98.174 156.0264
1446.923734 98.140 156.1326
1457.408740 98.105 156.2590
1467.969724 98.072 156.4073
1478.607238 98.042 156.5776
1489.321836 98.017 156.7684
1500.114076 97.997 156.9763
1510.984521 97.983 157.1972
1521.933737 97.975 157.4268
1532.962297 97.974 157.6612
1544.070773 97.979 157.8978
1555.259747 97.988 158.1356
1566.529800 98.001 158.3749
1577.881521 98.018 158.6169
1589.315501 98.038 158.8625
1600.832336 98.061 159.1121
1612.432627 98.086 159.3641
1624.116978 98.113 159.6161
1635.886000 98.142 159.8653
1647.740304 98.174 160.1088
1659.680509 98.207 160.3450
1671.707238 98.242 160.5729
1683.821118 98.278 160.7925
1696.022780 98.317 161.0044
1708.312860 98.357 161.2092
1720.692000 98.399 161.4072
1733.160843 98.444 161.5980
1745.720041 98.491 161.7800
1758.370248 98.541 161.9503
1771.112124 98.593 162.1049
1783.946332 98.646 162.2400
1796.873543 98.698 162.3526
1809.894429 98.750 162.4419
1823.009670 98.799 162.5093
1836.219950 98.844 162.5588
1849.525956 98.885 162.5953
1862.928384 98.922 162.6246
1876.427931 98.955 162.6519
1890.025301 98.985 162.6818
1903.721204 99.012 162.7168
1917.516352 99.038 162.7579
1931.411466 99.063 162.8040
1945.407270 99.087 162.8528
1959.504493 99.110 162.9017
1973.703870 99.131 162.9478
1988.006142 99.149 162.9884
2002.412054 99.163 163.0213
2016.922357 99.173 163.0447
2031.537808 99.176 163.0576
2046.259169 99.172 163.0594
2061.087206 99.160 163.0503
2076.022694 99.139 163.0305
2091.066410 99.109 163.0012
2106.219139 99.071 162.9648
2121.481671 99.024 162.9249
2136.854802 98.969 162.8851
2152.339333 98.909 162.8481
2167.936071 98.844 162.8153
2183.645829 98.777 162.7859
2199.469427 98.710 162.7572
2215.407689 98.644 162.7259
2231.461446 98.581 162.6880
2247.631536 98.520 162.6404
2263.918800 98.463 162.5807
2280.324089 98.409 162.5078
2296.848258 98.358 162.4210
2313.492167 98.310 162.3204
2330.256685 98.264 162.2058
2347.142685 98.219 162.0773
2364.151049 98.176 161.9353
2381.282662 98.133 161.7810
2398.538418 98.089 161.6163
2415.919216 98.045 161.4435
2433.425962 98.000 161.2642
2451.059570 97.954 161.0793
2468.820958 97.908 160.8889
2486.711052 97.862 160.6921
2504.730786 97.815 160.4890
2522.881098 97.768 160.2805
2541.162934 97.721 160.0692
2559.577248 97.673 159.8593
2578.125000 97.627 159.6558
2596.807157 97.581 159.4636
2615.624692 97.539 159.2868
2634.578586 97.501 159.1281
2653.669829 97.468 158.9888
2672.899414 97.442 158.8691
2692.268345 97.423 158.7685
2711.777632 97.411 158.6862
2731.428290 97.407 158.6219
2751.221345 97.409 158.5755
2771.157829 97.416 158.5477
2791.238781 97.427 158.5405
2811.465248 97.440 158.5570
2831.838284 97.452 158.6021
2852.358952 97.462 158.6817
2873.028321 97.468 158.8027
2893.847468 97.469 158.9722
2914.817480 97.463 159.1974
2935.939449 97.450 159.4848
2957.214476 97.430 159.8391
2978.643672 97.403 160.2636
3000.228152 97.371 160.7592
3021.969041 97.333 161.3250
3043.867475 97.291 161.9579
3065.924593 97.248 162.6539
3088.141547 97.203 163.4077
3110.519493 97.160 164.2132
3133.059600 97.119 165.0635
3155.763041 97.083 165.9499
3178.631001 97.054 166.8616
3201.664672 97.035 167.7852
3224.865254 97.025 168.7047
3248.233957 97.027 169.6027
3271.771999 97.040 170.4614
3295.480608 97.063 171.2645
3319.361019 97.097 171.9987
3343.414477 97.138 172.6554
3367.642236 97.185 173.2312
3392.045560 97.236 173.7278
3416.625721 97.290 174.1512
3441.383999 97.345 174.5101
