* Measurement data measured by REW V5.31.3
* Source: EXCL: Headset (USB-C to 3.5mm Headphone Jack Adapter), MICROPHONE (Master Volume), 0, volume: 0.750
* Format: 256k Log Swept Sine, 1 sweep at -12.0 dBFS with no timing reference
* Dated: Apr 1, 2025 11:04:16 PM
* REW Settings:
*  C-weighting compensation: Off
*  Target level: 75.0 dB
* Note: ; 
* Measurement: Satyr 3 (Stock) L18
* Smoothing: 1/6 octave
* Frequency Step: 96 ppo
* Start Frequency: 20.0 Hz
*
* Freq(Hz) SPL(dB) Phase(degrees)
20.187378 82.154 -90.6011
20.333664 82.204 -90.7598
20.481010 82.272 -90.9753
20.629424 82.356 -91.2452
20.778913 82.452 -91.5670
20.929486 82.558 -91.9375
21.081150 82.673 -92.3535
21.233912 82.793 -92.8112
21.387782 82.917 -93.3062
21.542767 83.042 -93.8336
21.698874 83.166 -94.3877
21.856113 83.288 -94.9625
22.014492 83.406 -95.5515
22.174018 83.520 -96.1478
22.334700 83.628 -96.7448
22.496546 83.731 -97.3358
22.659566 83.827 -97.9151
22.823766 83.918 -98.4774
22.989157 84.004 -99.0186
23.155745 84.085 -99.5359
23.323542 84.162 -100.0277
23.492554 84.235 -100.4940
23.662790 84.306 -100.9362
23.834261 84.376 -101.3565
24.006973 84.443 -101.7583
24.180938 84.510 -102.1456
24.356163 84.575 -102.5222
24.532658 84.640 -102.8918
24.710431 84.702 -103.2569
24.889493 84.762 -103.6192
25.069853 84.819 -103.9790
25.251519 84.873 -104.3351
25.434502 84.922 -104.6851
25.618811 84.966 -105.0261
25.804456 85.006 -105.3545
25.991445 85.041 -105.6674
26.179790 85.071 -105.9626
26.369500 85.099 -106.2395
26.560584 85.124 -106.4996
26.753053 85.148 -106.7462
26.946917 85.173 -106.9851
27.142185 85.199 -107.2235
27.338869 85.227 -107.4693
27.536977 85.258 -107.7308
27.736522 85.292 -108.0150
27.937512 85.328 -108.3270
28.139959 85.367 -108.6697
28.343872 85.408 -109.0428
28.549264 85.449 -109.4436
28.756143 85.490 -109.8668
28.964522 85.532 -110.3057
29.174411 85.573 -110.7530
29.385821 85.614 -111.2014
29.598763 85.655 -111.6447
29.813248 85.697 -112.0784
30.029287 85.741 -112.5000
30.246891 85.788 -112.9091
30.466073 85.838 -113.3072
30.686842 85.893 -113.6976
30.909212 85.954 -114.0848
31.133193 86.020 -114.4735
31.358797 86.093 -114.8687
31.586035 86.172 -115.2745
31.814921 86.257 -115.6942
32.045465 86.347 -116.1296
32.277680 86.442 -116.5808
32.511577 86.541 -117.0469
32.747169 86.643 -117.5257
32.984469 86.747 -118.0147
33.223488 86.852 -118.5114
33.464239 86.958 -119.0138
33.706735 87.063 -119.5209
33.950987 87.169 -120.0327
34.197010 87.273 -120.5501
34.444816 87.377 -121.0740
34.694417 87.479 -121.6052
34.945827 87.579 -122.1429
35.199059 87.677 -122.6853
35.454126 87.773 -123.2285
35.711041 87.867 -123.7674
35.969818 87.958 -124.2961
36.230470 88.047 -124.8091
36.493011 88.132 -125.3017
36.757455 88.215 -125.7711
37.023814 88.293 -126.2164
37.292104 88.368 -126.6390
37.562338 88.437 -127.0412
37.834530 88.501 -127.4267
38.108695 88.559 -127.7987
38.384846 88.611 -128.1601
38.662999 88.658 -128.5129
38.943167 88.700 -128.8582
39.225365 88.740 -129.1965
39.509608 88.780 -129.5283
39.795911 88.821 -129.8544
40.084289 88.866 -130.1765
40.374756 88.916 -130.4970
40.667328 88.971 -130.8193
40.962020 89.033 -131.1466
41.258848 89.099 -131.4819
41.557827 89.167 -131.8270
41.858972 89.238 -132.1820
42.162299 89.307 -132.5461
42.467824 89.374 -132.9171
42.775564 89.437 -133.2928
43.085533 89.496 -133.6719
43.397749 89.551 -134.0538
43.712227 89.602 -134.4399
44.028983 89.650 -134.8324
44.348036 89.694 -135.2340
44.669400 89.737 -135.6474
44.993093 89.777 -136.0744
45.319131 89.816 -136.5154
45.647532 89.854 -136.9702
45.978313 89.891 -137.4374
46.311491 89.927 -137.9156
46.647083 89.963 -138.4028
46.985107 89.999 -138.8965
47.325581 90.035 -139.3935
47.668521 90.071 -139.8894
48.013947 90.107 -140.3792
48.361876 90.143 -140.8577
48.712326 90.178 -141.3210
49.065315 90.212 -141.7666
49.420863 90.246 -142.1951
49.778987 90.279 -142.6094
50.139706 90.309 -143.0143
50.503039 90.338 -143.4156
50.869005 90.363 -143.8194
51.237623 90.384 -144.2307
51.608912 90.401 -144.6533
51.982891 90.414 -145.0894
52.359580 90.422 -145.5395
52.739000 90.427 -146.0024
53.121168 90.429 -146.4760
53.506106 90.429 -146.9573
53.893833 90.428 -147.4431
54.284370 90.427 -147.9306
54.677737 90.426 -148.4178
55.073955 90.427 -148.9033
55.473043 90.430 -149.3873
55.875024 90.436 -149.8710
56.279917 90.444 -150.3568
56.687745 90.455 -150.8471
57.098527 90.469 -151.3441
57.512287 90.486 -151.8478
57.929045 90.505 -152.3565
58.348822 90.526 -152.8656
58.771642 90.546 -153.3690
59.197525 90.567 -153.8593
59.626495 90.586 -154.3299
60.058573 90.603 -154.7765
60.493782 90.619 -155.1978
60.932145 90.633 -155.5966
61.373685 90.646 -155.9785
61.818424 90.660 -156.3503
62.266386 90.673 -156.7188
62.717593 90.688 -157.0890
63.172071 90.705 -157.4642
63.629842 90.723 -157.8458
64.090930 90.744 -158.2337
64.555359 90.766 -158.6272
65.023154 90.790 -159.0247
65.494339 90.815 -159.4250
65.968938 90.840 -159.8269
66.446976 90.867 -160.2299
66.928478 90.893 -160.6335
67.413469 90.919 -161.0377
67.901975 90.945 -161.4425
68.394021 90.971 -161.8475
68.889632 90.995 -162.2523
69.388835 91.019 -162.6561
69.891655 91.040 -163.0581
70.398118 91.060 -163.4577
70.908252 91.078 -163.8543
71.422083 91.093 -164.2478
71.939636 91.106 -164.6381
72.460941 91.116 -165.0252
72.986023 91.124 -165.4092
73.514909 91.128 -165.7900
74.047629 91.130 -166.1673
74.584208 91.129 -166.5407
75.124676 91.125 -166.9099
75.669061 91.118 -167.2746
76.217390 91.109 -167.6349
76.769692 91.097 -167.9909
77.325997 91.083 -168.3430
77.886333 91.067 -168.6917
78.450730 91.048 -169.0372
79.019216 91.028 -169.3799
79.591822 91.006 -169.7202
80.168577 90.984 -170.0584
80.749512 90.960 -170.3945
81.334656 90.935 -170.7287
81.924040 90.910 -171.0605
82.517696 90.884 -171.3897
83.115653 90.858 -171.7160
83.717943 90.832 -172.0393
84.324598 90.805 -172.3595
84.935649 90.778 -172.6764
85.551128 90.752 -172.9896
86.171066 90.725 -173.2986
86.795497 90.698 -173.6025
87.424453 90.671 -173.9006
88.057967 90.643 -174.1922
88.696071 90.616 -174.4774
89.338800 90.588 -174.7566
89.986185 90.560 -175.0304
90.638262 90.532 -175.2996
91.295065 90.503 -175.5652
91.956626 90.474 -175.8277
92.622982 90.444 -176.0877
93.294166 90.415 -176.3458
93.970214 90.385 -176.6021
94.651161 90.355 -176.8570
95.337042 90.325 -177.1103
96.027894 90.295 -177.3620
96.723752 90.266 -177.6120
97.424652 90.237 -177.8604
98.130631 90.208 -178.1072
98.841726 90.180 -178.3521
99.557974 90.153 -178.5949
100.279412 90.126 -178.8351
101.006078 90.100 -179.0722
101.738010 90.075 -179.3057
102.475245 90.051 -179.5355
103.217823 90.028 -179.7613
103.965782 90.006 -179.9831
104.719161 89.985 179.7993
105.477999 89.966 179.5861
106.242336 89.948 179.3774
107.012212 89.931 179.1732
107.787666 89.916 178.9734
108.568740 89.901 178.7775
109.355474 89.888 178.5847
110.147909 89.875 178.3941
110.946086 89.862 178.2046
111.750047 89.850 178.0154
112.559834 89.838 177.8261
113.375489 89.827 177.6367
114.197055 89.815 177.4475
115.024574 89.803 177.2594
115.858089 89.791 177.0730
116.697645 89.779 176.8889
117.543284 89.766 176.7074
118.395051 89.753 176.5284
119.252990 89.739 176.3520
120.117147 89.725 176.1780
120.987565 89.709 176.0068
121.864291 89.693 175.8389
122.747370 89.676 175.6754
123.636848 89.657 175.5170
124.532771 89.637 175.3649
125.435187 89.616 175.2200
126.344142 89.594 175.0834
127.259684 89.570 174.9562
128.181860 89.545 174.8397
129.110718 89.519 174.7355
130.046308 89.492 174.6448
130.988677 89.465 174.5682
131.937875 89.438 174.5056
132.893951 89.411 174.4556
133.856956 89.385 174.4158
134.826938 89.360 174.3836
135.803950 89.336 174.3558
136.788041 89.314 174.3289
137.779264 89.293 174.2996
138.777669 89.274 174.2645
139.783309 89.255 174.2209
140.796237 89.237 174.1667
141.816504 89.218 174.1013
142.844165 89.198 174.0247
143.879273 89.177 173.9383
144.921881 89.155 173.8442
145.972045 89.130 173.7453
147.029819 89.103 173.6446
148.095257 89.074 173.5455
149.168417 89.043 173.4511
150.249353 89.009 173.3646
151.338121 88.974 173.2883
152.434780 88.937 173.2242
153.539385 88.899 173.1735
154.651995 88.860 173.1372
155.772667 88.821 173.1164
156.901460 88.782 173.1116
158.038432 88.744 173.1232
159.183644 88.706 173.1511
160.337154 88.670 173.1946
161.499023 88.636 173.2524
162.669312 88.604 173.3228
163.848081 88.574 173.4034
165.035392 88.548 173.4915
166.231306 88.524 173.5842
167.435887 88.504 173.6785
168.649196 88.486 173.7715
169.871298 88.472 173.8607
171.102255 88.461 173.9440
172.342133 88.453 174.0193
173.590995 88.447 174.0851
174.848907 88.443 174.1402
176.115934 88.441 174.1835
177.392143 88.440 174.2146
178.677599 88.441 174.2328
179.972371 88.443 174.2382
181.276525 88.444 174.2307
182.590129 88.446 174.2111
183.913252 88.447 174.1797
185.245964 88.447 174.1375
186.588332 88.447 174.0850
187.940428 88.445 174.0230
189.302322 88.442 173.9525
190.674085 88.438 173.8743
192.055788 88.432 173.7891
193.447503 88.425 173.6979
194.849303 88.416 173.6013
196.261262 88.406 173.5004
197.683452 88.394 173.3962
199.115948 88.382 173.2903
200.558824 88.368 173.1847
202.012156 88.353 173.0811
203.476019 88.338 172.9810
204.950490 88.322 172.8849
206.435646 88.305 172.7930
207.931564 88.288 172.7048
209.438322 88.271 172.6198
210.955998 88.253 172.5373
212.484672 88.235 172.4570
214.024424 88.218 172.3789
215.575333 88.200 172.3031
217.137481 88.182 172.2298
218.710948 88.165 172.1591
220.295818 88.149 172.0913
221.892172 88.133 172.0263
223.500094 88.118 171.9643
225.119668 88.104 171.9052
226.750978 88.091 171.8487
228.394109 88.080 171.7947
230.049147 88.070 171.7429
231.716178 88.062 171.6929
233.395289 88.055 171.6446
235.086567 88.050 171.5979
236.790102 88.046 171.5527
238.505980 88.043 171.5092
240.234293 88.042 171.4673
241.975130 88.041 171.4271
243.728581 88.040 171.3883
245.494739 88.040 171.3508
247.273695 88.040 171.3140
249.065542 88.041 171.2779
250.870374 88.041 171.2420
252.688284 88.042 171.2062
254.519367 88.043 171.1708
256.363720 88.044 171.1359
258.221437 88.044 171.1023
260.092616 88.045 171.0706
261.977354 88.046 171.0412
263.875750 88.047 171.0145
265.787903 88.047 170.9904
267.713911 88.048 170.9684
269.653877 88.049 170.9482
271.607900 88.050 170.9294
273.576083 88.052 170.9114
275.558528 88.053 170.8943
277.555338 88.055 170.8778
279.566619 88.058 170.8622
281.592474 88.060 170.8479
283.633009 88.064 170.8350
285.688331 88.067 170.8238
287.758546 88.071 170.8143
289.843763 88.076 170.8060
291.944090 88.082 170.7988
294.059638 88.088 170.7922
296.190515 88.094 170.7861
298.336833 88.101 170.7805
300.498705 88.109 170.7753
302.676243 88.117 170.7704
304.869559 88.125 170.7656
307.078770 88.133 170.7609
309.303989 88.142 170.7564
311.545334 88.150 170.7520
313.802919 88.159 170.7481
316.076865 88.168 170.7449
318.367288 88.177 170.7429
320.674309 88.187 170.7424
322.998047 88.196 170.7437
325.338624 88.206 170.7469
327.696162 88.216 170.7520
330.070783 88.226 170.7590
332.462612 88.236 170.7678
334.871773 88.246 170.7778
337.298392 88.255 170.7884
339.742595 88.263 170.7985
342.204510 88.270 170.8074
344.684265 88.277 170.8144
347.181989 88.282 170.8195
349.697813 88.287 170.8227
352.231868 88.290 170.8246
354.784285 88.293 170.8255
357.355198 88.295 170.8258
359.944741 88.295 170.8257
362.553049 88.296 170.8253
365.180258 88.295 170.8242
367.826505 88.294 170.8223
370.491927 88.292 170.8194
373.176665 88.289 170.8150
375.880856 88.286 170.8090
378.604644 88.282 170.8010
381.348169 88.278 170.7911
384.111575 88.273 170.7794
386.895006 88.268 170.7661
389.698607 88.262 170.7518
392.522524 88.255 170.7371
395.366904 88.248 170.7224
398.231895 88.240 170.7086
401.117648 88.231 170.6966
404.024312 88.222 170.6872
406.952038 88.210 170.6817
409.900981 88.198 170.6812
412.871292 88.184 170.6868
415.863128 88.169 170.6993
418.876643 88.153 170.7193
421.911996 88.136 170.7467
424.969344 88.118 170.7807
428.048847 88.099 170.8200
431.150666 88.080 170.8628
434.274961 88.060 170.9072
437.421897 88.040 170.9516
440.591636 88.020 170.9948
443.784345 87.999 171.0360
447.000189 87.978 171.0748
450.239337 87.956 171.1111
453.501956 87.934 171.1449
456.788219 87.912 171.1763
460.098294 87.890 171.2055
463.432356 87.867 171.2326
466.790578 87.845 171.2578
470.173135 87.823 171.2811
473.580203 87.802 171.3028
477.011961 87.782 171.3227
480.468586 87.762 171.3410
483.950259 87.744 171.3579
487.457163 87.726 171.3735
490.989478 87.710 171.3883
494.547390 87.694 171.4025
498.131084 87.680 171.4166
501.740748 87.667 171.4309
505.376568 87.655 171.4457
509.038735 87.645 171.4614
512.727439 87.636 171.4779
516.442874 87.629 171.4954
520.185232 87.624 171.5139
523.954708 87.620 171.5333
527.751500 87.620 171.5530
531.575805 87.621 171.5730
535.427822 87.625 171.5927
539.307753 87.631 171.6120
543.215800 87.640 171.6309
547.152165 87.651 171.6493
551.117055 87.665 171.6674
555.110677 87.681 171.6854
559.133237 87.700 171.7030
563.184947 87.720 171.7202
567.266018 87.742 171.7367
571.376661 87.766 171.7519
575.517092 87.792 171.7654
579.687526 87.819 171.7767
583.888181 87.847 171.7853
588.119275 87.875 171.7908
592.381030 87.903 171.7930
596.673667 87.932 171.7918
600.997410 87.960 171.7875
605.352485 87.987 171.7805
609.739119 88.014 171.7714
614.157540 88.040 171.7607
618.607979 88.065 171.7489
623.090667 88.089 171.7364
627.605839 88.112 171.7234
632.153730 88.134 171.7102
636.734576 88.156 171.6965
641.348617 88.177 171.6818
645.996094 88.198 171.6652
650.677248 88.218 171.6451
655.392323 88.238 171.6199
660.141566 88.257 171.5877
664.925224 88.276 171.5469
669.743546 88.295 171.4961
674.596784 88.312 171.4347
679.485191 88.327 171.3628
684.409020 88.341 171.2809
689.368530 88.353 171.1906
694.363979 88.363 171.0934
699.395626 88.370 170.9916
704.463736 88.375 170.8875
709.568570 88.378 170.7833
714.710396 88.379 170.6810
719.889483 88.379 170.5822
725.106099 88.377 170.4873
730.360516 88.374 170.3956
735.653010 88.371 170.3051
740.983855 88.368 170.2133
746.353329 88.364 170.1174
751.761713 88.360 170.0148
757.209288 88.356 169.9037
762.696339 88.351 169.7826
768.223151 88.346 169.6508
773.790013 88.339 169.5081
779.397214 88.331 169.3546
785.045047 88.321 169.1911
790.733808 88.311 169.0185
796.463791 88.298 168.8381
802.235296 88.285 168.6510
808.048623 88.270 168.4584
813.904077 88.255 168.2617
819.801961 88.238 168.0617
825.742584 88.222 167.8598
831.726255 88.205 167.6566
837.753287 88.188 167.4526
843.823992 88.171 167.2474
849.938689 88.156 167.0401
856.097695 88.141 166.8292
862.301332 88.127 166.6133
868.549922 88.114 166.3910
874.843793 88.101 166.1614
881.183272 88.089 165.9241
887.568689 88.077 165.6789
894.000378 88.065 165.4261
900.478673 88.052 165.1666
907.003913 88.039 164.9012
913.576437 88.026 164.6319
920.196588 88.012 164.3604
926.864712 87.999 164.0884
933.581156 87.985 163.8173
940.346270 87.972 163.5477
947.160407 87.959 163.2794
954.023921 87.948 163.0118
960.937172 87.938 162.7437
967.900519 87.930 162.4738
974.914325 87.923 162.2014
981.978956 87.917 161.9259
989.094780 87.913 161.6478
996.262169 87.910 161.3677
1003.481495 87.908 161.0866
1010.753136 87.907 160.8051
1018.077470 87.907 160.5235
1025.454879 87.908 160.2414
1032.885748 87.911 159.9579
1040.370463 87.915 159.6721
1047.909417 87.919 159.3826
1055.503000 87.924 159.0890
1063.151610 87.928 158.7911
1070.855645 87.932 158.4901
1078.615506 87.935 158.1879
1086.431599 87.936 157.8873
1094.304330 87.935 157.5909
1102.234110 87.933 157.3011
1110.221353 87.929 157.0193
1118.266475 87.924 156.7458
1126.369895 87.918 156.4798
1134.532035 87.910 156.2201
1142.753322 87.901 155.9657
1151.034184 87.891 155.7161
1159.375052 87.878 155.4722
1167.776361 87.863 155.2358
1176.238550 87.845 155.0097
1184.762060 87.825 154.7972
1193.347334 87.802 154.6018
1201.994821 87.778 154.4261
1210.704971 87.753 154.2717
1219.478238 87.728 154.1382
1228.315080 87.703 154.0241
1237.215957 87.679 153.9265
1246.181334 87.656 153.8424
1255.211678 87.634 153.7693
1264.307459 87.613 153.7056
1273.469152 87.594 153.6503
1282.697235 87.575 153.6026
1291.992188 87.557 153.5615
1301.354495 87.540 153.5255
1310.784647 87.523 153.4933
1320.283132 87.507 153.4635
1329.850448 87.491 153.4354
1339.487093 87.475 153.4091
1349.193569 87.458 153.3858
1358.970381 87.440 153.3681
1368.818041 87.421 153.3591
1378.737061 87.402 153.3614
1388.727958 87.383 153.3772
1398.791253 87.363 153.4075
1408.927471 87.345 153.4521
1419.137140 87.328 153.5104
1429.420793 87.312 153.5811
1439.778965 87.298 153.6633
1450.212197 87.286 153.7572
1460.721033 87.275 153.8638
1471.306019 87.266 153.9844
1481.967709 87.259 154.1196
1492.706658 87.253 154.2686
1503.523426 87.249 154.4294
1514.418576 87.246 154.6002
1525.392678 87.244 154.7798
1536.446302 87.241 154.9691
1547.580025 87.238 155.1705
1558.794428 87.233 155.3874
1570.090095 87.227 155.6232
1581.467615 87.219 155.8801
1592.927581 87.209 156.1594
1604.470591 87.199 156.4604
1616.097246 87.187 156.7813
1627.808153 87.174 157.1193
1639.603922 87.161 157.4716
1651.485168 87.146 157.8361
1663.452510 87.130 158.2117
1675.506573 87.114 158.5980
1687.647984 87.096 158.9954
1699.877377 87.077 159.4048
1712.195390 87.059 159.8274
1724.602663 87.040 160.2643
1737.099845 87.021 160.7160
1749.687587 87.003 161.1827
1762.366544 86.987 161.6638
1775.137379 86.973 162.1581
1788.000756 86.962 162.6634
1800.957346 86.953 163.1763
1814.007826 86.948 163.6929
1827.152874 86.946 164.2085
1840.393177 86.947 164.7189
1853.729425 86.950 165.2206
1867.162312 86.956 165.7109
1880.692540 86.964 166.1880
1894.320813 86.974 166.6504
1908.047843 86.985 167.0957
1921.874344 86.997 167.5214
1935.801038 87.010 167.9249
1949.828650 87.024 168.3047
1963.957912 87.037 168.6599
1978.189561 87.050 168.9907
1992.524338 87.062 169.2974
2006.962991 87.074 169.5793
2021.506272 87.086 169.8344
2036.154940 87.097 170.0604
2050.909758 87.108 170.2550
2065.771495 87.118 170.4174
2080.740927 87.127 170.5474
2095.818833 87.135 170.6460
2111.006001 87.141 170.7143
2126.303220 87.146 170.7538
2141.711290 87.149 170.7664
2157.231013 87.151 170.7543
2172.863198 87.151 170.7195
2188.608660 87.150 170.6631
2204.468221 87.148 170.5860
2220.442706 87.144 170.4884
2236.532950 87.140 170.3716
2252.739789 87.133 170.2375
2269.064070 87.126 170.0881
2285.506644 87.117 169.9249
2302.068367 87.107 169.7487
2318.750104 87.096 169.5598
2335.552723 87.085 169.3585
2352.477101 87.073 169.1454
2369.524119 87.060 168.9211
2386.694668 87.048 168.6855
2403.989641 87.034 168.4388
2421.409941 87.021 168.1808
2438.956476 87.008 167.9121
2456.630160 86.995 167.6332
2474.431915 86.982 167.3442
2492.362668 86.970 167.0442
2510.423356 86.958 166.7322
2528.614918 86.946 166.4067
2546.938304 86.934 166.0665
2565.394469 86.922 165.7109
2583.984375 86.909 165.3400
2602.708991 86.893 164.9552
2621.569293 86.874 164.5599
2640.566265 86.851 164.1596
2659.700897 86.823 163.7616
2678.974186 86.790 163.3748
2698.387137 86.751 163.0094
2717.940763 86.706 162.6755
2737.636082 86.657 162.3828
2757.474121 86.604 162.1392
2777.455915 86.548 161.9512
2797.582506 86.489 161.8232
2817.854942 86.430 161.7580
2838.274281 86.372 161.7570
2858.841586 86.314 161.8207
2879.557931 86.258 161.9492
2900.424394 86.205 162.1419
2921.442065 86.156 162.3987
2942.612039 86.110 162.7182
2963.935418 86.069 163.0985
2985.413316 86.034 163.5359
3007.046852 86.005 164.0244
3028.837153 85.983 164.5562
3050.785356 85.968 165.1211
3072.892604 85.960 165.7072
3095.160050 85.960 166.3010
3117.588856 85.967 166.8880
3140.180190 85.979 167.4539
3162.935230 85.994 167.9852
3185.855163 86.012 168.4713
3208.941182 86.029 168.9050
3232.194493 86.042 169.2843
3255.616307 86.050 169.6127
3279.207844 86.051 169.8989
3302.970336 86.041 170.1569
3326.905021 86.021 170.4041
3351.013146 85.991 170.6598
3375.295969 85.951 170.9429
3399.754755 85.903 171.2693
3424.390779 85.851 171.6503
3449.205326 85.798 172.0897
3474.199690 85.749 172.5831
3499.375173 85.706 173.1176
3524.733088 85.673 173.6724
