* Measurement data measured by REW V5.31.3
* Source: EXCL: Headset (USB-C to 3.5mm Headphone Jack Adapter), MICROPHONE (Master Volume), 0, volume: 0.750
* Format: 256k Log Swept Sine, 1 sweep at -12.0 dBFS with no timing reference
* Dated: Apr 7, 2025 4:37:31 PM
* REW Settings:
*  C-weighting compensation: Off
*  Target level: 75.0 dB
* Note: ; 
* Measurement: Satyr 3 (Forward) L1
* Smoothing: 1/6 octave
* Frequency Step: 96 ppo
* Start Frequency: 20.0 Hz
*
* Freq(Hz) SPL(dB) Phase(degrees)
20.187378 80.456 -98.2537
20.333664 80.492 -98.4260
20.481010 80.541 -98.6561
20.629424 80.601 -98.9361
20.778913 80.670 -99.2571
20.929486 80.747 -99.6096
21.081150 80.832 -99.9846
21.233912 80.921 -100.3733
21.387782 81.016 -100.7680
21.542767 81.114 -101.1625
21.698874 81.216 -101.5515
21.856113 81.319 -101.9315
22.014492 81.424 -102.3003
22.174018 81.529 -102.6565
22.334700 81.633 -103.0001
22.496546 81.735 -103.3317
22.659566 81.834 -103.6527
22.823766 81.929 -103.9651
22.989157 82.020 -104.2718
23.155745 82.105 -104.5764
23.323542 82.185 -104.8831
23.492554 82.260 -105.1973
23.662790 82.329 -105.5249
23.834261 82.393 -105.8723
24.006973 82.452 -106.2458
24.180938 82.505 -106.6512
24.356163 82.555 -107.0929
24.532658 82.599 -107.5734
24.710431 82.639 -108.0928
24.889493 82.675 -108.6480
25.069853 82.707 -109.2337
25.251519 82.735 -109.8415
25.434502 82.759 -110.4615
25.618811 82.782 -111.0827
25.804456 82.803 -111.6944
25.991445 82.824 -112.2868
26.179790 82.846 -112.8528
26.369500 82.871 -113.3878
26.560584 82.900 -113.8907
26.753053 82.933 -114.3633
26.946917 82.970 -114.8100
27.142185 83.012 -115.2370
27.338869 83.058 -115.6510
27.536977 83.106 -116.0587
27.736522 83.155 -116.4655
27.937512 83.203 -116.8756
28.139959 83.251 -117.2916
28.343872 83.296 -117.7149
28.549264 83.338 -118.1463
28.756143 83.378 -118.5863
28.964522 83.415 -119.0354
29.174411 83.450 -119.4945
29.385821 83.483 -119.9647
29.598763 83.515 -120.4470
29.813248 83.547 -120.9422
30.029287 83.578 -121.4499
30.246891 83.610 -121.9689
30.466073 83.643 -122.4966
30.686842 83.679 -123.0294
30.909212 83.716 -123.5634
31.133193 83.758 -124.0941
31.358797 83.803 -124.6178
31.586035 83.853 -125.1314
31.814921 83.907 -125.6330
32.045465 83.968 -126.1213
32.277680 84.033 -126.5962
32.511577 84.104 -127.0575
32.747169 84.179 -127.5057
32.984469 84.258 -127.9410
33.223488 84.339 -128.3638
33.464239 84.423 -128.7747
33.706735 84.509 -129.1747
33.950987 84.596 -129.5652
34.197010 84.683 -129.9489
34.444816 84.770 -130.3286
34.694417 84.857 -130.7079
34.945827 84.943 -131.0901
35.199059 85.028 -131.4785
35.454126 85.112 -131.8750
35.711041 85.193 -132.2806
35.969818 85.273 -132.6950
36.230470 85.350 -133.1163
36.493011 85.426 -133.5415
36.757455 85.499 -133.9671
37.023814 85.572 -134.3889
37.292104 85.642 -134.8035
37.562338 85.712 -135.2080
37.834530 85.781 -135.6008
38.108695 85.850 -135.9818
38.384846 85.917 -136.3526
38.662999 85.984 -136.7154
38.943167 86.050 -137.0735
39.225365 86.114 -137.4298
39.509608 86.177 -137.7870
39.795911 86.238 -138.1467
40.084289 86.298 -138.5099
40.374756 86.357 -138.8769
40.667328 86.415 -139.2480
40.962020 86.473 -139.6234
41.258848 86.530 -140.0039
41.557827 86.587 -140.3903
41.858972 86.643 -140.7833
42.162299 86.698 -141.1830
42.467824 86.752 -141.5888
42.775564 86.803 -141.9996
43.085533 86.852 -142.4141
43.397749 86.900 -142.8310
43.712227 86.946 -143.2495
44.028983 86.992 -143.6694
44.348036 87.038 -144.0905
44.669400 87.085 -144.5124
44.993093 87.132 -144.9340
45.319131 87.180 -145.3540
45.647532 87.229 -145.7713
45.978313 87.277 -146.1856
46.311491 87.325 -146.5985
46.647083 87.371 -147.0135
46.985107 87.416 -147.4358
47.325581 87.458 -147.8712
47.668521 87.497 -148.3251
48.013947 87.533 -148.8010
48.361876 87.564 -149.3000
48.712326 87.592 -149.8209
49.065315 87.616 -150.3602
49.420863 87.637 -150.9136
49.778987 87.656 -151.4762
50.139706 87.673 -152.0436
50.503039 87.688 -152.6120
50.869005 87.703 -153.1783
51.237623 87.717 -153.7400
51.608912 87.730 -154.2946
51.982891 87.742 -154.8394
52.359580 87.752 -155.3717
52.739000 87.761 -155.8889
53.121168 87.768 -156.3890
53.506106 87.774 -156.8714
53.893833 87.778 -157.3372
54.284370 87.781 -157.7887
54.677737 87.783 -158.2294
55.073955 87.784 -158.6627
55.473043 87.785 -159.0916
55.875024 87.785 -159.5177
56.279917 87.786 -159.9416
56.687745 87.787 -160.3629
57.098527 87.788 -160.7807
57.512287 87.791 -161.1944
57.929045 87.796 -161.6044
58.348822 87.802 -162.0127
58.771642 87.810 -162.4236
59.197525 87.820 -162.8426
59.626495 87.833 -163.2757
60.058573 87.848 -163.7276
60.493782 87.865 -164.2001
60.932145 87.883 -164.6920
61.373685 87.903 -165.1994
61.818424 87.924 -165.7166
62.266386 87.946 -166.2380
62.717593 87.968 -166.7588
63.172071 87.992 -167.2755
63.629842 88.016 -167.7857
64.090930 88.042 -168.2880
64.555359 88.068 -168.7816
65.023154 88.094 -169.2658
65.494339 88.121 -169.7399
65.968938 88.148 -170.2036
66.446976 88.175 -170.6565
66.928478 88.201 -171.0989
67.413469 88.226 -171.5314
67.901975 88.250 -171.9552
68.394021 88.274 -172.3716
68.889632 88.296 -172.7822
69.388835 88.317 -173.1880
69.891655 88.337 -173.5902
70.398118 88.354 -173.9893
70.908252 88.368 -174.3859
71.422083 88.379 -174.7802
71.939636 88.387 -175.1725
72.460941 88.391 -175.5631
72.986023 88.393 -175.9526
73.514909 88.391 -176.3414
74.047629 88.387 -176.7301
74.584208 88.381 -177.1190
75.124676 88.372 -177.5084
75.669061 88.361 -177.8985
76.217390 88.348 -178.2889
76.769692 88.333 -178.6795
77.325997 88.316 -179.0697
77.886333 88.297 -179.4592
78.450730 88.277 -179.8475
79.019216 88.256 179.7659
79.591822 88.234 179.3817
80.168577 88.212 179.0004
80.749512 88.188 178.6228
81.334656 88.164 178.2497
81.924040 88.140 177.8816
82.517696 88.115 177.5188
83.115653 88.090 177.1613
83.717943 88.065 176.8085
84.324598 88.040 176.4598
84.935649 88.014 176.1139
85.551128 87.989 175.7698
86.171066 87.963 175.4263
86.795497 87.936 175.0826
87.424453 87.910 174.7384
88.057967 87.883 174.3936
88.696071 87.855 174.0489
89.338800 87.828 173.7053
89.986185 87.800 173.3641
90.638262 87.772 173.0269
91.295065 87.744 172.6950
91.956626 87.716 172.3693
92.622982 87.687 172.0504
93.294166 87.659 171.7382
93.970214 87.630 171.4321
94.651161 87.601 171.1312
95.337042 87.572 170.8340
96.027894 87.542 170.5395
96.723752 87.513 170.2463
97.424652 87.484 169.9536
98.130631 87.455 169.6609
98.841726 87.426 169.3682
99.557974 87.398 169.0755
100.279412 87.370 168.7831
101.006078 87.342 168.4913
101.738010 87.315 168.2004
102.475245 87.288 167.9108
103.217823 87.263 167.6229
103.965782 87.238 167.3373
104.719161 87.215 167.0548
105.477999 87.193 166.7761
106.242336 87.174 166.5017
107.012212 87.156 166.2317
107.787666 87.140 165.9652
108.568740 87.125 165.7015
109.355474 87.111 165.4395
110.147909 87.098 165.1788
110.946086 87.085 164.9194
111.750047 87.073 164.6616
112.559834 87.060 164.4063
113.375489 87.048 164.1542
114.197055 87.036 163.9060
115.024574 87.023 163.6622
115.858089 87.010 163.4233
116.697645 86.997 163.1896
117.543284 86.983 162.9614
118.395051 86.968 162.7391
119.252990 86.952 162.5233
120.117147 86.935 162.3143
120.987565 86.917 162.1125
121.864291 86.898 161.9187
122.747370 86.878 161.7336
123.636848 86.857 161.5583
124.532771 86.835 161.3937
125.435187 86.812 161.2409
126.344142 86.790 161.1006
127.259684 86.767 160.9731
128.181860 86.746 160.8581
129.110718 86.725 160.7541
130.046308 86.706 160.6588
130.988677 86.689 160.5687
131.937875 86.673 160.4797
132.893951 86.659 160.3871
133.856956 86.646 160.2859
134.826938 86.634 160.1724
135.803950 86.623 160.0436
136.788041 86.612 159.8986
137.779264 86.600 159.7372
138.777669 86.587 159.5607
139.783309 86.573 159.3705
140.796237 86.556 159.1690
141.816504 86.537 158.9587
142.844165 86.515 158.7422
143.879273 86.491 158.5226
144.921881 86.463 158.3024
145.972045 86.433 158.0844
147.029819 86.401 157.8708
148.095257 86.366 157.6639
149.168417 86.330 157.4657
150.249353 86.292 157.2776
151.338121 86.253 157.1006
152.434780 86.213 156.9355
153.539385 86.172 156.7825
154.651995 86.130 156.6421
155.772667 86.087 156.5146
156.901460 86.044 156.4006
158.038432 86.002 156.3008
159.183644 85.960 156.2159
160.337154 85.920 156.1466
161.499023 85.881 156.0932
162.669312 85.845 156.0554
163.848081 85.811 156.0325
165.035392 85.780 156.0231
166.231306 85.753 156.0250
167.435887 85.729 156.0356
168.649196 85.708 156.0519
169.871298 85.690 156.0709
171.102255 85.676 156.0895
172.342133 85.664 156.1045
173.590995 85.655 156.1129
174.848907 85.649 156.1122
176.115934 85.644 156.0999
177.392143 85.641 156.0742
178.677599 85.640 156.0338
179.972371 85.639 155.9779
181.276525 85.640 155.9062
182.590129 85.640 155.8186
183.913252 85.641 155.7158
185.245964 85.642 155.5987
186.588332 85.642 155.4684
187.940428 85.641 155.3266
189.302322 85.639 155.1748
190.674085 85.636 155.0145
192.055788 85.631 154.8466
193.447503 85.624 154.6721
194.849303 85.616 154.4914
196.261262 85.607 154.3053
197.683452 85.597 154.1151
199.115948 85.586 153.9224
200.558824 85.575 153.7292
202.012156 85.564 153.5371
203.476019 85.552 153.3475
204.950490 85.540 153.1612
206.435646 85.528 152.9788
207.931564 85.515 152.7999
209.438322 85.501 152.6238
210.955998 85.486 152.4488
212.484672 85.471 152.2725
214.024424 85.455 152.0933
215.575333 85.439 151.9102
217.137481 85.423 151.7238
218.710948 85.408 151.5353
220.295818 85.394 151.3466
221.892172 85.381 151.1595
223.500094 85.368 150.9753
225.119668 85.357 150.7950
226.750978 85.346 150.6189
228.394109 85.336 150.4471
230.049147 85.326 150.2795
231.716178 85.317 150.1157
233.395289 85.309 149.9553
235.086567 85.302 149.7979
236.790102 85.296 149.6429
238.505980 85.292 149.4898
240.234293 85.289 149.3383
241.975130 85.287 149.1882
243.728581 85.286 149.0396
245.494739 85.286 148.8932
247.273695 85.287 148.7497
249.065542 85.289 148.6094
250.870374 85.290 148.4724
252.688284 85.292 148.3376
254.519367 85.293 148.2039
256.363720 85.294 148.0691
258.221437 85.295 147.9316
260.092616 85.295 147.7900
261.977354 85.296 147.6437
263.875750 85.298 147.4933
265.787903 85.299 147.3395
267.713911 85.301 147.1838
269.653877 85.304 147.0273
271.607900 85.306 146.8716
273.576083 85.309 146.7180
275.558528 85.311 146.5677
277.555338 85.314 146.4213
279.566619 85.318 146.2789
281.592474 85.321 146.1396
283.633009 85.325 146.0024
285.688331 85.329 145.8660
287.758546 85.333 145.7293
289.843763 85.338 145.5916
291.944090 85.342 145.4523
294.059638 85.347 145.3114
296.190515 85.352 145.1691
298.336833 85.357 145.0260
300.498705 85.363 144.8828
302.676243 85.370 144.7402
304.869559 85.377 144.5986
307.078770 85.384 144.4581
309.303989 85.392 144.3185
311.545334 85.400 144.1790
313.802919 85.408 144.0387
316.076865 85.416 143.8970
318.367288 85.425 143.7532
320.674309 85.433 143.6071
322.998047 85.442 143.4586
325.338624 85.451 143.3079
327.696162 85.459 143.1555
330.070783 85.467 143.0021
332.462612 85.474 142.8486
334.871773 85.481 142.6959
337.298392 85.487 142.5450
339.742595 85.493 142.3965
342.204510 85.498 142.2506
344.684265 85.502 142.1071
347.181989 85.506 141.9653
349.697813 85.509 141.8241
352.231868 85.511 141.6825
354.784285 85.512 141.5393
357.355198 85.512 141.3934
359.944741 85.511 141.2442
362.553049 85.510 141.0911
365.180258 85.508 140.9338
367.826505 85.505 140.7727
370.491927 85.502 140.6086
373.176665 85.498 140.4426
375.880856 85.494 140.2761
378.604644 85.490 140.1100
381.348169 85.485 139.9451
384.111575 85.481 139.7814
386.895006 85.477 139.6188
389.698607 85.472 139.4566
392.522524 85.467 139.2943
395.366904 85.461 139.1314
398.231895 85.453 138.9679
401.117648 85.445 138.8041
404.024312 85.435 138.6408
406.952038 85.424 138.4788
409.900981 85.411 138.3193
412.871292 85.397 138.1635
415.863128 85.382 138.0125
418.876643 85.365 137.8671
421.911996 85.347 137.7275
424.969344 85.328 137.5932
428.048847 85.309 137.4632
431.150666 85.289 137.3359
434.274961 85.269 137.2096
437.421897 85.249 137.0825
440.591636 85.228 136.9535
443.784345 85.207 136.8221
447.000189 85.186 136.6883
450.239337 85.164 136.5522
453.501956 85.142 136.4141
456.788219 85.119 136.2740
460.098294 85.096 136.1321
463.432356 85.073 135.9885
466.790578 85.050 135.8431
470.173135 85.027 135.6960
473.580203 85.005 135.5472
477.011961 84.983 135.3966
480.468586 84.963 135.2441
483.950259 84.943 135.0896
487.457163 84.924 134.9333
490.989478 84.907 134.7751
494.547390 84.891 134.6155
498.131084 84.877 134.4547
501.740748 84.865 134.2931
505.376568 84.854 134.1312
509.038735 84.845 133.9694
512.727439 84.838 133.8076
516.442874 84.834 133.6460
520.185232 84.832 133.4841
523.954708 84.833 133.3214
527.751500 84.837 133.1572
531.575805 84.843 132.9908
535.427822 84.852 132.8215
539.307753 84.864 132.6489
543.215800 84.878 132.4727
547.152165 84.894 132.2926
551.117055 84.913 132.1086
555.110677 84.933 131.9206
559.133237 84.955 131.7286
563.184947 84.980 131.5327
567.266018 85.005 131.3330
571.376661 85.032 131.1298
575.517092 85.061 130.9232
579.687526 85.090 130.7134
583.888181 85.121 130.5004
588.119275 85.151 130.2840
592.381030 85.182 130.0639
596.673667 85.214 129.8396
600.997410 85.244 129.6106
605.352485 85.275 129.3762
609.739119 85.305 129.1357
614.157540 85.334 128.8888
618.607979 85.362 128.6353
623.090667 85.388 128.3754
627.605839 85.414 128.1093
632.153730 85.438 127.8379
636.734576 85.461 127.5620
641.348617 85.482 127.2826
645.996094 85.502 127.0005
650.677248 85.520 126.7164
655.392323 85.537 126.4304
660.141566 85.553 126.1424
664.925224 85.568 125.8518
669.743546 85.582 125.5577
674.596784 85.595 125.2593
679.485191 85.608 124.9556
684.409020 85.619 124.6458
689.368530 85.630 124.3296
694.363979 85.640 124.0068
699.395626 85.648 123.6778
704.463736 85.655 123.3434
709.568570 85.661 123.0045
714.710396 85.666 122.6620
719.889483 85.669 122.3165
725.106099 85.672 121.9680
730.360516 85.674 121.6154
735.653010 85.675 121.2574
740.983855 85.675 120.8923
746.353329 85.675 120.5186
751.761713 85.674 120.1355
757.209288 85.672 119.7426
762.696339 85.668 119.3400
768.223151 85.664 118.9275
773.790013 85.658 118.5052
779.397214 85.651 118.0726
785.045047 85.643 117.6295
790.733808 85.633 117.1756
796.463791 85.622 116.7110
802.235296 85.610 116.2363
808.048623 85.597 115.7520
813.904077 85.583 115.2590
819.801961 85.567 114.7579
825.742584 85.551 114.2493
831.726255 85.535 113.7335
837.753287 85.518 113.2106
843.823992 85.500 112.6811
849.938689 85.482 112.1450
856.097695 85.464 111.6028
862.301332 85.445 111.0550
868.549922 85.426 110.5021
874.843793 85.406 109.9450
881.183272 85.386 109.3846
887.568689 85.365 108.8218
894.000378 85.344 108.2574
900.478673 85.323 107.6915
907.003913 85.302 107.1242
913.576437 85.282 106.5550
920.196588 85.261 105.9833
926.864712 85.241 105.4092
933.581156 85.221 104.8329
940.346270 85.202 104.2552
947.160407 85.183 103.6770
954.023921 85.165 103.0990
960.937172 85.147 102.5215
967.900519 85.131 101.9444
974.914325 85.116 101.3670
981.978956 85.102 100.7888
989.094780 85.090 100.2093
996.262169 85.079 99.6283
1003.481495 85.069 99.0462
1010.753136 85.060 98.4635
1018.077470 85.051 97.8807
1025.454879 85.044 97.2979
1032.885748 85.038 96.7148
1040.370463 85.033 96.1305
1047.909417 85.028 95.5442
1055.503000 85.024 94.9552
1063.151610 85.020 94.3639
1070.855645 85.015 93.7715
1078.615506 85.009 93.1803
1086.431599 85.002 92.5927
1094.304330 84.994 92.0108
1102.234110 84.984 91.4364
1110.221353 84.973 90.8705
1118.266475 84.961 90.3133
1126.369895 84.947 89.7647
1134.532035 84.933 89.2245
1142.753322 84.918 88.6922
1151.034184 84.902 88.1674
1159.375052 84.884 87.6499
1167.776361 84.866 87.1394
1176.238550 84.846 86.6358
1184.762060 84.826 86.1392
1193.347334 84.804 85.6499
1201.994821 84.781 85.1685
1210.704971 84.757 84.6960
1219.478238 84.733 84.2331
1228.315080 84.707 83.7808
1237.215957 84.682 83.3400
1246.181334 84.656 82.9109
1255.211678 84.630 82.4935
1264.307459 84.605 82.0870
1273.469152 84.581 81.6895
1282.697235 84.558 81.2988
1291.992188 84.535 80.9124
1301.354495 84.512 80.5285
1310.784647 84.490 80.1463
1320.283132 84.466 79.7664
1329.850448 84.443 79.3905
1339.487093 84.418 79.0210
1349.193569 84.393 78.6599
1358.970381 84.367 78.3094
1368.818041 84.341 77.9706
1378.737061 84.315 77.6443
1388.727958 84.290 77.3304
1398.791253 84.266 77.0281
1408.927471 84.243 76.7360
1419.137140 84.222 76.4530
1429.420793 84.202 76.1786
1439.778965 84.183 75.9130
1450.212197 84.166 75.6573
1460.721033 84.150 75.4128
1471.306019 84.135 75.1805
1481.967709 84.121 74.9611
1492.706658 84.108 74.7552
1503.523426 84.097 74.5635
1514.418576 84.085 74.3866
1525.392678 84.074 74.2257
1536.446302 84.063 74.0821
1547.580025 84.052 73.9567
1558.794428 84.041 73.8499
1570.090095 84.030 73.7615
1581.467615 84.018 73.6908
1592.927581 84.006 73.6365
1604.470591 83.993 73.5973
1616.097246 83.979 73.5718
1627.808153 83.963 73.5595
1639.603922 83.947 73.5601
1651.485168 83.929 73.5742
1663.452510 83.909 73.6028
1675.506573 83.890 73.6465
1687.647984 83.870 73.7053
1699.877377 83.851 73.7777
1712.195390 83.832 73.8615
1724.602663 83.816 73.9536
1737.099845 83.801 74.0504
1749.687587 83.789 74.1485
1762.366544 83.779 74.2444
1775.137379 83.771 74.3356
1788.000756 83.765 74.4203
1800.957346 83.761 74.4981
1814.007826 83.758 74.5696
1827.152874 83.757 74.6360
1840.393177 83.756 74.6980
1853.729425 83.758 74.7552
1867.162312 83.761 74.8057
1880.692540 83.766 74.8464
1894.320813 83.774 74.8733
1908.047843 83.782 74.8819
1921.874344 83.793 74.8674
1935.801038 83.804 74.8248
1949.828650 83.816 74.7497
1963.957912 83.828 74.6393
1978.189561 83.838 74.4930
1992.524338 83.845 74.3125
2006.962991 83.850 74.1008
2021.506272 83.852 73.8614
2036.154940 83.851 73.5968
2050.909758 83.848 73.3089
2065.771495 83.842 72.9991
2080.740927 83.833 72.6692
2095.818833 83.822 72.3205
2111.006001 83.809 71.9542
2126.303220 83.795 71.5705
2141.711290 83.779 71.1691
2157.231013 83.763 70.7495
2172.863198 83.745 70.3115
2188.608660 83.726 69.8552
2204.468221 83.705 69.3810
2220.442706 83.683 68.8904
2236.532950 83.660 68.3856
2252.739789 83.635 67.8694
2269.064070 83.608 67.3449
2285.506644 83.580 66.8147
2302.068367 83.551 66.2811
2318.750104 83.521 65.7453
2335.552723 83.492 65.2079
2352.477101 83.463 64.6685
2369.524119 83.436 64.1257
2386.694668 83.409 63.5777
2403.989641 83.385 63.0226
2421.409941 83.362 62.4583
2438.956476 83.341 61.8835
2456.630160 83.321 61.2973
2474.431915 83.303 60.6996
2492.362668 83.286 60.0905
2510.423356 83.271 59.4703
2528.614918 83.256 58.8391
2546.938304 83.243 58.1965
2565.394469 83.231 57.5413
2583.984375 83.219 56.8726
2602.708991 83.207 56.1904
2621.569293 83.194 55.4962
2640.566265 83.179 54.7935
2659.700897 83.161 54.0879
2678.974186 83.140 53.3862
2698.387137 83.115 52.6966
2717.940763 83.087 52.0270
2737.636082 83.055 51.3850
2757.474121 83.021 50.7769
2777.455915 82.985 50.2074
2797.582506 82.948 49.6802
2817.854942 82.911 49.1982
2838.274281 82.874 48.7629
2858.841586 82.838 48.3754
2879.557931 82.804 48.0357
2900.424394 82.772 47.7433
2921.442065 82.744 47.4969
2942.612039 82.719 47.2946
2963.935418 82.697 47.1339
2985.413316 82.681 47.0113
3007.046852 82.668 46.9220
3028.837153 82.661 46.8600
3050.785356 82.659 46.8181
3072.892604 82.661 46.7881
3095.160050 82.668 46.7616
3117.588856 82.678 46.7292
3140.180190 82.692 46.6817
3162.935230 82.706 46.6107
3185.855163 82.721 46.5089
3208.941182 82.733 46.3722
3232.194493 82.742 46.2000
3255.616307 82.745 45.9961
3279.207844 82.740 45.7685
3302.970336 82.726 45.5286
3326.905021 82.704 45.2897
3351.013146 82.674 45.0652
3375.295969 82.637 44.8671
3399.754755 82.596 44.7033
3424.390779 82.555 44.5767
3449.205326 82.515 44.4833
3474.199690 82.482 44.4119
3499.375173 82.457 44.3443
3524.733088 82.443 44.2572
3550.274757 82.441 44.1246
3576.001511 82.451 43.9209
3601.914692 82.471 43.6237
3628.015651 82.498 43.2166
3654.305748 82.529 42.6908
3680.786354 82.559 42.0455
3707.458849 82.586 41.2877
