* Measurement data measured by REW V5.31.3
* Source: EXCL: Headset (USB-C to 3.5mm Headphone Jack Adapter), MICROPHONE (Master Volume), 0, volume: 0.750
* Format: 256k Log Swept Sine, 1 sweep at -12.0 dBFS with no timing reference
* Dated: Apr 1, 2025 11:01:25 PM
* REW Settings:
*  C-weighting compensation: Off
*  Target level: 75.0 dB
* Note: ; 
* Measurement: Satyr 3 (Stock) R9
* Smoothing: 1/6 octave
* Frequency Step: 96 ppo
* Start Frequency: 20.0 Hz
*
* Freq(Hz) SPL(dB) Phase(degrees)
20.187378 81.403 -91.1561
20.333664 81.433 -91.2284
20.481010 81.473 -91.3278
20.629424 81.524 -91.4544
20.778913 81.582 -91.6088
20.929486 81.649 -91.7912
21.081150 81.723 -92.0019
21.233912 81.802 -92.2408
21.387782 81.887 -92.5067
21.542767 81.976 -92.7982
21.698874 82.070 -93.1126
21.856113 82.166 -93.4469
22.014492 82.266 -93.7973
22.174018 82.368 -94.1600
22.334700 82.472 -94.5311
22.496546 82.578 -94.9072
22.659566 82.684 -95.2852
22.823766 82.790 -95.6625
22.989157 82.895 -96.0372
23.155745 82.997 -96.4073
23.323542 83.095 -96.7712
23.492554 83.188 -97.1272
23.662790 83.275 -97.4733
23.834261 83.355 -97.8077
24.006973 83.426 -98.1283
24.180938 83.490 -98.4334
24.356163 83.545 -98.7222
24.532658 83.592 -98.9951
24.710431 83.633 -99.2540
24.889493 83.669 -99.5027
25.069853 83.700 -99.7472
25.251519 83.729 -99.9951
25.434502 83.756 -100.2551
25.618811 83.783 -100.5367
25.804456 83.811 -100.8483
25.991445 83.840 -101.1970
26.179790 83.871 -101.5873
26.369500 83.903 -102.0208
26.560584 83.937 -102.4954
26.753053 83.971 -103.0060
26.946917 84.006 -103.5448
27.142185 84.041 -104.1025
27.338869 84.077 -104.6688
27.536977 84.114 -105.2340
27.736522 84.152 -105.7898
27.937512 84.191 -106.3299
28.139959 84.232 -106.8504
28.343872 84.275 -107.3501
28.549264 84.319 -107.8302
28.756143 84.366 -108.2934
28.964522 84.414 -108.7439
29.174411 84.463 -109.1864
29.385821 84.513 -109.6255
29.598763 84.564 -110.0654
29.813248 84.616 -110.5092
30.029287 84.668 -110.9592
30.246891 84.722 -111.4169
30.466073 84.777 -111.8823
30.686842 84.834 -112.3549
30.909212 84.894 -112.8333
31.133193 84.957 -113.3156
31.358797 85.023 -113.7998
31.586035 85.092 -114.2837
31.814921 85.166 -114.7650
32.045465 85.243 -115.2420
32.277680 85.323 -115.7132
32.511577 85.406 -116.1775
32.747169 85.492 -116.6342
32.984469 85.579 -117.0829
33.223488 85.667 -117.5236
33.464239 85.757 -117.9561
33.706735 85.847 -118.3811
33.950987 85.937 -118.7988
34.197010 86.028 -119.2104
34.444816 86.119 -119.6166
34.694417 86.211 -120.0188
34.945827 86.304 -120.4182
35.199059 86.399 -120.8160
35.454126 86.494 -121.2134
35.711041 86.590 -121.6110
35.969818 86.686 -122.0095
36.230470 86.783 -122.4094
36.493011 86.879 -122.8108
36.757455 86.975 -123.2140
37.023814 87.069 -123.6193
37.292104 87.161 -124.0270
37.562338 87.252 -124.4375
37.834530 87.340 -124.8511
38.108695 87.425 -125.2683
38.384846 87.507 -125.6894
38.662999 87.586 -126.1146
38.943167 87.663 -126.5436
39.225365 87.737 -126.9757
39.509608 87.808 -127.4097
39.795911 87.876 -127.8439
40.084289 87.943 -128.2765
40.374756 88.008 -128.7056
40.667328 88.071 -129.1298
40.962020 88.133 -129.5486
41.258848 88.194 -129.9623
41.557827 88.254 -130.3725
41.858972 88.313 -130.7811
42.162299 88.372 -131.1905
42.467824 88.429 -131.6031
42.775564 88.485 -132.0209
43.085533 88.540 -132.4452
43.397749 88.593 -132.8772
43.712227 88.646 -133.3174
44.028983 88.697 -133.7663
44.348036 88.749 -134.2239
44.669400 88.800 -134.6903
44.993093 88.850 -135.1649
45.319131 88.901 -135.6469
45.647532 88.952 -136.1355
45.978313 89.001 -136.6292
46.311491 89.050 -137.1267
46.647083 89.097 -137.6266
46.985107 89.143 -138.1276
47.325581 89.186 -138.6288
47.668521 89.226 -139.1292
48.013947 89.263 -139.6284
48.361876 89.297 -140.1260
48.712326 89.327 -140.6219
49.065315 89.354 -141.1160
49.420863 89.378 -141.6084
49.778987 89.399 -142.0992
50.139706 89.418 -142.5891
50.503039 89.434 -143.0785
50.869005 89.450 -143.5679
51.237623 89.463 -144.0578
51.608912 89.475 -144.5480
51.982891 89.486 -145.0384
52.359580 89.495 -145.5286
52.739000 89.503 -146.0180
53.121168 89.510 -146.5064
53.506106 89.515 -146.9935
53.893833 89.518 -147.4790
54.284370 89.520 -147.9627
54.677737 89.520 -148.4438
55.073955 89.519 -148.9210
55.473043 89.518 -149.3928
55.875024 89.515 -149.8572
56.279917 89.513 -150.3122
56.687745 89.511 -150.7562
57.098527 89.509 -151.1881
57.512287 89.509 -151.6086
57.929045 89.510 -152.0197
58.348822 89.512 -152.4262
58.771642 89.518 -152.8349
59.197525 89.526 -153.2542
59.626495 89.538 -153.6922
60.058573 89.553 -154.1548
60.493782 89.572 -154.6440
60.932145 89.593 -155.1571
61.373685 89.616 -155.6876
61.818424 89.642 -156.2269
62.266386 89.668 -156.7667
62.717593 89.696 -157.3006
63.172071 89.723 -157.8242
63.629842 89.751 -158.3357
64.090930 89.779 -158.8348
64.555359 89.807 -159.3221
65.023154 89.835 -159.7988
65.494339 89.863 -160.2658
65.968938 89.890 -160.7241
66.446976 89.916 -161.1743
66.928478 89.942 -161.6172
67.413469 89.966 -162.0538
67.901975 89.989 -162.4851
68.394021 90.010 -162.9123
68.889632 90.029 -163.3363
69.388835 90.046 -163.7579
69.891655 90.062 -164.1776
70.398118 90.075 -164.5954
70.908252 90.087 -165.0110
71.422083 90.096 -165.4237
71.939636 90.103 -165.8328
72.460941 90.108 -166.2375
72.986023 90.110 -166.6373
73.514909 90.110 -167.0321
74.047629 90.107 -167.4220
74.584208 90.102 -167.8076
75.124676 90.094 -168.1895
75.669061 90.084 -168.5684
76.217390 90.071 -168.9445
76.769692 90.056 -169.3180
77.325997 90.039 -169.6889
77.886333 90.021 -170.0569
78.450730 90.000 -170.4221
79.019216 89.978 -170.7845
79.591822 89.954 -171.1441
80.168577 89.930 -171.5012
80.749512 89.904 -171.8562
81.334656 89.877 -172.2093
81.924040 89.850 -172.5607
82.517696 89.823 -172.9103
83.115653 89.795 -173.2575
83.717943 89.766 -173.6017
84.324598 89.738 -173.9419
84.935649 89.710 -174.2773
85.551128 89.681 -174.6079
86.171066 89.653 -174.9337
86.795497 89.624 -175.2555
87.424453 89.595 -175.5738
88.057967 89.565 -175.8890
88.696071 89.535 -176.2011
89.338800 89.505 -176.5096
89.986185 89.474 -176.8139
90.638262 89.442 -177.1134
91.295065 89.410 -177.4077
91.956626 89.378 -177.6966
92.622982 89.345 -177.9802
93.294166 89.313 -178.2585
93.970214 89.281 -178.5319
94.651161 89.250 -178.8005
95.337042 89.220 -179.0649
96.027894 89.190 -179.3254
96.723752 89.160 -179.5826
97.424652 89.132 -179.8373
98.130631 89.103 179.9099
98.841726 89.075 179.6583
99.557974 89.048 179.4078
100.279412 89.021 179.1586
101.006078 88.994 178.9110
101.738010 88.967 178.6657
102.475245 88.941 178.4230
103.217823 88.916 178.1833
103.965782 88.890 177.9465
104.719161 88.866 177.7124
105.477999 88.842 177.4807
106.242336 88.819 177.2514
107.012212 88.798 177.0244
107.787666 88.777 176.8000
108.568740 88.758 176.5782
109.355474 88.740 176.3593
110.147909 88.723 176.1430
110.946086 88.707 175.9291
111.750047 88.691 175.7170
112.559834 88.677 175.5065
113.375489 88.662 175.2973
114.197055 88.649 175.0895
115.024574 88.635 174.8833
115.858089 88.621 174.6790
116.697645 88.607 174.4769
117.543284 88.593 174.2774
118.395051 88.579 174.0808
119.252990 88.564 173.8874
120.117147 88.549 173.6973
120.987565 88.533 173.5107
121.864291 88.517 173.3278
122.747370 88.499 173.1488
123.636848 88.481 172.9736
124.532771 88.463 172.8019
125.435187 88.443 172.6332
126.344142 88.423 172.4665
127.259684 88.403 172.3010
128.181860 88.382 172.1360
129.110718 88.360 171.9714
130.046308 88.337 171.8074
130.988677 88.314 171.6444
131.937875 88.289 171.4832
132.893951 88.262 171.3242
133.856956 88.234 171.1676
134.826938 88.205 171.0128
135.803950 88.173 170.8594
136.788041 88.139 170.7068
137.779264 88.104 170.5547
138.777669 88.067 170.4034
139.783309 88.028 170.2539
140.796237 87.987 170.1074
141.816504 87.944 169.9655
142.844165 87.899 169.8298
143.879273 87.853 169.7018
144.921881 87.804 169.5832
145.972045 87.754 169.4753
147.029819 87.702 169.3792
148.095257 87.648 169.2957
149.168417 87.594 169.2249
150.249353 87.538 169.1668
151.338121 87.482 169.1213
152.434780 87.427 169.0882
153.539385 87.371 169.0674
154.651995 87.316 169.0589
155.772667 87.263 169.0630
156.901460 87.210 169.0802
158.038432 87.159 169.1111
159.183644 87.109 169.1564
160.337154 87.060 169.2169
161.499023 87.013 169.2930
162.669312 86.967 169.3849
163.848081 86.922 169.4926
165.035392 86.879 169.6158
166.231306 86.837 169.7543
167.435887 86.797 169.9070
168.649196 86.758 170.0730
169.871298 86.722 170.2505
171.102255 86.688 170.4376
172.342133 86.656 170.6317
173.590995 86.628 170.8302
174.848907 86.603 171.0305
176.115934 86.581 171.2300
177.392143 86.563 171.4272
178.677599 86.548 171.6207
179.972371 86.536 171.8093
181.276525 86.527 171.9919
182.590129 86.520 172.1668
183.913252 86.515 172.3323
185.245964 86.512 172.4867
186.588332 86.510 172.6289
187.940428 86.509 172.7579
189.302322 86.510 172.8730
190.674085 86.512 172.9739
192.055788 86.514 173.0605
193.447503 86.517 173.1329
194.849303 86.520 173.1915
196.261262 86.523 173.2364
197.683452 86.526 173.2681
199.115948 86.528 173.2868
200.558824 86.531 173.2929
202.012156 86.534 173.2870
203.476019 86.536 173.2700
204.950490 86.538 173.2425
206.435646 86.540 173.2050
207.931564 86.541 173.1585
209.438322 86.542 173.1037
210.955998 86.542 173.0415
212.484672 86.541 172.9726
214.024424 86.540 172.8974
215.575333 86.538 172.8161
217.137481 86.536 172.7290
218.710948 86.534 172.6363
220.295818 86.532 172.5388
221.892172 86.529 172.4371
223.500094 86.527 172.3327
225.119668 86.524 172.2270
226.750978 86.521 172.1215
228.394109 86.518 172.0177
230.049147 86.515 171.9173
231.716178 86.513 171.8216
233.395289 86.511 171.7318
235.086567 86.509 171.6489
236.790102 86.508 171.5734
238.505980 86.508 171.5054
240.234293 86.509 171.4443
241.975130 86.510 171.3893
243.728581 86.511 171.3390
245.494739 86.513 171.2919
247.273695 86.516 171.2466
249.065542 86.518 171.2018
250.870374 86.520 171.1571
252.688284 86.522 171.1123
254.519367 86.523 171.0677
256.363720 86.524 171.0239
258.221437 86.524 170.9810
260.092616 86.524 170.9393
261.977354 86.524 170.8986
263.875750 86.524 170.8589
265.787903 86.523 170.8202
267.713911 86.523 170.7826
269.653877 86.522 170.7465
271.607900 86.522 170.7120
273.576083 86.521 170.6795
275.558528 86.521 170.6491
277.555338 86.521 170.6208
279.566619 86.521 170.5942
281.592474 86.521 170.5693
283.633009 86.522 170.5461
285.688331 86.522 170.5247
287.758546 86.524 170.5059
289.843763 86.526 170.4901
291.944090 86.528 170.4779
294.059638 86.531 170.4695
296.190515 86.534 170.4648
298.336833 86.539 170.4631
300.498705 86.544 170.4639
302.676243 86.550 170.4664
304.869559 86.557 170.4702
307.078770 86.564 170.4747
309.303989 86.572 170.4799
311.545334 86.582 170.4855
313.802919 86.591 170.4916
316.076865 86.601 170.4982
318.367288 86.611 170.5052
320.674309 86.621 170.5127
322.998047 86.631 170.5209
325.338624 86.641 170.5301
327.696162 86.650 170.5405
330.070783 86.659 170.5522
332.462612 86.667 170.5654
334.871773 86.675 170.5801
337.298392 86.681 170.5963
339.742595 86.687 170.6132
342.204510 86.691 170.6305
344.684265 86.694 170.6476
347.181989 86.696 170.6638
349.697813 86.696 170.6786
352.231868 86.696 170.6916
354.784285 86.695 170.7024
357.355198 86.692 170.7109
359.944741 86.689 170.7171
362.553049 86.686 170.7211
365.180258 86.682 170.7233
367.826505 86.677 170.7239
370.491927 86.672 170.7235
373.176665 86.667 170.7223
375.880856 86.662 170.7208
378.604644 86.657 170.7191
381.348169 86.652 170.7173
384.111575 86.646 170.7154
386.895006 86.641 170.7130
389.698607 86.636 170.7099
392.522524 86.630 170.7053
395.366904 86.625 170.6988
398.231895 86.618 170.6895
401.117648 86.611 170.6770
404.024312 86.602 170.6608
406.952038 86.592 170.6409
409.900981 86.580 170.6178
412.871292 86.566 170.5925
415.863128 86.549 170.5664
418.876643 86.530 170.5421
421.911996 86.507 170.5226
424.969344 86.482 170.5116
428.048847 86.453 170.5129
431.150666 86.422 170.5299
434.274961 86.389 170.5651
437.421897 86.355 170.6192
440.591636 86.321 170.6908
443.784345 86.287 170.7769
447.000189 86.254 170.8731
450.239337 86.223 170.9749
453.501956 86.193 171.0777
456.788219 86.165 171.1780
460.098294 86.139 171.2734
463.432356 86.114 171.3624
466.790578 86.090 171.4445
470.173135 86.067 171.5196
473.580203 86.045 171.5883
477.011961 86.024 171.6512
480.468586 86.003 171.7094
483.950259 85.984 171.7634
487.457163 85.964 171.8142
490.989478 85.946 171.8624
494.547390 85.929 171.9085
498.131084 85.913 171.9531
501.740748 85.898 171.9963
505.376568 85.885 172.0385
509.038735 85.873 172.0798
512.727439 85.863 172.1205
516.442874 85.855 172.1606
520.185232 85.849 172.2002
523.954708 85.845 172.2393
527.751500 85.843 172.2780
531.575805 85.843 172.3162
535.427822 85.845 172.3542
539.307753 85.849 172.3917
543.215800 85.856 172.4286
547.152165 85.865 172.4645
551.117055 85.876 172.4989
555.110677 85.888 172.5313
559.133237 85.903 172.5616
563.184947 85.920 172.5896
567.266018 85.938 172.6157
571.376661 85.957 172.6403
575.517092 85.977 172.6641
579.687526 85.998 172.6876
583.888181 86.020 172.7115
588.119275 86.043 172.7359
592.381030 86.066 172.7609
596.673667 86.089 172.7862
600.997410 86.112 172.8113
605.352485 86.134 172.8354
609.739119 86.157 172.8576
614.157540 86.179 172.8770
618.607979 86.199 172.8929
623.090667 86.219 172.9048
627.605839 86.238 172.9122
632.153730 86.255 172.9149
636.734576 86.271 172.9128
641.348617 86.285 172.9057
645.996094 86.298 172.8937
650.677248 86.310 172.8769
655.392323 86.319 172.8552
660.141566 86.327 172.8290
664.925224 86.333 172.7992
669.743546 86.336 172.7672
674.596784 86.337 172.7355
679.485191 86.336 172.7073
684.409020 86.332 172.6859
689.368530 86.326 172.6747
694.363979 86.319 172.6756
699.395626 86.311 172.6889
704.463736 86.304 172.7124
709.568570 86.296 172.7424
714.710396 86.290 172.7741
719.889483 86.283 172.8030
725.106099 86.277 172.8256
730.360516 86.271 172.8397
735.653010 86.265 172.8444
740.983855 86.257 172.8397
746.353329 86.249 172.8265
751.761713 86.238 172.8055
757.209288 86.227 172.7779
762.696339 86.213 172.7447
768.223151 86.198 172.7069
773.790013 86.181 172.6654
779.397214 86.163 172.6209
785.045047 86.143 172.5739
790.733808 86.123 172.5250
796.463791 86.101 172.4746
802.235296 86.079 172.4232
808.048623 86.056 172.3712
813.904077 86.033 172.3191
819.801961 86.010 172.2673
825.742584 85.987 172.2162
831.726255 85.965 172.1655
837.753287 85.943 172.1150
843.823992 85.923 172.0642
849.938689 85.903 172.0128
856.097695 85.883 171.9606
862.301332 85.865 171.9080
868.549922 85.847 171.8550
874.843793 85.830 171.8018
881.183272 85.814 171.7482
887.568689 85.799 171.6933
894.000378 85.786 171.6364
900.478673 85.774 171.5768
907.003913 85.763 171.5134
913.576437 85.753 171.4460
920.196588 85.745 171.3746
926.864712 85.738 171.2997
933.581156 85.732 171.2223
940.346270 85.727 171.1435
947.160407 85.723 171.0644
954.023921 85.721 170.9856
960.937172 85.721 170.9077
967.900519 85.723 170.8309
974.914325 85.727 170.7551
981.978956 85.734 170.6797
989.094780 85.742 170.6039
996.262169 85.754 170.5266
1003.481495 85.768 170.4464
1010.753136 85.784 170.3624
1018.077470 85.802 170.2740
1025.454879 85.822 170.1807
1032.885748 85.843 170.0827
1040.370463 85.866 169.9800
1047.909417 85.891 169.8730
1055.503000 85.916 169.7619
1063.151610 85.942 169.6470
1070.855645 85.969 169.5286
1078.615506 85.997 169.4069
1086.431599 86.025 169.2820
1094.304330 86.053 169.1535
1102.234110 86.082 169.0211
1110.221353 86.110 168.8839
1118.266475 86.138 168.7413
1126.369895 86.165 168.5928
1134.532035 86.191 168.4381
1142.753322 86.215 168.2775
1151.034184 86.237 168.1117
1159.375052 86.257 167.9421
1167.776361 86.274 167.7706
1176.238550 86.288 167.5995
1184.762060 86.299 167.4315
1193.347334 86.307 167.2695
1201.994821 86.312 167.1165
1210.704971 86.315 166.9753
1219.478238 86.315 166.8482
1228.315080 86.314 166.7369
1237.215957 86.312 166.6425
1246.181334 86.309 166.5653
1255.211678 86.305 166.5051
1264.307459 86.302 166.4610
1273.469152 86.300 166.4313
1282.697235 86.298 166.4144
1291.992188 86.297 166.4083
1301.354495 86.297 166.4114
1310.784647 86.297 166.4227
1320.283132 86.298 166.4411
1329.850448 86.299 166.4661
1339.487093 86.300 166.4975
1349.193569 86.301 166.5357
1358.970381 86.301 166.5815
1368.818041 86.302 166.6359
1378.737061 86.303 166.6993
1388.727958 86.304 166.7727
1398.791253 86.305 166.8568
1408.927471 86.307 166.9528
1419.137140 86.309 167.0621
1429.420793 86.313 167.1862
1439.778965 86.318 167.3266
1450.212197 86.324 167.4854
1460.721033 86.332 167.6639
1471.306019 86.342 167.8634
1481.967709 86.354 168.0844
1492.706658 86.369 168.3267
1503.523426 86.386 168.5901
1514.418576 86.405 168.8738
1525.392678 86.426 169.1774
1536.446302 86.449 169.5009
1547.580025 86.474 169.8442
1558.794428 86.500 170.2075
1570.090095 86.528 170.5898
1581.467615 86.557 170.9898
1592.927581 86.587 171.4056
1604.470591 86.618 171.8348
1616.097246 86.651 172.2744
1627.808153 86.686 172.7215
1639.603922 86.722 173.1724
1651.485168 86.761 173.6228
1663.452510 86.801 174.0676
1675.506573 86.844 174.5012
1687.647984 86.888 174.9182
1699.877377 86.934 175.3137
1712.195390 86.982 175.6837
1724.602663 87.030 176.0257
1737.099845 87.079 176.3390
1749.687587 87.127 176.6240
1762.366544 87.174 176.8827
1775.137379 87.220 177.1173
1788.000756 87.264 177.3303
1800.957346 87.308 177.5237
1814.007826 87.349 177.6988
1827.152874 87.390 177.8563
1840.393177 87.428 177.9962
1853.729425 87.465 178.1186
1867.162312 87.500 178.2231
1880.692540 87.532 178.3093
1894.320813 87.562 178.3768
1908.047843 87.589 178.4250
1921.874344 87.612 178.4537
1935.801038 87.632 178.4630
1949.828650 87.648 178.4536
1963.957912 87.658 178.4269
1978.189561 87.664 178.3853
1992.524338 87.665 178.3314
2006.962991 87.661 178.2681
2021.506272 87.652 178.1984
2036.154940 87.639 178.1253
2050.909758 87.620 178.0521
2065.771495 87.598 177.9816
2080.740927 87.572 177.9166
2095.818833 87.543 177.8594
2111.006001 87.511 177.8115
2126.303220 87.479 177.7734
2141.711290 87.446 177.7449
2157.231013 87.413 177.7244
2172.863198 87.382 177.7089
2188.608660 87.352 177.6944
2204.468221 87.325 177.6762
2220.442706 87.300 177.6497
2236.532950 87.278 177.6107
2252.739789 87.257 177.5563
2269.064070 87.237 177.4856
2285.506644 87.219 177.3989
2302.068367 87.200 177.2981
2318.750104 87.183 177.1858
2335.552723 87.165 177.0645
2352.477101 87.148 176.9360
2369.524119 87.133 176.8011
2386.694668 87.119 176.6592
2403.989641 87.107 176.5085
2421.409941 87.097 176.3458
2438.956476 87.090 176.1671
2456.630160 87.085 175.9683
2474.431915 87.083 175.7455
2492.362668 87.082 175.4965
2510.423356 87.081 175.2205
2528.614918 87.080 174.9188
2546.938304 87.077 174.5944
2565.394469 87.072 174.2519
2583.984375 87.065 173.8970
2602.708991 87.054 173.5363
2621.569293 87.040 173.1769
2640.566265 87.022 172.8261
2659.700897 87.001 172.4906
2678.974186 86.976 172.1758
2698.387137 86.950 171.8860
2717.940763 86.922 171.6240
2737.636082 86.892 171.3913
2757.474121 86.862 171.1888
2777.455915 86.831 171.0169
2797.582506 86.799 170.8760
2817.854942 86.766 170.7671
2838.274281 86.732 170.6921
2858.841586 86.697 170.6542
2879.557931 86.660 170.6573
2900.424394 86.622 170.7064
2921.442065 86.583 170.8068
2942.612039 86.543 170.9636
2963.935418 86.503 171.1811
2985.413316 86.464 171.4620
3007.046852 86.426 171.8074
3028.837153 86.391 172.2160
3050.785356 86.360 172.6843
3072.892604 86.332 173.2068
3095.160050 86.309 173.7764
3117.588856 86.291 174.3848
3140.180190 86.279 175.0227
3162.935230 86.272 175.6802
3185.855163 86.270 176.3466
3208.941182 86.274 177.0103
3232.194493 86.282 177.6592
3255.616307 86.295 178.2815
3279.207844 86.310 178.8657
3302.970336 86.328 179.4020
3326.905021 86.346 179.8833
3351.013146 86.362 -179.6939
3375.295969 86.376 -179.3291
3399.754755 86.386 -179.0176
3424.390779 86.390 -178.7517
3449.205326 86.389 -178.5219
3474.199690 86.383 -178.3185
3499.375173 86.372 -178.1336
3524.733088 86.359 -177.9623
