* Measurement data measured by REW V5.31.3
* Source: EXCL: Headset (USB-C to 3.5mm Headphone Jack Adapter), MICROPHONE (Master Volume), 0, volume: 0.260
* Format: 256k Log Swept Sine, 1 sweep at -12.0 dBFS with no timing reference
* Dated: Mar 7, 2025 11:52:36 AM
* REW Settings:
*  C-weighting compensation: Off
*  Target level: 75.0 dB
* Note: ; 
* Measurement: Massive Mod V1 L1
* Smoothing: 1/6 octave
* Frequency Step: 96 ppo
* Start Frequency: 20.0 Hz
*
* Freq(Hz) SPL(dB) Phase(degrees)
20.141602 92.914 -37.2804
20.287556 92.919 -37.5907
20.434568 92.926 -38.0029
20.582645 92.935 -38.5009
20.731796 92.947 -39.0674
20.882027 92.961 -39.6850
21.033346 92.978 -40.3376
21.185763 93.000 -41.0110
21.339284 93.025 -41.6935
21.493917 93.056 -42.3760
21.649671 93.093 -43.0520
21.806553 93.137 -43.7177
21.964572 93.187 -44.3713
22.123737 93.243 -45.0128
22.284054 93.306 -45.6438
22.445534 93.373 -46.2669
22.608183 93.445 -46.8853
22.772012 93.520 -47.5024
22.937027 93.596 -48.1217
23.103238 93.672 -48.7462
23.270654 93.747 -49.3784
23.439282 93.819 -50.0202
23.609133 93.887 -50.6729
23.780215 93.951 -51.3368
23.952536 94.010 -52.0116
24.126106 94.063 -52.6965
24.300934 94.111 -53.3899
24.477028 94.155 -54.0898
24.654399 94.195 -54.7938
24.833055 94.232 -55.4994
25.013005 94.269 -56.2038
25.194260 94.306 -56.9046
25.376828 94.345 -57.5994
25.560719 94.388 -58.2866
25.745942 94.436 -58.9647
25.932508 94.490 -59.6332
26.120426 94.552 -60.2918
26.309705 94.620 -60.9413
26.500356 94.695 -61.5827
26.692388 94.777 -62.2174
26.885812 94.864 -62.8473
27.080638 94.955 -63.4743
27.276876 95.048 -64.1003
27.474535 95.143 -64.7274
27.673627 95.237 -65.3573
27.874161 95.328 -65.9916
28.076149 95.416 -66.6317
28.279600 95.500 -67.2786
28.484526 95.578 -67.9330
28.690937 95.651 -68.5952
28.898843 95.717 -69.2652
29.108256 95.778 -69.9422
29.319186 95.833 -70.6254
29.531645 95.884 -71.3131
29.745644 95.930 -72.0035
29.961193 95.973 -72.6942
30.178304 96.014 -73.3827
30.396989 96.053 -74.0666
30.617258 96.092 -74.7434
30.839123 96.131 -75.4114
31.062596 96.170 -76.0694
31.287688 96.211 -76.7173
31.514412 96.254 -77.3561
31.742778 96.299 -77.9880
31.972800 96.348 -78.6159
32.204488 96.400 -79.2435
32.437855 96.456 -79.8742
32.672913 96.515 -80.5111
32.909674 96.579 -81.1557
33.148151 96.646 -81.8083
33.388356 96.718 -82.4672
33.630302 96.793 -83.1293
33.874001 96.871 -83.7900
34.119466 96.952 -84.4448
34.366710 97.035 -85.0892
34.615745 97.120 -85.7195
34.866585 97.205 -86.3338
35.119243 97.289 -86.9314
35.373731 97.372 -87.5132
35.630064 97.451 -88.0814
35.888254 97.527 -88.6388
36.148315 97.597 -89.1891
36.410261 97.662 -89.7363
36.674104 97.720 -90.2848
36.939860 97.774 -90.8392
37.207542 97.822 -91.4039
37.477163 97.867 -91.9828
37.748738 97.908 -92.5789
38.022281 97.946 -93.1934
38.297806 97.982 -93.8259
38.575327 98.016 -94.4742
38.854860 98.049 -95.1347
39.136419 98.080 -95.8032
39.420017 98.112 -96.4753
39.705671 98.142 -97.1478
39.993395 98.172 -97.8188
40.283203 98.201 -98.4881
40.575112 98.231 -99.1570
40.869136 98.260 -99.8281
41.165290 98.289 -100.5050
41.463591 98.318 -101.1916
41.764053 98.347 -101.8914
42.066693 98.377 -102.6073
42.371525 98.407 -103.3410
42.678567 98.439 -104.0924
42.987834 98.473 -104.8600
43.299341 98.507 -105.6405
43.613106 98.543 -106.4295
43.929145 98.580 -107.2221
44.247473 98.617 -108.0137
44.568109 98.655 -108.8006
44.891068 98.692 -109.5806
45.216367 98.729 -110.3528
45.544023 98.766 -111.1182
45.874054 98.801 -111.8791
46.206476 98.837 -112.6387
46.541307 98.872 -113.4008
46.878565 98.907 -114.1689
47.218266 98.944 -114.9453
47.560429 98.981 -115.7310
47.905072 99.019 -116.5250
48.252212 99.058 -117.3248
48.601867 99.098 -118.1265
48.954056 99.137 -118.9262
49.308798 99.175 -119.7206
49.666109 99.213 -120.5078
50.026010 99.249 -121.2871
50.388520 99.283 -122.0589
50.753656 99.315 -122.8238
51.121437 99.345 -123.5825
51.491884 99.372 -124.3349
51.865016 99.397 -125.0807
52.240851 99.420 -125.8192
52.619410 99.442 -126.5501
53.000712 99.461 -127.2734
53.384777 99.478 -127.9895
53.771625 99.494 -128.6990
54.161276 99.507 -129.4030
54.553751 99.518 -130.1024
54.949070 99.526 -130.7979
55.347254 99.531 -131.4899
55.748323 99.532 -132.1787
56.152298 99.530 -132.8641
56.559201 99.523 -133.5463
56.969052 99.513 -134.2259
57.381873 99.500 -134.9040
57.797686 99.483 -135.5820
58.216512 99.466 -136.2613
58.638373 99.449 -136.9430
59.063291 99.435 -137.6279
59.491288 99.425 -138.3161
59.922386 99.420 -139.0068
60.356608 99.421 -139.6990
60.793977 99.428 -140.3907
61.234515 99.439 -141.0798
61.678246 99.453 -141.7639
62.125192 99.467 -142.4412
62.575377 99.481 -143.1106
63.028824 99.492 -143.7720
63.485557 99.501 -144.4255
63.945599 99.506 -145.0720
64.408975 99.508 -145.7122
64.875709 99.506 -146.3470
65.345825 99.501 -146.9770
65.819348 99.492 -147.6026
66.296302 99.481 -148.2241
66.776713 99.468 -148.8416
67.260604 99.452 -149.4549
67.748002 99.434 -150.0637
68.238932 99.415 -150.6677
68.733420 99.395 -151.2665
69.231490 99.375 -151.8599
69.733170 99.354 -152.4480
70.238485 99.332 -153.0314
70.747463 99.310 -153.6104
71.260128 99.287 -154.1855
71.776508 99.264 -154.7571
72.296630 99.241 -155.3249
72.820521 99.218 -155.8889
73.348209 99.194 -156.4484
73.879720 99.171 -157.0033
74.415083 99.147 -157.5531
74.954326 99.123 -158.0976
75.497475 99.099 -158.6369
76.044561 99.075 -159.1711
76.595612 99.050 -159.7001
77.150655 99.024 -160.2239
77.709720 98.998 -160.7422
78.272837 98.972 -161.2548
78.840034 98.945 -161.7615
79.411342 98.918 -162.2622
79.986789 98.889 -162.7571
80.566406 98.861 -163.2465
81.150224 98.832 -163.7306
81.738272 98.802 -164.2096
82.330581 98.771 -164.6835
82.927182 98.740 -165.1520
83.528107 98.708 -165.6147
84.133386 98.676 -166.0712
84.743051 98.644 -166.5211
85.357134 98.612 -166.9643
85.975667 98.580 -167.4008
86.598682 98.548 -167.8310
87.226212 98.517 -168.2556
87.858289 98.487 -168.6756
88.494946 98.458 -169.0921
89.136217 98.430 -169.5061
89.782135 98.403 -169.9183
90.432733 98.378 -170.3286
91.088046 98.353 -170.7365
91.748108 98.330 -171.1408
92.412952 98.307 -171.5401
93.082615 98.285 -171.9328
93.757130 98.262 -172.3179
94.436533 98.238 -172.6945
95.120859 98.213 -173.0622
95.810144 98.187 -173.4214
96.504423 98.158 -173.7728
97.203734 98.128 -174.1175
97.908112 98.095 -174.4568
98.617595 98.060 -174.7917
99.332219 98.023 -175.1233
100.052021 97.983 -175.4519
100.777039 97.942 -175.7776
101.507311 97.900 -176.1002
102.242875 97.857 -176.4191
102.983769 97.813 -176.7340
103.730032 97.770 -177.0448
104.481702 97.727 -177.3518
105.238820 97.685 -177.6555
106.001424 97.645 -177.9566
106.769554 97.606 -178.2553
107.543250 97.569 -178.5514
108.322553 97.534 -178.8446
109.107503 97.501 -179.1343
109.898141 97.469 -179.4198
110.694508 97.438 -179.7004
111.496646 97.409 -179.9755
112.304596 97.379 179.7552
113.118402 97.350 179.4921
113.938104 97.320 179.2353
114.763747 97.289 178.9846
115.595372 97.257 178.7393
116.433024 97.223 178.4984
117.276746 97.188 178.2607
118.126581 97.151 178.0243
118.982575 97.113 177.7869
119.844772 97.075 177.5464
120.713217 97.036 177.3015
121.587954 96.997 177.0518
122.469031 96.959 176.7981
123.356492 96.921 176.5420
124.250384 96.883 176.2849
125.150753 96.846 176.0281
126.057647 96.810 175.7728
126.971113 96.776 175.5195
127.891198 96.743 175.2688
128.817950 96.711 175.0209
129.751418 96.681 174.7759
130.691651 96.652 174.5337
131.638696 96.624 174.2940
132.592604 96.596 174.0568
133.553425 96.569 173.8219
134.521208 96.540 173.5891
135.496004 96.510 173.3582
136.477864 96.479 173.1291
137.466839 96.446 172.9022
138.462981 96.410 172.6782
139.466340 96.371 172.4582
140.476971 96.328 172.2435
141.494925 96.283 172.0354
142.520256 96.234 171.8354
143.553016 96.183 171.6449
144.593260 96.129 171.4650
145.641043 96.072 171.2968
146.696418 96.014 171.1408
147.759441 95.956 170.9974
148.830166 95.897 170.8663
149.908651 95.838 170.7470
150.994951 95.780 170.6393
152.089123 95.722 170.5429
153.191223 95.666 170.4587
154.301310 95.611 170.3878
155.419441 95.558 170.3320
156.545674 95.505 170.2927
157.680069 95.454 170.2709
158.822683 95.404 170.2675
159.973578 95.354 170.2827
161.132813 95.306 170.3165
162.300447 95.258 170.3687
163.476543 95.211 170.4388
164.661162 95.166 170.5264
165.854364 95.122 170.6307
167.056213 95.080 170.7506
168.266772 95.040 170.8846
169.486102 95.003 171.0309
170.714268 94.969 171.1870
171.951334 94.938 171.3498
173.197364 94.911 171.5160
174.452424 94.886 171.6817
175.716578 94.864 171.8433
176.989893 94.846 171.9973
178.272434 94.830 172.1411
179.564270 94.816 172.2725
180.865467 94.803 172.3899
182.176092 94.793 172.4923
183.496216 94.783 172.5792
184.825905 94.773 172.6502
186.165229 94.763 172.7050
187.514259 94.752 172.7433
188.873065 94.739 172.7651
190.241717 94.725 172.7704
191.620287 94.709 172.7597
193.008847 94.690 172.7336
194.407468 94.668 172.6930
195.816225 94.644 172.6393
197.235190 94.616 172.5744
198.664438 94.585 172.5002
200.104042 94.552 172.4190
201.554078 94.517 172.3331
203.014622 94.481 172.2445
204.485750 94.444 172.1550
205.967538 94.407 172.0655
207.460064 94.371 171.9764
208.963405 94.336 171.8873
210.477640 94.303 171.7980
212.002848 94.272 171.7080
213.539108 94.244 171.6177
215.086500 94.221 171.5277
216.645105 94.201 171.4393
218.215005 94.185 171.3539
219.796281 94.174 171.2729
221.389015 94.167 171.1973
222.993292 94.165 171.1277
224.609193 94.166 171.0641
226.236804 94.171 171.0062
227.876209 94.179 170.9537
229.527494 94.189 170.9063
231.190745 94.202 170.8638
232.866048 94.216 170.8257
234.553491 94.232 170.7913
236.253163 94.249 170.7593
237.965150 94.267 170.7285
239.689544 94.285 170.6976
241.426433 94.304 170.6660
243.175909 94.322 170.6332
244.938062 94.340 170.5992
246.712984 94.357 170.5642
248.500768 94.373 170.5283
250.301507 94.388 170.4914
252.115295 94.402 170.4538
253.942226 94.415 170.4155
255.782396 94.427 170.3766
257.635901 94.438 170.3368
259.502837 94.448 170.2954
261.383301 94.457 170.2516
263.277392 94.465 170.2040
265.185209 94.472 170.1518
267.106850 94.477 170.0945
269.042417 94.481 170.0325
270.992009 94.482 169.9667
272.955729 94.480 169.8981
274.933678 94.475 169.8276
276.925961 94.467 169.7559
278.932681 94.454 169.6839
280.953942 94.437 169.6129
282.989850 94.415 169.5446
285.040511 94.389 169.4803
287.106032 94.357 169.4218
289.186521 94.320 169.3699
291.282086 94.279 169.3250
293.392836 94.233 169.2870
295.518881 94.184 169.2555
297.660333 94.131 169.2300
299.817302 94.076 169.2101
301.989902 94.018 169.1956
304.178245 93.958 169.1860
306.382446 93.898 169.1815
308.602620 93.838 169.1817
310.838882 93.778 169.1863
313.091348 93.719 169.1950
315.360137 93.662 169.2072
317.645367 93.608 169.2225
319.947156 93.558 169.2405
322.265625 93.512 169.2608
324.600895 93.470 169.2833
326.953086 93.433 169.3080
329.322323 93.403 169.3350
331.708729 93.378 169.3643
334.112427 93.360 169.3960
336.533543 93.348 169.4298
338.972204 93.342 169.4651
341.428536 93.343 169.5012
343.902668 93.349 169.5370
346.394729 93.361 169.5714
348.904848 93.377 169.6036
351.433156 93.396 169.6335
353.979786 93.418 169.6611
356.544869 93.441 169.6868
359.128540 93.465 169.7108
361.730934 93.487 169.7335
364.352185 93.508 169.7552
366.992431 93.525 169.7762
369.651810 93.539 169.7968
372.330459 93.549 169.8172
375.028519 93.555 169.8374
377.746130 93.555 169.8574
380.483434 93.550 169.8773
383.240574 93.541 169.8973
386.017693 93.526 169.9175
388.814937 93.507 169.9379
391.632450 93.485 169.9587
394.470380 93.459 169.9802
397.328875 93.432 170.0027
400.208084 93.405 170.0264
403.108157 93.377 170.0516
406.029245 93.351 170.0787
408.971500 93.327 170.1080
411.935076 93.306 170.1398
414.920127 93.288 170.1743
417.926810 93.276 170.2116
420.955280 93.268 170.2514
424.005695 93.265 170.2934
427.078215 93.266 170.3373
430.173000 93.271 170.3826
433.290211 93.279 170.4291
436.430010 93.288 170.4765
439.592562 93.299 170.5247
442.778031 93.309 170.5735
445.986583 93.318 170.6230
449.218386 93.326 170.6730
452.473607 93.331 170.7239
455.752418 93.333 170.7758
459.054987 93.333 170.8289
462.381489 93.331 170.8831
465.732096 93.327 170.9387
469.106983 93.321 170.9955
472.506325 93.314 171.0536
475.930301 93.306 171.1127
479.379088 93.297 171.1728
482.852867 93.288 171.2338
486.351817 93.280 171.2958
489.876123 93.272 171.3588
493.425968 93.265 171.4225
497.001536 93.259 171.4868
500.603014 93.256 171.5515
504.230589 93.256 171.6160
507.884452 93.260 171.6801
511.564792 93.268 171.7432
515.271802 93.283 171.8049
519.005673 93.303 171.8647
522.766602 93.330 171.9222
526.554785 93.364 171.9768
530.370418 93.405 172.0282
534.213700 93.452 172.0759
538.084833 93.504 172.1198
541.984018 93.560 172.1597
545.911457 93.618 172.1955
549.867357 93.678 172.2275
553.851922 93.737 172.2558
557.865362 93.793 172.2808
561.907884 93.846 172.3030
565.979700 93.893 172.3229
570.081022 93.934 172.3411
574.212064 93.967 172.3580
578.373042 93.992 172.3741
582.564171 94.008 172.3895
586.785671 94.015 172.4041
591.037762 94.013 172.4173
595.320665 94.001 172.4288
599.634604 93.979 172.4381
603.979804 93.947 172.4449
608.356491 93.907 172.4489
612.764893 93.860 172.4500
617.205240 93.805 172.4481
621.677763 93.746 172.4431
626.182696 93.683 172.4350
630.720274 93.619 172.4238
635.290733 93.555 172.4096
639.894312 93.494 172.3925
644.531250 93.436 172.3726
649.201789 93.384 172.3502
653.906173 93.338 172.3257
658.644647 93.299 172.2995
663.417457 93.268 172.2719
668.224854 93.246 172.2429
673.067086 93.233 172.2126
677.944408 93.229 172.1808
682.857073 93.234 172.1470
687.805336 93.248 172.1106
692.789457 93.270 172.0710
697.809695 93.299 172.0277
702.866312 93.335 171.9803
707.959571 93.377 171.9285
713.089738 93.422 171.8726
718.257080 93.470 171.8127
723.461867 93.519 171.7497
728.704370 93.567 171.6847
733.984862 93.613 171.6190
739.303619 93.657 171.5537
744.660918 93.697 171.4892
750.057038 93.734 171.4252
755.492260 93.767 171.3607
760.966869 93.796 171.2938
766.481148 93.823 171.2227
772.035387 93.846 171.1457
777.629873 93.867 171.0613
783.264900 93.884 170.9693
788.940760 93.898 170.8696
794.657750 93.908 170.7628
800.416168 93.914 170.6496
806.216313 93.913 170.5307
812.058489 93.906 170.4064
817.943000 93.892 170.2768
823.870152 93.870 170.1418
829.840255 93.840 170.0016
835.853619 93.802 169.8560
841.910559 93.758 169.7053
848.011390 93.707 169.5497
854.156430 93.654 169.3896
860.346000 93.598 169.2251
866.580422 93.544 169.0566
872.860020 93.493 168.8843
879.185124 93.447 168.7089
885.556062 93.409 168.5307
891.973166 93.380 168.3501
898.436771 93.361 168.1676
904.947215 93.352 167.9836
911.504835 93.354 167.7988
918.109975 93.364 167.6140
924.762978 93.382 167.4297
931.464192 93.407 167.2467
938.213966 93.437 167.0651
945.012651 93.471 166.8848
951.860602 93.506 166.7048
958.758176 93.542 166.5242
965.705733 93.576 166.3417
972.703635 93.609 166.1560
979.752246 93.639 165.9666
986.851935 93.665 165.7733
994.003071 93.688 165.5762
1001.206027 93.708 165.3762
1008.461179 93.724 165.1742
1015.768904 93.739 164.9711
1023.129584 93.753 164.7675
1030.543603 93.768 164.5639
1038.011347 93.784 164.3604
1045.533205 93.803 164.1567
1053.109569 93.825 163.9531
1060.740836 93.851 163.7494
1068.427401 93.881 163.5462
1076.169666 93.914 163.3441
1083.968035 93.949 163.1443
1091.822915 93.986 162.9478
1099.734713 94.024 162.7548
1107.703844 94.061 162.5652
1115.730723 94.095 162.3785
1123.815768 94.125 162.1940
1131.959400 94.151 162.0113
1140.162045 94.171 161.8303
1148.424129 94.184 161.6515
1156.746083 94.191 161.4756
1165.128342 94.192 161.3034
1173.571343 94.188 161.1357
1182.075524 94.180 160.9731
1190.641331 94.171 160.8163
1199.269209 94.160 160.6652
1207.959608 94.151 160.5200
1216.712981 94.144 160.3801
1225.529785 94.141 160.2448
1234.410479 94.142 160.1132
1243.355526 94.148 159.9843
1252.365393 94.160 159.8575
1261.440549 94.176 159.7325
1270.581467 94.196 159.6092
1279.788624 94.220 159.4878
1289.062500 94.247 159.3689
1298.403578 94.276 159.2532
1307.812346 94.305 159.1411
1317.289293 94.335 159.0328
1326.834914 94.363 158.9289
1336.449707 94.389 158.8302
1346.134173 94.412 158.7383
1355.888816 94.431 158.6548
1365.714145 94.447 158.5815
1375.610673 94.457 158.5193
1385.578915 94.464 158.4686
1395.619391 94.466 158.4294
1405.732624 94.464 158.4017
1415.919142 94.457 158.3856
1426.179476 94.446 158.3812
1436.514160 94.432 158.3887
1446.923734 94.415 158.4080
1457.408740 94.394 158.4387
1467.969724 94.371 158.4806
1478.607238 94.346 158.5332
1489.321836 94.318 158.5959
1500.114076 94.288 158.6684
1510.984521 94.256 158.7505
1521.933737 94.220 158.8426
1532.962297 94.181 158.9458
1544.070773 94.138 159.0616
1555.259747 94.093 159.1912
1566.529800 94.044 159.3350
1577.881521 93.994 159.4919
1589.315501 93.942 159.6598
1600.832336 93.889 159.8370
1612.432627 93.835 160.0225
1624.116978 93.780 160.2166
1635.886000 93.725 160.4212
1647.740304 93.669 160.6392
1659.680509 93.614 160.8736
1671.707238 93.559 161.1274
1683.821118 93.504 161.4034
1696.022780 93.451 161.7037
1708.312860 93.399 162.0302
1720.692000 93.349 162.3839
1733.160843 93.303 162.7638
1745.720041 93.262 163.1665
1758.370248 93.227 163.5861
1771.112124 93.199 164.0152
1783.946332 93.178 164.4464
1796.873543 93.165 164.8730
1809.894429 93.160 165.2900
1823.009670 93.160 165.6935
1836.219950 93.167 166.0810
1849.525956 93.179 166.4509
1862.928384 93.193 166.8033
1876.427931 93.210 167.1394
1890.025301 93.228 167.4611
1903.721204 93.246 167.7701
1917.516352 93.264 168.0681
1931.411466 93.280 168.3547
1945.407270 93.296 168.6287
1959.504493 93.312 168.8880
1973.703870 93.326 169.1307
1988.006142 93.340 169.3552
2002.412054 93.354 169.5601
2016.922357 93.368 169.7440
2031.537808 93.384 169.9052
2046.259169 93.401 170.0432
2061.087206 93.419 170.1575
2076.022694 93.441 170.2481
2091.066410 93.465 170.3139
2106.219139 93.493 170.3536
2121.481671 93.523 170.3664
2136.854802 93.557 170.3527
2152.339333 93.594 170.3143
2167.936071 93.633 170.2536
2183.645829 93.675 170.1729
2199.469427 93.720 170.0754
2215.407689 93.767 169.9646
2231.461446 93.818 169.8449
2247.631536 93.871 169.7206
2263.918800 93.928 169.5954
2280.324089 93.989 169.4720
2296.848258 94.053 169.3524
2313.492167 94.122 169.2373
2330.256685 94.194 169.1270
2347.142685 94.270 169.0212
2364.151049 94.349 168.9200
2381.282662 94.429 168.8237
2398.538418 94.511 168.7332
2415.919216 94.594 168.6499
2433.425962 94.676 168.5748
2451.059570 94.757 168.5087
2468.820958 94.837 168.4511
2486.711052 94.916 168.4008
2504.730786 94.991 168.3554
2522.881098 95.064 168.3120
2541.162934 95.132 168.2669
2559.577248 95.196 168.2166
2578.125000 95.253 168.1582
2596.807157 95.303 168.0895
2615.624692 95.345 168.0098
2634.578586 95.378 167.9198
2653.669829 95.401 167.8218
2672.899414 95.412 167.7200
2692.268345 95.413 167.6193
2711.777632 95.402 167.5258
2731.428290 95.379 167.4457
2751.221345 95.345 167.3853
2771.157829 95.301 167.3505
2791.238781 95.246 167.3471
2811.465248 95.183 167.3805
2831.838284 95.111 167.4553
2852.358952 95.031 167.5755
2873.028321 94.945 167.7446
2893.847468 94.854 167.9652
2914.817480 94.759 168.2396
2935.939449 94.660 168.5693
2957.214476 94.560 168.9552
2978.643672 94.459 169.3978
3000.228152 94.359 169.8967
3021.969041 94.262 170.4504
3043.867475 94.169 171.0563
3065.924593 94.082 171.7097
3088.141547 94.003 172.4038
3110.519493 93.934 173.1288
3133.059600 93.876 173.8727
3155.763041 93.830 174.6214
3178.631001 93.796 175.3601
3201.664672 93.775 176.0746
3224.865254 93.766 176.7526
3248.233957 93.768 177.3848
3271.771999 93.779 177.9658
3295.480608 93.799 178.4935
3319.361019 93.827 178.9696
3343.414477 93.861 179.3985
3367.642236 93.901 179.7873
3392.045560 93.947 -179.8557
3416.625721 94.000 -179.5218
3441.383999 94.060 -179.2040
3466.321686 94.129 -178.8986
3491.440082 94.209 -178.6066
3516.740496 94.302 -178.3347
3542.224247 94.407 -178.0949
3567.892664 94.527 -177.9041
