* Measurement data measured by REW V5.31.3
* Source: EXCL: Headset (USB-C to 3.5mm Headphone Jack Adapter), MICROPHONE (Master Volume), 0, volume: 0.750
* Format: 256k Log Swept Sine, 1 sweep at -12.0 dBFS with no timing reference
* Dated: Apr 1, 2025 11:00:21 PM
* REW Settings:
*  C-weighting compensation: Off
*  Target level: 75.0 dB
* Note: ; 
* Measurement: Satyr 3 (Stock) R5
* Smoothing: 1/6 octave
* Frequency Step: 96 ppo
* Start Frequency: 20.0 Hz
*
* Freq(Hz) SPL(dB) Phase(degrees)
20.187378 81.385 -87.8477
20.333664 81.412 -88.0694
20.481010 81.447 -88.3621
20.629424 81.491 -88.7121
20.778913 81.543 -89.1046
20.929486 81.602 -89.5253
21.081150 81.668 -89.9617
21.233912 81.740 -90.4034
21.387782 81.819 -90.8426
21.542767 81.903 -91.2742
21.698874 81.994 -91.6953
21.856113 82.090 -92.1053
22.014492 82.191 -92.5052
22.174018 82.296 -92.8970
22.334700 82.404 -93.2838
22.496546 82.514 -93.6686
22.659566 82.625 -94.0544
22.823766 82.736 -94.4434
22.989157 82.844 -94.8375
23.155745 82.951 -95.2371
23.323542 83.053 -95.6421
23.492554 83.152 -96.0513
23.662790 83.246 -96.4630
23.834261 83.336 -96.8754
24.006973 83.421 -97.2864
24.180938 83.503 -97.6946
24.356163 83.582 -98.0992
24.532658 83.657 -98.5001
24.710431 83.731 -98.8980
24.889493 83.802 -99.2943
25.069853 83.871 -99.6904
25.251519 83.938 -100.0876
25.434502 84.002 -100.4868
25.618811 84.061 -100.8879
25.804456 84.117 -101.2899
25.991445 84.168 -101.6906
26.179790 84.213 -102.0876
26.369500 84.253 -102.4780
26.560584 84.288 -102.8599
26.753053 84.318 -103.2320
26.946917 84.346 -103.5952
27.142185 84.372 -103.9520
27.338869 84.397 -104.3069
27.536977 84.424 -104.6659
27.736522 84.452 -105.0357
27.937512 84.483 -105.4227
28.139959 84.518 -105.8323
28.343872 84.556 -106.2673
28.549264 84.597 -106.7282
28.756143 84.640 -107.2124
28.964522 84.686 -107.7149
29.174411 84.733 -108.2286
29.385821 84.782 -108.7457
29.598763 84.832 -109.2585
29.813248 84.884 -109.7600
30.029287 84.938 -110.2452
30.246891 84.994 -110.7113
30.466073 85.052 -111.1575
30.686842 85.113 -111.5852
30.909212 85.178 -111.9973
31.133193 85.246 -112.3978
31.358797 85.317 -112.7913
31.586035 85.392 -113.1824
31.814921 85.470 -113.5755
32.045465 85.552 -113.9745
32.277680 85.636 -114.3823
32.511577 85.723 -114.8008
32.747169 85.813 -115.2311
32.984469 85.904 -115.6730
33.223488 85.996 -116.1255
33.464239 86.088 -116.5867
33.706735 86.180 -117.0544
33.950987 86.272 -117.5264
34.197010 86.363 -118.0007
34.444816 86.453 -118.4763
34.694417 86.543 -118.9527
34.945827 86.632 -119.4304
35.199059 86.721 -119.9105
35.454126 86.810 -120.3943
35.711041 86.898 -120.8832
35.969818 86.987 -121.3777
36.230470 87.076 -121.8779
36.493011 87.164 -122.3826
36.757455 87.253 -122.8896
37.023814 87.340 -123.3960
37.292104 87.427 -123.8983
37.562338 87.513 -124.3931
37.834530 87.597 -124.8771
38.108695 87.679 -125.3478
38.384846 87.760 -125.8038
38.662999 87.838 -126.2449
38.943167 87.913 -126.6720
39.225365 87.986 -127.0871
39.509608 88.056 -127.4931
39.795911 88.123 -127.8931
40.084289 88.188 -128.2904
40.374756 88.251 -128.6878
40.667328 88.311 -129.0874
40.962020 88.370 -129.4907
41.258848 88.427 -129.8984
41.557827 88.483 -130.3105
41.858972 88.539 -130.7267
42.162299 88.593 -131.1463
42.467824 88.648 -131.5686
42.775564 88.701 -131.9928
43.085533 88.754 -132.4184
43.397749 88.806 -132.8450
43.712227 88.857 -133.2725
44.028983 88.907 -133.7014
44.348036 88.956 -134.1323
44.669400 89.004 -134.5667
44.993093 89.052 -135.0059
45.319131 89.099 -135.4512
45.647532 89.144 -135.9031
45.978313 89.189 -136.3614
46.311491 89.233 -136.8246
46.647083 89.274 -137.2906
46.985107 89.314 -137.7567
47.325581 89.352 -138.2207
47.668521 89.388 -138.6812
48.013947 89.422 -139.1380
48.361876 89.453 -139.5924
48.712326 89.483 -140.0471
49.065315 89.511 -140.5054
49.420863 89.536 -140.9705
49.778987 89.559 -141.4450
50.139706 89.581 -141.9302
50.503039 89.600 -142.4257
50.869005 89.616 -142.9295
51.237623 89.631 -143.4382
51.608912 89.644 -143.9483
51.982891 89.656 -144.4560
52.359580 89.666 -144.9590
52.739000 89.676 -145.4560
53.121168 89.684 -145.9473
53.506106 89.692 -146.4346
53.893833 89.700 -146.9200
54.284370 89.706 -147.4060
54.677737 89.712 -147.8947
55.073955 89.718 -148.3878
55.473043 89.723 -148.8867
55.875024 89.727 -149.3921
56.279917 89.732 -149.9041
56.687745 89.736 -150.4224
57.098527 89.741 -150.9463
57.512287 89.746 -151.4739
57.929045 89.752 -152.0029
58.348822 89.759 -152.5293
58.771642 89.767 -153.0478
59.197525 89.777 -153.5520
59.626495 89.789 -154.0359
60.058573 89.802 -154.4948
60.493782 89.817 -154.9269
60.932145 89.835 -155.3340
61.373685 89.855 -155.7210
61.818424 89.876 -156.0942
62.266386 89.900 -156.4604
62.717593 89.926 -156.8257
63.172071 89.953 -157.1947
63.629842 89.982 -157.5703
64.090930 90.012 -157.9540
64.555359 90.043 -158.3456
65.023154 90.075 -158.7441
65.494339 90.106 -159.1483
65.968938 90.138 -159.5569
66.446976 90.169 -159.9690
66.928478 90.199 -160.3840
67.413469 90.227 -160.8014
67.901975 90.254 -161.2204
68.394021 90.279 -161.6404
68.889632 90.302 -162.0606
69.388835 90.322 -162.4801
69.891655 90.340 -162.8979
70.398118 90.355 -163.3131
70.908252 90.368 -163.7250
71.422083 90.378 -164.1332
71.939636 90.385 -164.5378
72.460941 90.390 -164.9395
72.986023 90.392 -165.3389
73.514909 90.391 -165.7369
74.047629 90.387 -166.1338
74.584208 90.381 -166.5298
75.124676 90.373 -166.9245
75.669061 90.362 -167.3172
76.217390 90.350 -167.7069
76.769692 90.336 -168.0928
77.325997 90.321 -168.4740
77.886333 90.304 -168.8498
78.450730 90.285 -169.2199
79.019216 90.266 -169.5840
79.591822 90.245 -169.9425
80.168577 90.224 -170.2957
80.749512 90.201 -170.6442
81.334656 90.178 -170.9891
81.924040 90.154 -171.3313
82.517696 90.130 -171.6716
83.115653 90.105 -172.0109
83.717943 90.079 -172.3495
84.324598 90.053 -172.6875
84.935649 90.027 -173.0245
85.551128 90.000 -173.3599
86.171066 89.973 -173.6930
86.795497 89.945 -174.0230
87.424453 89.917 -174.3492
88.057967 89.888 -174.6712
88.696071 89.859 -174.9886
89.338800 89.829 -175.3011
89.986185 89.799 -175.6086
90.638262 89.769 -175.9112
91.295065 89.738 -176.2091
91.956626 89.707 -176.5026
92.622982 89.675 -176.7921
93.294166 89.643 -177.0777
93.970214 89.611 -177.3598
94.651161 89.578 -177.6380
95.337042 89.545 -177.9121
96.027894 89.513 -178.1818
96.723752 89.480 -178.4467
97.424652 89.448 -178.7065
98.130631 89.417 -178.9610
98.841726 89.386 -179.2101
99.557974 89.355 -179.4538
100.279412 89.326 -179.6927
101.006078 89.297 -179.9272
101.738010 89.269 179.8416
102.475245 89.243 179.6132
103.217823 89.217 179.3867
103.965782 89.193 179.1620
104.719161 89.170 178.9390
105.477999 89.148 178.7181
106.242336 89.128 178.4998
107.012212 89.109 178.2842
107.787666 89.090 178.0714
108.568740 89.073 177.8610
109.355474 89.057 177.6528
110.147909 89.042 177.4464
110.946086 89.028 177.2414
111.750047 89.015 177.0375
112.559834 89.002 176.8348
113.375489 88.989 176.6331
114.197055 88.978 176.4328
115.024574 88.966 176.2343
115.858089 88.955 176.0379
116.697645 88.944 175.8444
117.543284 88.933 175.6541
118.395051 88.922 175.4673
119.252990 88.910 175.2840
120.117147 88.898 175.1042
120.987565 88.885 174.9274
121.864291 88.871 174.7533
122.747370 88.856 174.5811
123.636848 88.841 174.4104
124.532771 88.824 174.2404
125.435187 88.807 174.0707
126.344142 88.789 173.9011
127.259684 88.770 173.7318
128.181860 88.749 173.5633
129.110718 88.729 173.3959
130.046308 88.707 173.2303
130.988677 88.685 173.0669
131.937875 88.662 172.9058
132.893951 88.638 172.7467
133.856956 88.614 172.5892
134.826938 88.587 172.4325
135.803950 88.560 172.2763
136.788041 88.531 172.1202
137.779264 88.500 171.9644
138.777669 88.467 171.8093
139.783309 88.433 171.6553
140.796237 88.396 171.5032
141.816504 88.358 171.3542
142.844165 88.317 171.2094
143.879273 88.274 171.0702
144.921881 88.229 170.9382
145.972045 88.182 170.8150
147.029819 88.133 170.7023
148.095257 88.082 170.6015
149.168417 88.030 170.5137
150.249353 87.976 170.4399
151.338121 87.922 170.3804
152.434780 87.867 170.3354
153.539385 87.812 170.3048
154.651995 87.758 170.2885
155.772667 87.704 170.2864
156.901460 87.651 170.2987
158.038432 87.599 170.3257
159.183644 87.548 170.3677
160.337154 87.498 170.4250
161.499023 87.449 170.4975
162.669312 87.402 170.5849
163.848081 87.356 170.6869
165.035392 87.312 170.8029
166.231306 87.270 170.9323
167.435887 87.230 171.0742
168.649196 87.192 171.2277
169.871298 87.157 171.3919
171.102255 87.124 171.5659
172.342133 87.094 171.7487
173.590995 87.068 171.9399
174.848907 87.044 172.1386
176.115934 87.024 172.3436
177.392143 87.007 172.5529
178.677599 86.993 172.7635
179.972371 86.982 172.9720
181.276525 86.973 173.1749
182.590129 86.968 173.3691
183.913252 86.964 173.5524
185.245964 86.962 173.7233
186.588332 86.962 173.8807
187.940428 86.963 174.0240
189.302322 86.965 174.1526
190.674085 86.968 174.2662
192.055788 86.972 174.3645
193.447503 86.977 174.4472
194.849303 86.982 174.5145
196.261262 86.987 174.5670
197.683452 86.993 174.6054
199.115948 86.998 174.6306
200.558824 87.003 174.6427
202.012156 87.008 174.6418
203.476019 87.013 174.6272
204.950490 87.017 174.5983
206.435646 87.021 174.5550
207.931564 87.024 174.4982
209.438322 87.028 174.4295
210.955998 87.030 174.3514
212.484672 87.033 174.2666
214.024424 87.034 174.1776
215.575333 87.035 174.0866
217.137481 87.036 173.9952
218.710948 87.036 173.9042
220.295818 87.036 173.8142
221.892172 87.036 173.7254
223.500094 87.036 173.6380
225.119668 87.035 173.5520
226.750978 87.035 173.4673
228.394109 87.035 173.3836
230.049147 87.036 173.3007
231.716178 87.037 173.2177
233.395289 87.038 173.1344
235.086567 87.040 173.0505
236.790102 87.042 172.9661
238.505980 87.044 172.8816
240.234293 87.047 172.7975
241.975130 87.050 172.7145
243.728581 87.053 172.6330
245.494739 87.057 172.5534
247.273695 87.060 172.4758
249.065542 87.064 172.4003
250.870374 87.067 172.3265
252.688284 87.071 172.2541
254.519367 87.075 172.1829
256.363720 87.079 172.1126
258.221437 87.083 172.0434
260.092616 87.087 171.9753
261.977354 87.091 171.9083
263.875750 87.094 171.8427
265.787903 87.098 171.7784
267.713911 87.101 171.7159
269.653877 87.103 171.6556
271.607900 87.106 171.5987
273.576083 87.108 171.5459
275.558528 87.110 171.4982
277.555338 87.113 171.4559
279.566619 87.115 171.4190
281.592474 87.118 171.3873
283.633009 87.121 171.3599
285.688331 87.124 171.3360
287.758546 87.128 171.3148
289.843763 87.133 171.2953
291.944090 87.138 171.2770
294.059638 87.143 171.2595
296.190515 87.149 171.2422
298.336833 87.156 171.2250
300.498705 87.163 171.2076
302.676243 87.170 171.1900
304.869559 87.178 171.1720
307.078770 87.186 171.1539
309.303989 87.195 171.1360
311.545334 87.204 171.1186
313.802919 87.213 171.1021
316.076865 87.222 171.0868
318.367288 87.232 171.0727
320.674309 87.241 171.0601
322.998047 87.250 171.0488
325.338624 87.259 171.0391
327.696162 87.268 171.0307
330.070783 87.276 171.0238
332.462612 87.283 171.0182
334.871773 87.290 171.0140
337.298392 87.296 171.0109
339.742595 87.302 171.0085
342.204510 87.306 171.0064
344.684265 87.310 171.0042
347.181989 87.313 171.0016
349.697813 87.315 170.9982
352.231868 87.316 170.9939
354.784285 87.317 170.9886
357.355198 87.316 170.9824
359.944741 87.315 170.9756
362.553049 87.313 170.9687
365.180258 87.310 170.9619
367.826505 87.307 170.9554
370.491927 87.304 170.9491
373.176665 87.300 170.9426
375.880856 87.296 170.9356
378.604644 87.292 170.9276
381.348169 87.288 170.9182
384.111575 87.285 170.9071
386.895006 87.281 170.8940
389.698607 87.277 170.8785
392.522524 87.272 170.8602
395.366904 87.268 170.8386
398.231895 87.263 170.8133
401.117648 87.257 170.7838
404.024312 87.250 170.7498
406.952038 87.241 170.7116
409.900981 87.231 170.6694
412.871292 87.219 170.6240
415.863128 87.205 170.5770
418.876643 87.187 170.5305
421.911996 87.167 170.4877
424.969344 87.144 170.4521
428.048847 87.117 170.4280
431.150666 87.088 170.4191
434.274961 87.057 170.4276
437.421897 87.024 170.4540
440.591636 86.992 170.4962
443.784345 86.959 170.5501
447.000189 86.928 170.6109
450.239337 86.898 170.6736
453.501956 86.870 170.7341
456.788219 86.843 170.7897
460.098294 86.816 170.8386
463.432356 86.791 170.8804
466.790578 86.767 170.9153
470.173135 86.743 170.9443
473.580203 86.720 170.9686
477.011961 86.697 170.9892
480.468586 86.675 171.0072
483.950259 86.654 171.0236
487.457163 86.633 171.0388
490.989478 86.614 171.0536
494.547390 86.595 171.0684
498.131084 86.578 171.0833
501.740748 86.562 171.0985
505.376568 86.548 171.1140
509.038735 86.535 171.1294
512.727439 86.524 171.1443
516.442874 86.515 171.1583
520.185232 86.507 171.1710
523.954708 86.501 171.1824
527.751500 86.497 171.1924
531.575805 86.494 171.2012
535.427822 86.493 171.2088
539.307753 86.494 171.2154
543.215800 86.498 171.2211
547.152165 86.503 171.2256
551.117055 86.510 171.2292
555.110677 86.519 171.2317
559.133237 86.530 171.2333
563.184947 86.542 171.2340
567.266018 86.556 171.2344
571.376661 86.571 171.2347
575.517092 86.587 171.2356
579.687526 86.603 171.2375
583.888181 86.620 171.2407
588.119275 86.637 171.2452
592.381030 86.654 171.2509
596.673667 86.671 171.2574
600.997410 86.688 171.2646
605.352485 86.705 171.2719
609.739119 86.721 171.2790
614.157540 86.736 171.2855
618.607979 86.751 171.2912
623.090667 86.764 171.2960
627.605839 86.776 171.2999
632.153730 86.787 171.3028
636.734576 86.797 171.3048
641.348617 86.805 171.3060
645.996094 86.812 171.3062
650.677248 86.818 171.3054
655.392323 86.822 171.3032
660.141566 86.825 171.2995
664.925224 86.827 171.2945
669.743546 86.828 171.2890
674.596784 86.827 171.2842
679.485191 86.824 171.2820
684.409020 86.821 171.2847
689.368530 86.816 171.2939
694.363979 86.811 171.3105
699.395626 86.805 171.3336
704.463736 86.800 171.3607
709.568570 86.796 171.3880
714.710396 86.792 171.4113
719.889483 86.788 171.4266
725.106099 86.784 171.4313
730.360516 86.780 171.4241
735.653010 86.775 171.4049
740.983855 86.768 171.3749
746.353329 86.760 171.3356
751.761713 86.749 171.2892
757.209288 86.737 171.2374
762.696339 86.723 171.1816
768.223151 86.707 171.1228
773.790013 86.689 171.0617
779.397214 86.670 170.9984
785.045047 86.649 170.9330
790.733808 86.627 170.8658
796.463791 86.605 170.7971
802.235296 86.581 170.7276
808.048623 86.558 170.6582
813.904077 86.534 170.5894
819.801961 86.510 170.5209
825.742584 86.487 170.4525
831.726255 86.464 170.3828
837.753287 86.442 170.3107
843.823992 86.421 170.2356
849.938689 86.400 170.1571
856.097695 86.380 170.0757
862.301332 86.361 169.9921
868.549922 86.342 169.9075
874.843793 86.324 169.8222
881.183272 86.306 169.7366
887.568689 86.290 169.6500
894.000378 86.274 169.5619
900.478673 86.259 169.4714
907.003913 86.245 169.3778
913.576437 86.231 169.2810
920.196588 86.219 169.1811
926.864712 86.207 169.0789
933.581156 86.196 168.9755
940.346270 86.186 168.8724
947.160407 86.178 168.7707
954.023921 86.171 168.6710
960.937172 86.165 168.5735
967.900519 86.162 168.4786
974.914325 86.161 168.3864
981.978956 86.162 168.2968
989.094780 86.165 168.2097
996.262169 86.171 168.1241
1003.481495 86.180 168.0388
1010.753136 86.192 167.9517
1018.077470 86.206 167.8609
1025.454879 86.223 167.7645
1032.885748 86.242 167.6611
1040.370463 86.263 167.5496
1047.909417 86.285 167.4298
1055.503000 86.309 167.3018
1063.151610 86.333 167.1660
1070.855645 86.358 167.0230
1078.615506 86.383 166.8732
1086.431599 86.407 166.7170
1094.304330 86.431 166.5547
1102.234110 86.455 166.3867
1110.221353 86.477 166.2136
1118.266475 86.498 166.0360
1126.369895 86.516 165.8553
1134.532035 86.533 165.6727
1142.753322 86.548 165.4899
1151.034184 86.560 165.3087
1159.375052 86.569 165.1314
1167.776361 86.576 164.9603
1176.238550 86.580 164.7979
1184.762060 86.582 164.6465
1193.347334 86.582 164.5083
1201.994821 86.581 164.3850
1210.704971 86.578 164.2777
1219.478238 86.575 164.1865
1228.315080 86.572 164.1105
1237.215957 86.569 164.0478
1246.181334 86.567 163.9957
1255.211678 86.566 163.9517
1264.307459 86.565 163.9133
1273.469152 86.565 163.8785
1282.697235 86.566 163.8460
1291.992188 86.566 163.8153
1301.354495 86.565 163.7871
1310.784647 86.564 163.7628
1320.283132 86.562 163.7441
1329.850448 86.558 163.7325
1339.487093 86.554 163.7293
1349.193569 86.549 163.7358
1358.970381 86.543 163.7534
1368.818041 86.537 163.7831
1378.737061 86.530 163.8262
1388.727958 86.524 163.8835
1398.791253 86.517 163.9559
1408.927471 86.512 164.0446
1419.137140 86.507 164.1505
1429.420793 86.503 164.2747
1439.778965 86.501 164.4181
1450.212197 86.501 164.5817
1460.721033 86.503 164.7662
1471.306019 86.507 164.9716
1481.967709 86.514 165.1975
1492.706658 86.523 165.4432
1503.523426 86.535 165.7076
1514.418576 86.549 165.9897
1525.392678 86.565 166.2889
1536.446302 86.583 166.6043
1547.580025 86.601 166.9356
1558.794428 86.621 167.2831
1570.090095 86.641 167.6471
1581.467615 86.661 168.0281
1592.927581 86.682 168.4267
1604.470591 86.703 168.8425
1616.097246 86.724 169.2751
1627.808153 86.745 169.7230
1639.603922 86.768 170.1843
1651.485168 86.792 170.6561
1663.452510 86.818 171.1347
1675.506573 86.846 171.6154
1687.647984 86.877 172.0936
1699.877377 86.910 172.5645
1712.195390 86.946 173.0231
1724.602663 86.985 173.4650
1737.099845 87.025 173.8864
1749.687587 87.068 174.2841
1762.366544 87.113 174.6557
1775.137379 87.159 174.9996
1788.000756 87.206 175.3146
1800.957346 87.253 175.5999
1814.007826 87.300 175.8546
1827.152874 87.347 176.0781
1840.393177 87.393 176.2702
1853.729425 87.438 176.4310
1867.162312 87.479 176.5613
1880.692540 87.518 176.6621
1894.320813 87.553 176.7351
1908.047843 87.584 176.7825
1921.874344 87.610 176.8074
1935.801038 87.632 176.8129
1949.828650 87.647 176.8029
1963.957912 87.658 176.7811
1978.189561 87.663 176.7509
1992.524338 87.664 176.7148
2006.962991 87.660 176.6748
2021.506272 87.651 176.6319
2036.154940 87.639 176.5867
2050.909758 87.624 176.5397
2065.771495 87.606 176.4910
2080.740927 87.586 176.4402
2095.818833 87.563 176.3872
2111.006001 87.539 176.3313
2126.303220 87.514 176.2717
2141.711290 87.488 176.2077
2157.231013 87.461 176.1385
2172.863198 87.434 176.0634
2188.608660 87.407 175.9822
2204.468221 87.380 175.8945
2220.442706 87.353 175.8005
2236.532950 87.325 175.7008
2252.739789 87.298 175.5959
2269.064070 87.270 175.4868
2285.506644 87.244 175.3740
2302.068367 87.218 175.2579
2318.750104 87.193 175.1378
2335.552723 87.169 175.0122
2352.477101 87.147 174.8790
2369.524119 87.127 174.7355
2386.694668 87.109 174.5791
2403.989641 87.093 174.4075
2421.409941 87.079 174.2188
2438.956476 87.065 174.0119
2456.630160 87.053 173.7863
2474.431915 87.041 173.5418
2492.362668 87.030 173.2790
2510.423356 87.018 172.9990
2528.614918 87.006 172.7033
2546.938304 86.992 172.3942
2565.394469 86.977 172.0742
2583.984375 86.960 171.7469
2602.708991 86.941 171.4162
2621.569293 86.919 171.0872
2640.566265 86.894 170.7654
2659.700897 86.865 170.4566
2678.974186 86.834 170.1669
2698.387137 86.800 169.9017
2717.940763 86.763 169.6661
2737.636082 86.724 169.4646
2757.474121 86.684 169.3008
2777.455915 86.642 169.1776
2797.582506 86.600 169.0967
2817.854942 86.557 169.0598
2838.274281 86.515 169.0679
2858.841586 86.473 169.1226
2879.557931 86.431 169.2255
2900.424394 86.390 169.3789
2921.442065 86.349 169.5853
2942.612039 86.310 169.8475
2963.935418 86.273 170.1676
2985.413316 86.238 170.5472
3007.046852 86.205 170.9864
3028.837153 86.176 171.4838
3050.785356 86.152 172.0362
3072.892604 86.133 172.6386
3095.160050 86.119 173.2842
3117.588856 86.111 173.9645
3140.180190 86.110 174.6697
3162.935230 86.115 175.3888
3185.855163 86.126 176.1095
3208.941182 86.144 176.8186
3232.194493 86.168 177.5025
3255.616307 86.196 178.1476
3279.207844 86.228 178.7417
3302.970336 86.262 179.2747
3326.905021 86.296 179.7396
3351.013146 86.329 -179.8660
3375.295969 86.358 -179.5405
3399.754755 86.382 -179.2780
3424.390779 86.400 -179.0699
3449.205326 86.412 -178.9055
3474.199690 86.417 -178.7743
3499.375173 86.417 -178.6677
3524.733088 86.413 -178.5800
