* Measurement data measured by REW V5.31.3
* Source: EXCL: Headset (USB-C to 3.5mm Headphone Jack Adapter), MICROPHONE (Master Volume), 0, volume: 0.260
* Format: 256k Log Swept Sine, 1 sweep at -12.0 dBFS with no timing reference
* Dated: Feb 14, 2025 8:24:06 PM
* REW Settings:
*  C-weighting compensation: Off
*  Target level: 75.0 dB
* Note: ; 
* Measurement: Satyr 3 L4
* Smoothing: 1/6 octave
* Frequency Step: 96 ppo
* Start Frequency: 20.0 Hz
*
* Freq(Hz) SPL(dB) Phase(degrees)
20.141602 91.387 -24.8302
20.287556 91.405 -25.0535
20.434568 91.427 -25.3506
20.582645 91.451 -25.7113
20.731796 91.473 -26.1244
20.882027 91.490 -26.5795
21.033346 91.502 -27.0671
21.185763 91.505 -27.5792
21.339284 91.501 -28.1094
21.493917 91.488 -28.6528
21.649671 91.468 -29.2057
21.806553 91.443 -29.7657
21.964572 91.413 -30.3312
22.123737 91.381 -30.9014
22.284054 91.349 -31.4758
22.445534 91.318 -32.0546
22.608183 91.291 -32.6381
22.772012 91.269 -33.2269
22.937027 91.253 -33.8219
23.103238 91.244 -34.4237
23.270654 91.244 -35.0331
23.439282 91.254 -35.6509
23.609133 91.273 -36.2775
23.780215 91.303 -36.9131
23.952536 91.344 -37.5574
24.126106 91.395 -38.2098
24.300934 91.457 -38.8694
24.477028 91.528 -39.5347
24.654399 91.609 -40.2041
24.833055 91.699 -40.8757
25.013005 91.796 -41.5477
25.194260 91.898 -42.2182
25.376828 92.005 -42.8859
25.560719 92.115 -43.5498
25.745942 92.226 -44.2093
25.932508 92.337 -44.8643
26.120426 92.447 -45.5152
26.309705 92.554 -46.1628
26.500356 92.657 -46.8079
26.692388 92.754 -47.4517
26.885812 92.846 -48.0948
27.080638 92.932 -48.7381
27.276876 93.011 -49.3820
27.474535 93.084 -50.0267
27.673627 93.152 -50.6726
27.874161 93.217 -51.3194
28.076149 93.281 -51.9676
28.279600 93.348 -52.6171
28.484526 93.419 -53.2686
28.690937 93.500 -53.9226
28.898843 93.592 -54.5796
29.108256 93.699 -55.2404
29.319186 93.822 -55.9053
29.531645 93.962 -56.5744
29.745644 94.118 -57.2474
29.961193 94.288 -57.9234
30.178304 94.469 -58.6011
30.396989 94.656 -59.2789
30.617258 94.844 -59.9550
30.839123 95.028 -60.6274
31.062596 95.204 -61.2945
31.287688 95.364 -61.9549
31.514412 95.506 -62.6077
31.742778 95.626 -63.2524
31.972800 95.719 -63.8888
32.204488 95.785 -64.5176
32.437855 95.822 -65.1393
32.672913 95.829 -65.7552
32.909674 95.809 -66.3664
33.148151 95.761 -66.9743
33.388356 95.689 -67.5803
33.630302 95.597 -68.1856
33.874001 95.487 -68.7912
34.119466 95.363 -69.3976
34.366710 95.231 -70.0050
34.615745 95.094 -70.6131
34.866585 94.957 -71.2212
35.119243 94.825 -71.8284
35.373731 94.701 -72.4337
35.630064 94.589 -73.0363
35.888254 94.493 -73.6357
36.148315 94.415 -74.2317
36.410261 94.359 -74.8245
36.674104 94.325 -75.4149
36.939860 94.315 -76.0035
37.207542 94.330 -76.5912
37.477163 94.369 -77.1789
37.748738 94.433 -77.7673
38.022281 94.521 -78.3571
38.297806 94.631 -78.9488
38.575327 94.762 -79.5431
38.854860 94.914 -80.1405
39.136419 95.085 -80.7416
39.420017 95.274 -81.3470
39.705671 95.478 -81.9574
39.993395 95.698 -82.5733
40.283203 95.931 -83.1953
40.575112 96.177 -83.8237
40.869136 96.433 -84.4592
41.165290 96.699 -85.1021
41.463591 96.972 -85.7529
41.764053 97.251 -86.4120
42.066693 97.534 -87.0795
42.371525 97.818 -87.7553
42.678567 98.102 -88.4389
42.987834 98.382 -89.1297
43.299341 98.657 -89.8265
43.613106 98.924 -90.5281
43.929145 99.181 -91.2331
44.247473 99.426 -91.9402
44.568109 99.658 -92.6486
44.891068 99.876 -93.3575
45.216367 100.077 -94.0670
45.544023 100.262 -94.7775
45.874054 100.429 -95.4895
46.206476 100.578 -96.2038
46.541307 100.710 -96.9211
46.878565 100.823 -97.6417
47.218266 100.919 -98.3658
47.560429 100.999 -99.0933
47.905072 101.062 -99.8237
48.252212 101.110 -100.5567
48.601867 101.145 -101.2918
48.954056 101.167 -102.0283
49.308798 101.180 -102.7655
49.666109 101.183 -103.5031
50.026010 101.180 -104.2403
50.388520 101.172 -104.9772
50.753656 101.161 -105.7140
51.121437 101.149 -106.4513
51.491884 101.138 -107.1901
51.865016 101.128 -107.9316
52.240851 101.121 -108.6766
52.619410 101.117 -109.4259
53.000712 101.116 -110.1797
53.384777 101.119 -110.9378
53.771625 101.123 -111.6997
54.161276 101.129 -112.4648
54.553751 101.136 -113.2325
54.949070 101.143 -114.0021
55.347254 101.148 -114.7732
55.748323 101.151 -115.5453
56.152298 101.151 -116.3183
56.559201 101.147 -117.0919
56.969052 101.140 -117.8662
57.381873 101.128 -118.6409
57.797686 101.113 -119.4157
58.216512 101.094 -120.1901
58.638373 101.072 -120.9631
59.063291 101.046 -121.7332
59.491288 101.018 -122.4991
59.922386 100.989 -123.2598
60.356608 100.958 -124.0151
60.793977 100.926 -124.7653
61.234515 100.894 -125.5117
61.678246 100.861 -126.2555
62.125192 100.828 -126.9980
62.575377 100.794 -127.7400
63.028824 100.761 -128.4820
63.485557 100.727 -129.2239
63.945599 100.694 -129.9653
64.408975 100.662 -130.7052
64.875709 100.630 -131.4430
65.345825 100.600 -132.1774
65.819348 100.571 -132.9076
66.296302 100.543 -133.6328
66.776713 100.517 -134.3524
67.260604 100.493 -135.0660
67.748002 100.470 -135.7733
68.238932 100.448 -136.4744
68.733420 100.429 -137.1692
69.231490 100.410 -137.8578
69.733170 100.393 -138.5402
70.238485 100.378 -139.2163
70.747463 100.363 -139.8863
71.260128 100.350 -140.5502
71.776508 100.337 -141.2080
72.296630 100.325 -141.8598
72.820521 100.314 -142.5058
73.348209 100.304 -143.1457
73.879720 100.294 -143.7797
74.415083 100.284 -144.4076
74.954326 100.274 -145.0297
75.497475 100.264 -145.6464
76.044561 100.253 -146.2579
76.595612 100.242 -146.8647
77.150655 100.228 -147.4670
77.709720 100.213 -148.0649
78.272837 100.196 -148.6582
78.840034 100.175 -149.2467
79.411342 100.151 -149.8302
79.986789 100.123 -150.4085
80.566406 100.092 -150.9814
81.150224 100.056 -151.5487
81.738272 100.016 -152.1103
82.330581 99.973 -152.6660
82.927182 99.928 -153.2158
83.528107 99.882 -153.7597
84.133386 99.835 -154.2980
84.743051 99.792 -154.8309
85.357134 99.754 -155.3587
85.975667 99.725 -155.8817
86.598682 99.707 -156.4000
87.226212 99.705 -156.9139
87.858289 99.722 -157.4235
88.494946 99.760 -157.9289
89.136217 99.822 -158.4297
89.782135 99.908 -158.9256
90.432733 100.018 -159.4158
91.088046 100.150 -159.8997
91.748108 100.299 -160.3766
92.412952 100.463 -160.8458
93.082615 100.635 -161.3070
93.757130 100.810 -161.7603
94.436533 100.982 -162.2059
95.120859 101.147 -162.6442
95.810144 101.300 -163.0759
96.504423 101.439 -163.5017
97.203734 101.560 -163.9222
97.908112 101.664 -164.3376
98.617595 101.750 -164.7482
99.332219 101.820 -165.1539
100.052021 101.875 -165.5542
100.777039 101.917 -165.9487
101.507311 101.948 -166.3368
102.242875 101.971 -166.7181
102.983769 101.986 -167.0926
103.730032 101.997 -167.4603
104.481702 102.002 -167.8216
105.238820 102.003 -168.1770
106.001424 101.998 -168.5269
106.769554 101.987 -168.8719
107.543250 101.968 -169.2124
108.322553 101.939 -169.5487
109.107503 101.899 -169.8813
109.898141 101.847 -170.2106
110.694508 101.782 -170.5372
111.496646 101.703 -170.8614
112.304596 101.612 -171.1834
113.118402 101.509 -171.5031
113.938104 101.395 -171.8203
114.763747 101.273 -172.1346
115.595372 101.144 -172.4458
116.433024 101.011 -172.7536
117.276746 100.877 -173.0580
118.126581 100.742 -173.3586
118.982575 100.609 -173.6554
119.844772 100.478 -173.9481
120.713217 100.349 -174.2367
121.587954 100.224 -174.5214
122.469031 100.100 -174.8026
123.356492 99.978 -175.0808
124.250384 99.856 -175.3566
125.150753 99.732 -175.6305
126.057647 99.605 -175.9032
126.971113 99.473 -176.1750
127.891198 99.335 -176.4462
128.817950 99.192 -176.7165
129.751418 99.041 -176.9859
130.691651 98.883 -177.2540
131.638696 98.720 -177.5204
132.592604 98.552 -177.7845
133.553425 98.381 -178.0456
134.521208 98.209 -178.3027
135.496004 98.041 -178.5546
136.477864 97.878 -178.8001
137.466839 97.724 -179.0374
138.462981 97.583 -179.2652
139.466340 97.456 -179.4817
140.476971 97.347 -179.6853
141.494925 97.255 -179.8748
142.520256 97.181 179.9509
143.553016 97.124 179.7925
144.593260 97.081 179.6499
145.641043 97.049 179.5228
146.696418 97.024 179.4103
147.759441 97.002 179.3112
148.830166 96.980 179.2241
149.908651 96.956 179.1476
150.994951 96.926 179.0807
152.089123 96.890 179.0226
153.191223 96.846 178.9733
154.301310 96.797 178.9331
155.419441 96.742 178.9027
156.545674 96.683 178.8833
157.680069 96.622 178.8763
158.822683 96.561 178.8831
159.973578 96.502 178.9050
161.132813 96.445 178.9432
162.300447 96.393 178.9983
163.476543 96.345 179.0705
164.661162 96.303 179.1596
165.854364 96.267 179.2647
167.056213 96.238 179.3846
168.266772 96.217 179.5175
169.486102 96.203 179.6606
170.714268 96.198 179.8111
171.951334 96.202 179.9654
173.197364 96.215 -179.8803
174.452424 96.236 -179.7298
175.716578 96.266 -179.5872
176.989893 96.303 -179.4560
178.272434 96.346 -179.3394
179.564270 96.393 -179.2401
180.865467 96.443 -179.1600
182.176092 96.495 -179.1005
183.496216 96.545 -179.0624
184.825905 96.594 -179.0456
186.165229 96.641 -179.0496
187.514259 96.683 -179.0734
188.873065 96.723 -179.1158
190.241717 96.759 -179.1750
191.620287 96.792 -179.2496
193.008847 96.822 -179.3376
194.407468 96.851 -179.4372
195.816225 96.877 -179.5467
197.235190 96.901 -179.6643
198.664438 96.924 -179.7884
200.104042 96.944 -179.9174
201.554078 96.961 179.9500
203.014622 96.976 179.8151
204.485750 96.987 179.6789
205.967538 96.994 179.5425
207.460064 96.997 179.4067
208.963405 96.995 179.2723
210.477640 96.990 179.1403
212.002848 96.981 179.0112
213.539108 96.968 178.8855
215.086500 96.952 178.7636
216.645105 96.934 178.6454
218.215005 96.913 178.5311
219.796281 96.890 178.4203
221.389015 96.864 178.3132
222.993292 96.836 178.2096
224.609193 96.804 178.1095
226.236804 96.768 178.0129
227.876209 96.727 177.9198
229.527494 96.682 177.8301
231.190745 96.631 177.7435
232.866048 96.574 177.6599
234.553491 96.513 177.5790
236.253163 96.447 177.5007
237.965150 96.377 177.4247
239.689544 96.304 177.3509
241.426433 96.229 177.2791
243.175909 96.153 177.2091
244.938062 96.078 177.1411
246.712984 96.003 177.0751
248.500768 95.931 177.0113
250.301507 95.860 176.9498
252.115295 95.794 176.8907
253.942226 95.731 176.8341
255.782396 95.673 176.7800
257.635901 95.620 176.7284
259.502837 95.573 176.6793
261.383301 95.531 176.6326
263.277392 95.497 176.5882
265.185209 95.468 176.5460
267.106850 95.446 176.5060
269.042417 95.431 176.4681
270.992009 95.421 176.4319
272.955729 95.417 176.3973
274.933678 95.417 176.3638
276.925961 95.422 176.3313
278.932681 95.430 176.2996
280.953942 95.441 176.2688
282.989850 95.455 176.2389
285.040511 95.471 176.2098
287.106032 95.491 176.1817
289.186521 95.514 176.1545
291.282086 95.542 176.1282
293.392836 95.574 176.1030
295.518881 95.613 176.0790
297.660333 95.657 176.0563
299.817302 95.707 176.0352
301.989902 95.762 176.0156
304.178245 95.820 175.9976
306.382446 95.881 175.9813
308.602620 95.942 175.9667
310.838882 96.002 175.9538
313.091348 96.059 175.9427
315.360137 96.111 175.9334
317.645367 96.157 175.9258
319.947156 96.196 175.9197
322.265625 96.226 175.9149
324.600895 96.248 175.9111
326.953086 96.260 175.9083
329.322323 96.263 175.9059
331.708729 96.255 175.9041
334.112427 96.236 175.9023
336.533543 96.208 175.9007
338.972204 96.170 175.8990
341.428536 96.122 175.8972
343.902668 96.067 175.8952
346.394729 96.004 175.8930
348.904848 95.936 175.8907
351.433156 95.865 175.8881
353.979786 95.792 175.8854
356.544869 95.721 175.8827
359.128540 95.653 175.8799
361.730934 95.593 175.8771
364.352185 95.542 175.8741
366.992431 95.504 175.8707
369.651810 95.481 175.8665
372.330459 95.475 175.8613
375.028519 95.486 175.8549
377.746130 95.515 175.8476
380.483434 95.561 175.8394
383.240574 95.623 175.8307
386.017693 95.698 175.8219
388.814937 95.784 175.8134
391.632450 95.877 175.8058
394.470380 95.976 175.7993
397.328875 96.078 175.7942
400.208084 96.180 175.7908
403.108157 96.281 175.7892
406.029245 96.380 175.7893
408.971500 96.475 175.7914
411.935076 96.567 175.7953
414.920127 96.656 175.8015
417.926810 96.742 175.8099
420.955280 96.826 175.8209
424.005695 96.910 175.8346
427.078215 96.993 175.8513
430.173000 97.076 175.8712
433.290211 97.159 175.8944
436.430010 97.244 175.9208
439.592562 97.328 175.9501
442.778031 97.410 175.9821
445.986583 97.491 176.0161
449.218386 97.568 176.0517
452.473607 97.639 176.0884
455.752418 97.703 176.1260
459.054987 97.759 176.1643
462.381489 97.805 176.2034
465.732096 97.842 176.2433
469.106983 97.868 176.2841
472.506325 97.884 176.3260
475.930301 97.891 176.3688
479.379088 97.889 176.4125
482.852867 97.879 176.4570
486.351817 97.864 176.5023
489.876123 97.842 176.5483
493.425968 97.817 176.5952
497.001536 97.787 176.6427
500.603014 97.755 176.6907
504.230589 97.720 176.7388
507.884452 97.683 176.7866
511.564792 97.644 176.8338
515.271802 97.602 176.8798
519.005673 97.559 176.9244
522.766602 97.515 176.9674
526.554785 97.472 177.0085
530.370418 97.431 177.0478
534.213700 97.394 177.0851
538.084833 97.363 177.1204
541.984018 97.339 177.1538
545.911457 97.324 177.1852
549.867357 97.319 177.2147
553.851922 97.323 177.2422
557.865362 97.337 177.2677
561.907884 97.358 177.2910
565.979700 97.384 177.3120
570.081022 97.415 177.3306
574.212064 97.447 177.3470
578.373042 97.479 177.3611
582.564171 97.509 177.3725
586.785671 97.535 177.3810
591.037762 97.556 177.3862
595.320665 97.570 177.3878
599.634604 97.578 177.3857
603.979804 97.578 177.3804
608.356491 97.572 177.3723
612.764893 97.559 177.3622
617.205240 97.541 177.3508
621.677763 97.518 177.3387
626.182696 97.492 177.3261
630.720274 97.465 177.3128
635.290733 97.439 177.2984
639.894312 97.416 177.2821
644.531250 97.397 177.2632
649.201789 97.385 177.2410
653.906173 97.380 177.2149
658.644647 97.382 177.1843
663.417457 97.392 177.1490
668.224854 97.409 177.1087
673.067086 97.432 177.0633
677.944408 97.459 177.0126
682.857073 97.488 176.9565
687.805336 97.519 176.8946
692.789457 97.548 176.8268
697.809695 97.576 176.7530
702.866312 97.600 176.6734
707.959571 97.619 176.5887
713.089738 97.634 176.4995
718.257080 97.643 176.4070
723.461867 97.648 176.3118
728.704370 97.648 176.2147
733.984862 97.644 176.1160
739.303619 97.637 176.0156
744.660918 97.627 175.9135
750.057038 97.616 175.8094
755.492260 97.603 175.7028
760.966869 97.590 175.5934
766.481148 97.576 175.4807
772.035387 97.560 175.3643
777.629873 97.543 175.2438
783.264900 97.524 175.1188
788.940760 97.501 174.9893
794.657750 97.474 174.8551
800.416168 97.441 174.7163
806.216313 97.403 174.5726
812.058489 97.359 174.4237
817.943000 97.308 174.2691
823.870152 97.250 174.1086
829.840255 97.186 173.9423
835.853619 97.117 173.7702
841.910559 97.042 173.5926
848.011390 96.964 173.4093
854.156430 96.883 173.2203
860.346000 96.801 173.0253
866.580422 96.718 172.8240
872.860020 96.636 172.6162
879.185124 96.555 172.4016
885.556062 96.478 172.1803
891.973166 96.404 171.9522
898.436771 96.336 171.7173
904.947215 96.273 171.4756
911.504835 96.218 171.2275
918.109975 96.169 170.9736
924.762978 96.129 170.7145
931.464192 96.097 170.4516
938.213966 96.073 170.1857
945.012651 96.058 169.9180
951.860602 96.050 169.6490
958.758176 96.051 169.3792
965.705733 96.058 169.1093
972.703635 96.071 168.8403
979.752246 96.089 168.5736
986.851935 96.111 168.3109
994.003071 96.138 168.0530
1001.206027 96.169 167.8000
1008.461179 96.205 167.5507
1015.768904 96.245 167.3026
1023.129584 96.291 167.0524
1030.543603 96.343 166.7967
1038.011347 96.401 166.5328
1045.533205 96.465 166.2593
1053.109569 96.534 165.9764
1060.740836 96.610 165.6853
1068.427401 96.690 165.3878
1076.169666 96.775 165.0856
1083.968035 96.864 164.7803
1091.822915 96.954 164.4724
1099.734713 97.045 164.1622
1107.703844 97.135 163.8496
1115.730723 97.221 163.5347
1123.815768 97.301 163.2181
1131.959400 97.375 162.9008
1140.162045 97.441 162.5844
1148.424129 97.498 162.2708
1156.746083 97.547 161.9616
1165.128342 97.588 161.6583
1173.571343 97.622 161.3616
1182.075524 97.650 161.0719
1190.641331 97.674 160.7894
1199.269209 97.694 160.5143
1207.959608 97.712 160.2471
1216.712981 97.728 159.9884
1225.529785 97.743 159.7390
1234.410479 97.757 159.4996
1243.355526 97.770 159.2712
1252.365393 97.781 159.0548
1261.440549 97.789 158.8514
1270.581467 97.795 158.6617
1279.788624 97.797 158.4861
1289.062500 97.796 158.3240
1298.403578 97.791 158.1751
1307.812346 97.782 158.0385
1317.289293 97.770 157.9135
1326.834914 97.754 157.7996
1336.449707 97.736 157.6961
1346.134173 97.714 157.6025
1355.888816 97.690 157.5178
1365.714145 97.663 157.4410
1375.610673 97.634 157.3715
1385.578915 97.602 157.3094
1395.619391 97.566 157.2557
1405.732624 97.528 157.2119
1415.919142 97.487 157.1793
1426.179476 97.443 157.1592
1436.514160 97.397 157.1528
1446.923734 97.350 157.1609
1457.408740 97.303 157.1839
1467.969724 97.257 157.2220
1478.607238 97.212 157.2754
1489.321836 97.169 157.3441
1500.114076 97.129 157.4283
1510.984521 97.093 157.5286
1521.933737 97.060 157.6455
1532.962297 97.032 157.7798
1544.070773 97.007 157.9314
1555.259747 96.986 158.0998
1566.529800 96.969 158.2836
1577.881521 96.955 158.4816
1589.315501 96.943 158.6931
1600.832336 96.932 158.9184
1612.432627 96.923 159.1583
1624.116978 96.916 159.4139
1635.886000 96.909 159.6858
1647.740304 96.904 159.9737
1659.680509 96.902 160.2758
1671.707238 96.902 160.5892
1683.821118 96.905 160.9098
1696.022780 96.912 161.2334
1708.312860 96.922 161.5562
1720.692000 96.934 161.8751
1733.160843 96.950 162.1885
1745.720041 96.967 162.4963
1758.370248 96.986 162.8002
1771.112124 97.005 163.1035
1783.946332 97.025 163.4101
1796.873543 97.045 163.7241
1809.894429 97.064 164.0482
1823.009670 97.084 164.3826
1836.219950 97.104 164.7262
1849.525956 97.124 165.0773
1862.928384 97.144 165.4345
1876.427931 97.166 165.7972
1890.025301 97.188 166.1647
1903.721204 97.211 166.5361
1917.516352 97.236 166.9102
1931.411466 97.263 167.2862
1945.407270 97.291 167.6633
1959.504493 97.320 168.0400
1973.703870 97.350 168.4133
1988.006142 97.380 168.7788
2002.412054 97.408 169.1321
2016.922357 97.435 169.4698
2031.537808 97.457 169.7897
2046.259169 97.475 170.0901
2061.087206 97.488 170.3699
2076.022694 97.495 170.6284
2091.066410 97.495 170.8648
2106.219139 97.490 171.0787
2121.481671 97.481 171.2693
2136.854802 97.466 171.4353
2152.339333 97.449 171.5748
2167.936071 97.430 171.6852
2183.645829 97.410 171.7645
2199.469427 97.388 171.8115
2215.407689 97.367 171.8269
2231.461446 97.346 171.8130
2247.631536 97.325 171.7735
2263.918800 97.304 171.7129
2280.324089 97.284 171.6356
2296.848258 97.265 171.5454
2313.492167 97.246 171.4450
2330.256685 97.228 171.3354
2347.142685 97.211 171.2169
2364.151049 97.195 171.0889
2381.282662 97.180 170.9503
2398.538418 97.165 170.8001
2415.919216 97.150 170.6371
2433.425962 97.135 170.4605
2451.059570 97.120 170.2698
2468.820958 97.105 170.0646
2486.711052 97.090 169.8448
2504.730786 97.074 169.6102
2522.881098 97.059 169.3606
2541.162934 97.044 169.0959
2559.577248 97.029 168.8170
2578.125000 97.014 168.5251
2596.807157 97.001 168.2225
2615.624692 96.988 167.9125
2634.578586 96.976 167.5998
2653.669829 96.966 167.2896
2672.899414 96.958 166.9883
2692.268345 96.952 166.7025
2711.777632 96.948 166.4395
2731.428290 96.946 166.2068
2751.221345 96.947 166.0124
2771.157829 96.949 165.8638
2791.238781 96.952 165.7677
2811.465248 96.957 165.7298
2831.838284 96.962 165.7543
2852.358952 96.967 165.8442
2873.028321 96.970 166.0012
2893.847468 96.972 166.2262
2914.817480 96.971 166.5199
2935.939449 96.966 166.8823
2957.214476 96.958 167.3129
2978.643672 96.947 167.8102
3000.228152 96.932 168.3711
3021.969041 96.916 168.9913
3043.867475 96.898 169.6639
3065.924593 96.881 170.3803
3088.141547 96.866 171.1292
3110.519493 96.853 171.8972
3133.059600 96.845 172.6697
3155.763041 96.842 173.4310
3178.631001 96.844 174.1665
3201.664672 96.850 174.8634
3224.865254 96.861 175.5127
3248.233957 96.874 176.1103
3271.771999 96.888 176.6572
3295.480608 96.902 177.1599
3319.361019 96.915 177.6292
3343.414477 96.926 178.0792
3367.642236 96.936 178.5253
3392.045560 96.947 178.9821
3416.625721 96.959 179.4615
3441.383999 96.976 179.9701
