* Measurement data measured by REW V5.31.3
* Source: EXCL: Headset (USB-C to 3.5mm Headphone Jack Adapter), MICROPHONE (Master Volume), 0, volume: 0.750
* Format: 256k Log Swept Sine, 1 sweep at -12.0 dBFS with no timing reference
* Dated: Apr 7, 2025 4:46:22 PM
* REW Settings:
*  C-weighting compensation: Off
*  Target level: 75.0 dB
* Note: ; 
* Measurement: Satyr 3 (Centered) R6
* Smoothing: 1/6 octave
* Frequency Step: 96 ppo
* Start Frequency: 20.0 Hz
*
* Freq(Hz) SPL(dB) Phase(degrees)
20.187378 79.457 -93.4486
20.333664 79.498 -93.5270
20.481010 79.554 -93.6353
20.629424 79.622 -93.7751
20.778913 79.702 -93.9475
20.929486 79.792 -94.1535
21.081150 79.889 -94.3935
21.233912 79.992 -94.6668
21.387782 80.100 -94.9720
21.542767 80.210 -95.3065
21.698874 80.323 -95.6669
21.856113 80.436 -96.0493
22.014492 80.549 -96.4496
22.174018 80.662 -96.8638
22.334700 80.775 -97.2884
22.496546 80.886 -97.7207
22.659566 80.995 -98.1589
22.823766 81.103 -98.6018
22.989157 81.208 -99.0489
23.155745 81.311 -99.5000
23.323542 81.410 -99.9547
23.492554 81.505 -100.4119
23.662790 81.595 -100.8697
23.834261 81.680 -101.3253
24.006973 81.758 -101.7749
24.180938 81.830 -102.2141
24.356163 81.895 -102.6383
24.532658 81.955 -103.0435
24.710431 82.009 -103.4268
24.889493 82.058 -103.7871
25.069853 82.104 -104.1252
25.251519 82.147 -104.4443
25.434502 82.188 -104.7494
25.618811 82.228 -105.0468
25.804456 82.267 -105.3439
25.991445 82.304 -105.6474
26.179790 82.341 -105.9630
26.369500 82.376 -106.2947
26.560584 82.409 -106.6440
26.753053 82.439 -107.0103
26.946917 82.466 -107.3909
27.142185 82.490 -107.7817
27.338869 82.513 -108.1780
27.536977 82.533 -108.5751
27.736522 82.553 -108.9692
27.937512 82.573 -109.3581
28.139959 82.595 -109.7410
28.343872 82.618 -110.1187
28.549264 82.645 -110.4931
28.756143 82.674 -110.8668
28.964522 82.707 -111.2426
29.174411 82.743 -111.6230
29.385821 82.782 -112.0099
29.598763 82.823 -112.4045
29.813248 82.867 -112.8075
30.029287 82.913 -113.2195
30.246891 82.961 -113.6411
30.466073 83.012 -114.0730
30.686842 83.065 -114.5162
30.909212 83.122 -114.9718
31.133193 83.181 -115.4407
31.358797 83.243 -115.9236
31.586035 83.309 -116.4203
31.814921 83.378 -116.9297
32.045465 83.449 -117.4501
32.277680 83.524 -117.9792
32.511577 83.602 -118.5142
32.747169 83.682 -119.0520
32.984469 83.765 -119.5899
33.223488 83.850 -120.1253
33.464239 83.937 -120.6555
33.706735 84.024 -121.1785
33.950987 84.112 -121.6918
34.197010 84.201 -122.1937
34.444816 84.289 -122.6824
34.694417 84.377 -123.1566
34.945827 84.466 -123.6158
35.199059 84.553 -124.0605
35.454126 84.641 -124.4916
35.711041 84.729 -124.9112
35.969818 84.817 -125.3212
36.230470 84.905 -125.7239
36.493011 84.992 -126.1211
36.757455 85.079 -126.5141
37.023814 85.164 -126.9037
37.292104 85.248 -127.2901
37.562338 85.329 -127.6731
37.834530 85.408 -128.0523
38.108695 85.485 -128.4273
38.384846 85.559 -128.7973
38.662999 85.630 -129.1617
38.943167 85.699 -129.5203
39.225365 85.766 -129.8729
39.509608 85.830 -130.2202
39.795911 85.893 -130.5636
40.084289 85.954 -130.9052
40.374756 86.015 -131.2473
40.667328 86.073 -131.5923
40.962020 86.131 -131.9422
41.258848 86.186 -132.2983
41.557827 86.240 -132.6611
41.858972 86.292 -133.0309
42.162299 86.342 -133.4076
42.467824 86.391 -133.7913
42.775564 86.439 -134.1819
43.085533 86.486 -134.5791
43.397749 86.532 -134.9819
43.712227 86.578 -135.3888
44.028983 86.623 -135.7982
44.348036 86.668 -136.2087
44.669400 86.712 -136.6203
44.993093 86.756 -137.0341
45.319131 86.799 -137.4526
45.647532 86.842 -137.8786
45.978313 86.883 -138.3143
46.311491 86.922 -138.7609
46.647083 86.960 -139.2175
46.985107 86.995 -139.6824
47.325581 87.028 -140.1526
47.668521 87.059 -140.6253
48.013947 87.089 -141.0982
48.361876 87.117 -141.5692
48.712326 87.143 -142.0366
49.065315 87.167 -142.4986
49.420863 87.190 -142.9532
49.778987 87.211 -143.3984
50.139706 87.230 -143.8323
50.503039 87.247 -144.2537
50.869005 87.263 -144.6621
51.237623 87.277 -145.0587
51.608912 87.289 -145.4463
51.982891 87.300 -145.8294
52.359580 87.309 -146.2136
52.739000 87.315 -146.6050
53.121168 87.319 -147.0086
53.506106 87.319 -147.4282
53.893833 87.315 -147.8649
54.284370 87.309 -148.3179
54.677737 87.300 -148.7852
55.073955 87.288 -149.2637
55.473043 87.275 -149.7508
55.875024 87.261 -150.2439
56.279917 87.247 -150.7413
56.687745 87.231 -151.2419
57.098527 87.216 -151.7450
57.512287 87.201 -152.2492
57.929045 87.188 -152.7523
58.348822 87.177 -153.2500
58.771642 87.170 -153.7363
59.197525 87.169 -154.2047
59.626495 87.176 -154.6501
60.058573 87.190 -155.0703
60.493782 87.212 -155.4667
60.932145 87.240 -155.8438
61.373685 87.273 -156.2075
61.818424 87.309 -156.5636
62.266386 87.345 -156.9175
62.717593 87.381 -157.2732
63.172071 87.416 -157.6337
63.629842 87.450 -158.0001
64.090930 87.483 -158.3722
64.555359 87.515 -158.7484
65.023154 87.546 -159.1260
65.494339 87.575 -159.5025
65.968938 87.603 -159.8760
66.446976 87.629 -160.2454
66.928478 87.653 -160.6105
67.413469 87.676 -160.9723
67.901975 87.697 -161.3326
68.394021 87.717 -161.6935
68.889632 87.735 -162.0570
69.388835 87.751 -162.4242
69.891655 87.765 -162.7952
70.398118 87.777 -163.1688
70.908252 87.787 -163.5428
71.422083 87.795 -163.9142
71.939636 87.800 -164.2800
72.460941 87.803 -164.6381
72.986023 87.804 -164.9873
73.514909 87.802 -165.3278
74.047629 87.799 -165.6606
74.584208 87.794 -165.9872
75.124676 87.786 -166.3092
75.669061 87.776 -166.6282
76.217390 87.764 -166.9454
76.769692 87.750 -167.2619
77.325997 87.734 -167.5784
77.886333 87.716 -167.8950
78.450730 87.698 -168.2116
79.019216 87.678 -168.5276
79.591822 87.656 -168.8426
80.168577 87.634 -169.1561
80.749512 87.611 -169.4679
81.334656 87.588 -169.7774
81.924040 87.563 -170.0837
82.517696 87.538 -170.3856
83.115653 87.512 -170.6821
83.717943 87.487 -170.9729
84.324598 87.460 -171.2579
84.935649 87.433 -171.5380
85.551128 87.405 -171.8139
86.171066 87.377 -172.0863
86.795497 87.348 -172.3558
87.424453 87.319 -172.6222
88.057967 87.290 -172.8856
88.696071 87.260 -173.1458
89.338800 87.230 -173.4030
89.986185 87.200 -173.6573
90.638262 87.171 -173.9086
91.295065 87.141 -174.1570
91.956626 87.111 -174.4022
92.622982 87.081 -174.6437
93.294166 87.051 -174.8814
93.970214 87.021 -175.1149
94.651161 86.991 -175.3443
95.337042 86.961 -175.5696
96.027894 86.931 -175.7909
96.723752 86.901 -176.0082
97.424652 86.871 -176.2213
98.130631 86.841 -176.4299
98.841726 86.812 -176.6338
99.557974 86.783 -176.8327
100.279412 86.754 -177.0264
101.006078 86.725 -177.2149
101.738010 86.697 -177.3987
102.475245 86.669 -177.5786
103.217823 86.642 -177.7562
103.965782 86.616 -177.9334
104.719161 86.590 -178.1125
105.477999 86.566 -178.2956
106.242336 86.543 -178.4840
107.012212 86.521 -178.6777
107.787666 86.501 -178.8755
108.568740 86.482 -179.0749
109.355474 86.464 -179.2736
110.147909 86.448 -179.4696
110.946086 86.432 -179.6619
111.750047 86.418 -179.8500
112.559834 86.405 179.9660
113.375489 86.392 179.7861
114.197055 86.380 179.6097
115.024574 86.368 179.4366
115.858089 86.357 179.2662
116.697645 86.345 179.0984
117.543284 86.332 178.9328
118.395051 86.319 178.7693
119.252990 86.305 178.6078
120.117147 86.290 178.4484
120.987565 86.275 178.2913
121.864291 86.258 178.1366
122.747370 86.241 177.9844
123.636848 86.222 177.8347
124.532771 86.204 177.6873
125.435187 86.184 177.5418
126.344142 86.164 177.3982
127.259684 86.144 177.2568
128.181860 86.123 177.1180
129.110718 86.102 176.9825
130.046308 86.079 176.8502
130.988677 86.056 176.7211
131.937875 86.031 176.5952
132.893951 86.004 176.4724
133.856956 85.976 176.3531
134.826938 85.945 176.2379
135.803950 85.912 176.1271
136.788041 85.877 176.0218
137.779264 85.840 175.9225
138.777669 85.801 175.8298
139.783309 85.760 175.7443
140.796237 85.717 175.6662
141.816504 85.672 175.5959
142.844165 85.626 175.5334
143.879273 85.579 175.4789
144.921881 85.530 175.4327
145.972045 85.480 175.3950
147.029819 85.429 175.3662
148.095257 85.377 175.3470
149.168417 85.325 175.3382
150.249353 85.272 175.3407
151.338121 85.219 175.3553
152.434780 85.165 175.3821
153.539385 85.112 175.4210
154.651995 85.060 175.4714
155.772667 85.009 175.5331
156.901460 84.959 175.6065
158.038432 84.910 175.6925
159.183644 84.864 175.7924
160.337154 84.819 175.9077
161.499023 84.777 176.0389
162.669312 84.736 176.1860
163.848081 84.697 176.3480
165.035392 84.660 176.5234
166.231306 84.624 176.7102
167.435887 84.590 176.9067
168.649196 84.559 177.1110
169.871298 84.529 177.3217
171.102255 84.502 177.5374
172.342133 84.477 177.7566
173.590995 84.456 177.9774
174.848907 84.437 178.1979
176.115934 84.420 178.4158
177.392143 84.407 178.6292
178.677599 84.397 178.8364
179.972371 84.389 179.0357
181.276525 84.384 179.2253
182.590129 84.381 179.4031
183.913252 84.379 179.5671
185.245964 84.380 179.7162
186.588332 84.381 179.8502
187.940428 84.384 179.9701
189.302322 84.386 -179.9225
190.674085 84.390 -179.8254
192.055788 84.393 -179.7369
193.447503 84.395 -179.6561
194.849303 84.398 -179.5832
196.261262 84.400 -179.5191
197.683452 84.402 -179.4655
199.115948 84.403 -179.4237
200.558824 84.403 -179.3945
202.012156 84.403 -179.3782
203.476019 84.402 -179.3740
204.950490 84.401 -179.3806
206.435646 84.399 -179.3963
207.931564 84.396 -179.4194
209.438322 84.393 -179.4482
210.955998 84.389 -179.4809
212.484672 84.385 -179.5163
214.024424 84.380 -179.5536
215.575333 84.374 -179.5922
217.137481 84.368 -179.6318
218.710948 84.362 -179.6722
220.295818 84.355 -179.7131
221.892172 84.349 -179.7541
223.500094 84.342 -179.7950
225.119668 84.337 -179.8355
226.750978 84.332 -179.8752
228.394109 84.328 -179.9135
230.049147 84.325 -179.9497
231.716178 84.323 -179.9829
233.395289 84.322 179.9871
235.086567 84.322 179.9601
236.790102 84.323 179.9352
238.505980 84.324 179.9109
240.234293 84.326 179.8862
241.975130 84.328 179.8601
243.728581 84.329 179.8322
245.494739 84.331 179.8029
247.273695 84.332 179.7731
249.065542 84.334 179.7437
250.870374 84.336 179.7159
252.688284 84.339 179.6908
254.519367 84.343 179.6690
256.363720 84.347 179.6511
258.221437 84.351 179.6377
260.092616 84.354 179.6292
261.977354 84.357 179.6262
263.875750 84.359 179.6291
265.787903 84.360 179.6381
267.713911 84.359 179.6530
269.653877 84.358 179.6738
271.607900 84.355 179.7004
273.576083 84.352 179.7327
275.558528 84.350 179.7705
277.555338 84.348 179.8133
279.566619 84.347 179.8602
281.592474 84.347 179.9102
283.633009 84.348 179.9619
285.688331 84.351 -179.9861
287.758546 84.354 -179.9358
289.843763 84.358 -179.8892
291.944090 84.363 -179.8481
294.059638 84.369 -179.8137
296.190515 84.374 -179.7863
298.336833 84.380 -179.7652
300.498705 84.386 -179.7491
302.676243 84.392 -179.7358
304.869559 84.399 -179.7233
307.078770 84.405 -179.7095
309.303989 84.412 -179.6931
311.545334 84.418 -179.6735
313.802919 84.425 -179.6509
316.076865 84.432 -179.6259
318.367288 84.438 -179.5993
320.674309 84.445 -179.5718
322.998047 84.452 -179.5436
325.338624 84.459 -179.5150
327.696162 84.466 -179.4863
330.070783 84.473 -179.4574
332.462612 84.480 -179.4278
334.871773 84.487 -179.3974
337.298392 84.493 -179.3654
339.742595 84.499 -179.3317
342.204510 84.504 -179.2957
344.684265 84.508 -179.2576
347.181989 84.510 -179.2173
349.697813 84.512 -179.1751
352.231868 84.511 -179.1311
354.784285 84.510 -179.0851
357.355198 84.507 -179.0370
359.944741 84.503 -178.9865
362.553049 84.498 -178.9331
365.180258 84.492 -178.8769
367.826505 84.486 -178.8185
370.491927 84.479 -178.7589
373.176665 84.472 -178.6994
375.880856 84.465 -178.6413
378.604644 84.457 -178.5857
381.348169 84.448 -178.5333
384.111575 84.439 -178.4844
386.895006 84.429 -178.4393
389.698607 84.419 -178.3978
392.522524 84.408 -178.3595
395.366904 84.396 -178.3237
398.231895 84.383 -178.2898
401.117648 84.370 -178.2570
404.024312 84.356 -178.2247
406.952038 84.342 -178.1926
409.900981 84.326 -178.1604
412.871292 84.309 -178.1276
415.863128 84.289 -178.0934
418.876643 84.267 -178.0565
421.911996 84.243 -178.0147
424.969344 84.215 -177.9648
428.048847 84.185 -177.9032
431.150666 84.152 -177.8260
434.274961 84.117 -177.7304
437.421897 84.081 -177.6157
440.591636 84.045 -177.4838
443.784345 84.010 -177.3389
447.000189 83.976 -177.1865
450.239337 83.945 -177.0322
453.501956 83.916 -176.8807
456.788219 83.889 -176.7352
460.098294 83.863 -176.5973
463.432356 83.838 -176.4678
466.790578 83.815 -176.3464
470.173135 83.792 -176.2326
473.580203 83.769 -176.1255
477.011961 83.747 -176.0246
480.468586 83.726 -175.9288
483.950259 83.705 -175.8375
487.457163 83.684 -175.7498
490.989478 83.663 -175.6652
494.547390 83.644 -175.5833
498.131084 83.625 -175.5036
501.740748 83.607 -175.4259
505.376568 83.590 -175.3494
509.038735 83.574 -175.2738
512.727439 83.559 -175.1983
516.442874 83.547 -175.1227
520.185232 83.535 -175.0465
523.954708 83.526 -174.9697
527.751500 83.519 -174.8925
531.575805 83.513 -174.8150
535.427822 83.510 -174.7375
539.307753 83.509 -174.6604
543.215800 83.510 -174.5839
547.152165 83.513 -174.5080
551.117055 83.518 -174.4325
555.110677 83.526 -174.3569
559.133237 83.535 -174.2803
563.184947 83.546 -174.2019
567.266018 83.558 -174.1210
571.376661 83.572 -174.0374
575.517092 83.587 -173.9512
579.687526 83.603 -173.8629
583.888181 83.620 -173.7729
588.119275 83.637 -173.6817
592.381030 83.654 -173.5896
596.673667 83.671 -173.4967
600.997410 83.688 -173.4026
605.352485 83.705 -173.3071
609.739119 83.721 -173.2101
614.157540 83.737 -173.1120
618.607979 83.752 -173.0134
623.090667 83.767 -172.9155
627.605839 83.780 -172.8190
632.153730 83.793 -172.7253
636.734576 83.805 -172.6352
641.348617 83.816 -172.5500
645.996094 83.826 -172.4707
650.677248 83.835 -172.3977
655.392323 83.842 -172.3309
660.141566 83.847 -172.2695
664.925224 83.850 -172.2120
669.743546 83.852 -172.1561
674.596784 83.851 -172.0995
679.485191 83.849 -172.0396
684.409020 83.845 -171.9740
689.368530 83.841 -171.9012
694.363979 83.835 -171.8210
699.395626 83.829 -171.7349
704.463736 83.824 -171.6459
709.568570 83.819 -171.5575
714.710396 83.813 -171.4733
719.889483 83.808 -171.3959
725.106099 83.802 -171.3268
730.360516 83.795 -171.2663
735.653010 83.786 -171.2142
740.983855 83.776 -171.1697
746.353329 83.764 -171.1317
751.761713 83.749 -171.0990
757.209288 83.733 -171.0707
762.696339 83.714 -171.0457
768.223151 83.694 -171.0228
773.790013 83.672 -171.0007
779.397214 83.648 -170.9783
785.045047 83.623 -170.9547
790.733808 83.597 -170.9290
796.463791 83.571 -170.9009
802.235296 83.545 -170.8705
808.048623 83.518 -170.8383
813.904077 83.493 -170.8050
819.801961 83.468 -170.7716
825.742584 83.444 -170.7395
831.726255 83.422 -170.7103
837.753287 83.401 -170.6856
843.823992 83.380 -170.6674
849.938689 83.361 -170.6571
856.097695 83.343 -170.6556
862.301332 83.326 -170.6630
868.549922 83.309 -170.6787
874.843793 83.293 -170.7014
881.183272 83.276 -170.7290
887.568689 83.260 -170.7595
894.000378 83.244 -170.7908
900.478673 83.228 -170.8209
907.003913 83.213 -170.8487
913.576437 83.198 -170.8736
920.196588 83.184 -170.8953
926.864712 83.171 -170.9142
933.581156 83.159 -170.9304
940.346270 83.148 -170.9440
947.160407 83.140 -170.9551
954.023921 83.133 -170.9636
960.937172 83.129 -170.9699
967.900519 83.127 -170.9746
974.914325 83.128 -170.9792
981.978956 83.132 -170.9859
989.094780 83.138 -170.9970
996.262169 83.147 -171.0149
1003.481495 83.159 -171.0415
1010.753136 83.172 -171.0780
1018.077470 83.187 -171.1246
1025.454879 83.204 -171.1814
1032.885748 83.221 -171.2478
1040.370463 83.239 -171.3229
1047.909417 83.258 -171.4055
1055.503000 83.277 -171.4940
1063.151610 83.295 -171.5866
1070.855645 83.313 -171.6814
1078.615506 83.331 -171.7766
1086.431599 83.347 -171.8708
1094.304330 83.362 -171.9626
1102.234110 83.376 -172.0510
1110.221353 83.389 -172.1351
1118.266475 83.400 -172.2142
1126.369895 83.409 -172.2877
1134.532035 83.417 -172.3544
1142.753322 83.424 -172.4133
1151.034184 83.429 -172.4635
1159.375052 83.433 -172.5040
1167.776361 83.435 -172.5340
1176.238550 83.437 -172.5529
1184.762060 83.438 -172.5609
1193.347334 83.438 -172.5585
1201.994821 83.438 -172.5465
1210.704971 83.438 -172.5256
1219.478238 83.438 -172.4965
1228.315080 83.437 -172.4590
1237.215957 83.437 -172.4130
1246.181334 83.437 -172.3581
1255.211678 83.437 -172.2938
1264.307459 83.437 -172.2198
1273.469152 83.438 -172.1360
1282.697235 83.440 -172.0423
1291.992188 83.442 -171.9386
1301.354495 83.445 -171.8258
1310.784647 83.448 -171.7049
1320.283132 83.453 -171.5774
1329.850448 83.459 -171.4447
1339.487093 83.465 -171.3078
1349.193569 83.472 -171.1675
1358.970381 83.479 -171.0242
1368.818041 83.488 -170.8783
1378.737061 83.497 -170.7298
1388.727958 83.507 -170.5790
1398.791253 83.519 -170.4264
1408.927471 83.531 -170.2721
1419.137140 83.545 -170.1155
1429.420793 83.560 -169.9552
1439.778965 83.576 -169.7893
1450.212197 83.594 -169.6159
1460.721033 83.612 -169.4337
1471.306019 83.633 -169.2418
1481.967709 83.654 -169.0403
1492.706658 83.678 -168.8296
1503.523426 83.702 -168.6109
1514.418576 83.728 -168.3858
1525.392678 83.754 -168.1558
1536.446302 83.780 -167.9223
1547.580025 83.805 -167.6855
1558.794428 83.829 -167.4448
1570.090095 83.850 -167.1983
1581.467615 83.868 -166.9431
1592.927581 83.882 -166.6753
1604.470591 83.893 -166.3906
1616.097246 83.902 -166.0848
1627.808153 83.907 -165.7539
1639.603922 83.910 -165.3955
1651.485168 83.912 -165.0088
1663.452510 83.915 -164.5957
1675.506573 83.918 -164.1599
1687.647984 83.923 -163.7074
1699.877377 83.931 -163.2452
1712.195390 83.941 -162.7811
1724.602663 83.954 -162.3225
1737.099845 83.970 -161.8763
1749.687587 83.987 -161.4476
1762.366544 84.006 -161.0391
1775.137379 84.026 -160.6516
1788.000756 84.045 -160.2836
1800.957346 84.063 -159.9322
1814.007826 84.080 -159.5938
1827.152874 84.096 -159.2643
1840.393177 84.111 -158.9406
1853.729425 84.124 -158.6207
1867.162312 84.137 -158.3045
1880.692540 84.149 -157.9933
1894.320813 84.161 -157.6897
1908.047843 84.172 -157.3964
1921.874344 84.182 -157.1161
1935.801038 84.191 -156.8504
1949.828650 84.198 -156.5997
1963.957912 84.204 -156.3640
1978.189561 84.207 -156.1429
1992.524338 84.208 -155.9357
2006.962991 84.207 -155.7423
2021.506272 84.205 -155.5625
2036.154940 84.200 -155.3964
2050.909758 84.194 -155.2442
2065.771495 84.187 -155.1061
2080.740927 84.179 -154.9824
2095.818833 84.169 -154.8737
2111.006001 84.159 -154.7805
2126.303220 84.147 -154.7032
2141.711290 84.135 -154.6422
2157.231013 84.123 -154.5971
2172.863198 84.110 -154.5672
2188.608660 84.096 -154.5515
2204.468221 84.082 -154.5487
2220.442706 84.068 -154.5573
2236.532950 84.053 -154.5766
2252.739789 84.039 -154.6060
2269.064070 84.025 -154.6455
2285.506644 84.012 -154.6958
2302.068367 83.999 -154.7576
2318.750104 83.988 -154.8319
2335.552723 83.977 -154.9197
2352.477101 83.968 -155.0219
2369.524119 83.960 -155.1395
2386.694668 83.953 -155.2734
2403.989641 83.947 -155.4247
2421.409941 83.943 -155.5949
2438.956476 83.940 -155.7857
2456.630160 83.938 -155.9993
2474.431915 83.936 -156.2372
2492.362668 83.935 -156.5003
2510.423356 83.932 -156.7879
2528.614918 83.928 -157.0975
2546.938304 83.921 -157.4252
2565.394469 83.911 -157.7651
2583.984375 83.898 -158.1103
2602.708991 83.880 -158.4533
2621.569293 83.859 -158.7864
2640.566265 83.834 -159.1023
2659.700897 83.806 -159.3948
2678.974186 83.776 -159.6589
2698.387137 83.744 -159.8908
2717.940763 83.712 -160.0887
2737.636082 83.679 -160.2517
2757.474121 83.646 -160.3801
2777.455915 83.614 -160.4745
2797.582506 83.583 -160.5357
2817.854942 83.553 -160.5640
2838.274281 83.523 -160.5592
2858.841586 83.494 -160.5202
2879.557931 83.466 -160.4452
2900.424394 83.437 -160.3318
2921.442065 83.410 -160.1772
2942.612039 83.382 -159.9781
2963.935418 83.356 -159.7313
2985.413316 83.330 -159.4339
3007.046852 83.306 -159.0840
3028.837153 83.285 -158.6816
3050.785356 83.267 -158.2285
3072.892604 83.253 -157.7290
3095.160050 83.243 -157.1902
3117.588856 83.239 -156.6207
3140.180190 83.240 -156.0310
3162.935230 83.246 -155.4322
3185.855163 83.258 -154.8357
3208.941182 83.273 -154.2527
