* Measurement data measured by REW V5.31.3
* Source: EXCL: Headset (USB-C to 3.5mm Headphone Jack Adapter), MICROPHONE (Master Volume), 0, volume: 0.750
* Format: 256k Log Swept Sine, 1 sweep at -12.0 dBFS with no timing reference
* Dated: Apr 1, 2025 10:31:56 PM
* REW Settings:
*  C-weighting compensation: Off
*  Target level: 75.0 dB
* Note: ; 
* Measurement: Satyr 3 (Massive Mod) L10
* Smoothing: 1/6 octave
* Frequency Step: 96 ppo
* Start Frequency: 20.0 Hz
*
* Freq(Hz) SPL(dB) Phase(degrees)
20.187378 87.678 -107.4767
20.333664 87.712 -107.6286
20.481010 87.758 -107.8331
20.629424 87.815 -108.0856
20.778913 87.881 -108.3810
20.929486 87.955 -108.7142
21.081150 88.037 -109.0797
21.233912 88.124 -109.4726
21.387782 88.215 -109.8878
21.542767 88.308 -110.3206
21.698874 88.403 -110.7664
21.856113 88.498 -111.2209
22.014492 88.592 -111.6800
22.174018 88.684 -112.1401
22.334700 88.773 -112.5979
22.496546 88.858 -113.0506
22.659566 88.938 -113.4962
22.823766 89.014 -113.9332
22.989157 89.085 -114.3609
23.155745 89.151 -114.7795
23.323542 89.211 -115.1898
23.492554 89.266 -115.5936
23.662790 89.316 -115.9933
23.834261 89.362 -116.3918
24.006973 89.403 -116.7922
24.180938 89.440 -117.1979
24.356163 89.474 -117.6116
24.532658 89.504 -118.0357
24.710431 89.531 -118.4714
24.889493 89.555 -118.9191
25.069853 89.575 -119.3779
25.251519 89.592 -119.8455
25.434502 89.607 -120.3191
25.618811 89.618 -120.7951
25.804456 89.628 -121.2699
25.991445 89.635 -121.7401
26.179790 89.642 -122.2031
26.369500 89.649 -122.6576
26.560584 89.657 -123.1036
26.753053 89.667 -123.5424
26.946917 89.678 -123.9767
27.142185 89.693 -124.4097
27.338869 89.711 -124.8452
27.536977 89.732 -125.2863
27.736522 89.756 -125.7354
27.937512 89.782 -126.1935
28.139959 89.810 -126.6601
28.343872 89.839 -127.1332
28.549264 89.868 -127.6095
28.756143 89.897 -128.0850
28.964522 89.925 -128.5558
29.174411 89.953 -129.0182
29.385821 89.980 -129.4700
29.598763 90.007 -129.9102
29.813248 90.034 -130.3392
30.029287 90.061 -130.7591
30.246891 90.089 -131.1726
30.466073 90.119 -131.5829
30.686842 90.149 -131.9928
30.909212 90.182 -132.4041
31.133193 90.217 -132.8176
31.358797 90.254 -133.2323
31.586035 90.293 -133.6464
31.814921 90.336 -134.0568
32.045465 90.383 -134.4604
32.277680 90.434 -134.8545
32.511577 90.489 -135.2371
32.747169 90.548 -135.6076
32.984469 90.611 -135.9667
33.223488 90.678 -136.3166
33.464239 90.748 -136.6599
33.706735 90.819 -136.9998
33.950987 90.892 -137.3391
34.197010 90.964 -137.6798
34.444816 91.035 -138.0233
34.694417 91.105 -138.3695
34.945827 91.174 -138.7178
35.199059 91.241 -139.0669
35.454126 91.308 -139.4149
35.711041 91.374 -139.7605
35.969818 91.439 -140.1020
36.230470 91.505 -140.4385
36.493011 91.572 -140.7693
36.757455 91.638 -141.0940
37.023814 91.704 -141.4127
37.292104 91.770 -141.7256
37.562338 91.836 -142.0332
37.834530 91.900 -142.3366
38.108695 91.962 -142.6371
38.384846 92.024 -142.9359
38.662999 92.083 -143.2344
38.943167 92.142 -143.5336
39.225365 92.199 -143.8338
39.509608 92.255 -144.1343
39.795911 92.309 -144.4341
40.084289 92.364 -144.7312
40.374756 92.417 -145.0239
40.667328 92.470 -145.3109
40.962020 92.523 -145.5918
41.258848 92.575 -145.8674
41.557827 92.626 -146.1398
41.858972 92.678 -146.4123
42.162299 92.728 -146.6886
42.467824 92.778 -146.9729
42.775564 92.827 -147.2687
43.085533 92.874 -147.5788
43.397749 92.920 -147.9046
43.712227 92.964 -148.2461
44.028983 93.006 -148.6021
44.348036 93.046 -148.9706
44.669400 93.083 -149.3494
44.993093 93.118 -149.7363
45.319131 93.151 -150.1298
45.647532 93.182 -150.5291
45.978313 93.211 -150.9336
46.311491 93.238 -151.3435
46.647083 93.264 -151.7589
46.985107 93.288 -152.1800
47.325581 93.312 -152.6071
47.668521 93.335 -153.0402
48.013947 93.357 -153.4790
48.361876 93.378 -153.9226
48.712326 93.399 -154.3695
49.065315 93.419 -154.8174
49.420863 93.439 -155.2637
49.778987 93.457 -155.7061
50.139706 93.474 -156.1427
50.503039 93.491 -156.5725
50.869005 93.506 -156.9951
51.237623 93.519 -157.4105
51.608912 93.531 -157.8192
51.982891 93.541 -158.2214
52.359580 93.548 -158.6178
52.739000 93.553 -159.0097
53.121168 93.555 -159.3985
53.506106 93.555 -159.7858
53.893833 93.554 -160.1732
54.284370 93.551 -160.5614
54.677737 93.546 -160.9504
55.073955 93.542 -161.3392
55.473043 93.537 -161.7259
55.875024 93.532 -162.1086
56.279917 93.528 -162.4850
56.687745 93.525 -162.8535
57.098527 93.523 -163.2134
57.512287 93.522 -163.5656
57.929045 93.522 -163.9129
58.348822 93.523 -164.2600
58.771642 93.525 -164.6131
59.197525 93.527 -164.9789
59.626495 93.531 -165.3631
60.058573 93.537 -165.7685
60.493782 93.543 -166.1947
60.932145 93.551 -166.6374
61.373685 93.561 -167.0902
61.818424 93.573 -167.5454
62.266386 93.586 -167.9961
62.717593 93.601 -168.4373
63.172071 93.618 -168.8663
63.629842 93.636 -169.2825
64.090930 93.655 -169.6870
64.555359 93.676 -170.0821
65.023154 93.697 -170.4705
65.494339 93.718 -170.8548
65.968938 93.740 -171.2372
66.446976 93.761 -171.6196
66.928478 93.782 -172.0028
67.413469 93.801 -172.3871
67.901975 93.820 -172.7719
68.394021 93.838 -173.1562
68.889632 93.855 -173.5385
69.388835 93.870 -173.9171
69.891655 93.884 -174.2906
70.398118 93.896 -174.6582
70.908252 93.905 -175.0197
71.422083 93.913 -175.3754
71.939636 93.918 -175.7260
72.460941 93.920 -176.0722
72.986023 93.919 -176.4146
73.514909 93.916 -176.7536
74.047629 93.909 -177.0889
74.584208 93.899 -177.4202
75.124676 93.887 -177.7472
75.669061 93.871 -178.0697
76.217390 93.853 -178.3877
76.769692 93.833 -178.7014
77.325997 93.810 -179.0113
77.886333 93.786 -179.3179
78.450730 93.760 -179.6216
79.019216 93.733 -179.9230
79.591822 93.704 179.7776
80.168577 93.675 179.4805
80.749512 93.645 179.1857
81.334656 93.615 178.8937
81.924040 93.583 178.6049
82.517696 93.552 178.3199
83.115653 93.521 178.0389
83.717943 93.489 177.7618
84.324598 93.457 177.4885
84.935649 93.425 177.2184
85.551128 93.393 176.9511
86.171066 93.360 176.6863
86.795497 93.328 176.4238
87.424453 93.295 176.1639
88.057967 93.262 175.9068
88.696071 93.229 175.6527
89.338800 93.195 175.4019
89.986185 93.161 175.1542
90.638262 93.127 174.9094
91.295065 93.093 174.6674
91.956626 93.058 174.4280
92.622982 93.022 174.1910
93.294166 92.987 173.9562
93.970214 92.951 173.7234
94.651161 92.915 173.4923
95.337042 92.879 173.2628
96.027894 92.844 173.0350
96.723752 92.808 172.8091
97.424652 92.774 172.5853
98.130631 92.739 172.3642
98.841726 92.705 172.1461
99.557974 92.672 171.9310
100.279412 92.639 171.7189
101.006078 92.607 171.5099
101.738010 92.576 171.3038
102.475245 92.545 171.1006
103.217823 92.515 170.9005
103.965782 92.486 170.7042
104.719161 92.458 170.5121
105.477999 92.431 170.3246
106.242336 92.405 170.1423
107.012212 92.380 169.9655
107.787666 92.357 169.7944
108.568740 92.335 169.6292
109.355474 92.315 169.4693
110.147909 92.295 169.3141
110.946086 92.277 169.1624
111.750047 92.260 169.0130
112.559834 92.244 168.8651
113.375489 92.229 168.7183
114.197055 92.215 168.5725
115.024574 92.201 168.4279
115.858089 92.187 168.2847
116.697645 92.173 168.1427
117.543284 92.159 168.0020
118.395051 92.145 167.8623
119.252990 92.131 167.7233
120.117147 92.116 167.5847
120.987565 92.100 167.4462
121.864291 92.082 167.3076
122.747370 92.064 167.1686
123.636848 92.044 167.0291
124.532771 92.023 166.8891
125.435187 92.000 166.7488
126.344142 91.976 166.6088
127.259684 91.951 166.4698
128.181860 91.924 166.3326
129.110718 91.896 166.1987
130.046308 91.867 166.0693
130.988677 91.836 165.9463
131.937875 91.804 165.8314
132.893951 91.771 165.7264
133.856956 91.737 165.6327
134.826938 91.702 165.5513
135.803950 91.665 165.4826
136.788041 91.627 165.4263
137.779264 91.589 165.3818
138.777669 91.550 165.3480
139.783309 91.511 165.3238
140.796237 91.472 165.3079
141.816504 91.433 165.2984
142.844165 91.395 165.2937
143.879273 91.357 165.2915
144.921881 91.320 165.2900
145.972045 91.284 165.2872
147.029819 91.248 165.2817
148.095257 91.212 165.2725
149.168417 91.177 165.2591
150.249353 91.141 165.2417
151.338121 91.106 165.2209
152.434780 91.069 165.1978
153.539385 91.032 165.1735
154.651995 90.995 165.1495
155.772667 90.957 165.1274
156.901460 90.918 165.1091
158.038432 90.879 165.0967
159.183644 90.839 165.0921
160.337154 90.800 165.0973
161.499023 90.760 165.1140
162.669312 90.721 165.1436
163.848081 90.683 165.1873
165.035392 90.646 165.2456
166.231306 90.611 165.3189
167.435887 90.577 165.4067
168.649196 90.545 165.5078
169.871298 90.516 165.6205
171.102255 90.489 165.7426
172.342133 90.464 165.8713
173.590995 90.442 166.0041
174.848907 90.423 166.1378
176.115934 90.407 166.2692
177.392143 90.393 166.3950
178.677599 90.381 166.5122
179.972371 90.371 166.6181
181.276525 90.364 166.7108
182.590129 90.357 166.7886
183.913252 90.352 166.8506
185.245964 90.348 166.8961
186.588332 90.343 166.9249
187.940428 90.339 166.9375
189.302322 90.334 166.9346
190.674085 90.328 166.9174
192.055788 90.321 166.8873
193.447503 90.313 166.8458
194.849303 90.304 166.7947
196.261262 90.292 166.7355
197.683452 90.280 166.6696
199.115948 90.265 166.5981
200.558824 90.248 166.5221
202.012156 90.230 166.4425
203.476019 90.210 166.3601
204.950490 90.189 166.2762
206.435646 90.167 166.1923
207.931564 90.145 166.1097
209.438322 90.122 166.0301
210.955998 90.099 165.9548
212.484672 90.076 165.8851
214.024424 90.053 165.8221
215.575333 90.031 165.7666
217.137481 90.009 165.7190
218.710948 89.987 165.6791
220.295818 89.967 165.6464
221.892172 89.947 165.6197
223.500094 89.928 165.5979
225.119668 89.910 165.5801
226.750978 89.893 165.5652
228.394109 89.877 165.5524
230.049147 89.863 165.5413
231.716178 89.850 165.5317
233.395289 89.838 165.5236
235.086567 89.829 165.5173
236.790102 89.820 165.5132
238.505980 89.813 165.5116
240.234293 89.808 165.5125
241.975130 89.803 165.5159
243.728581 89.799 165.5216
245.494739 89.796 165.5291
247.273695 89.793 165.5381
249.065542 89.790 165.5485
250.870374 89.787 165.5599
252.688284 89.785 165.5721
254.519367 89.783 165.5851
256.363720 89.782 165.5984
258.221437 89.780 165.6120
260.092616 89.779 165.6258
261.977354 89.778 165.6399
263.875750 89.778 165.6548
265.787903 89.778 165.6712
267.713911 89.777 165.6897
269.653877 89.777 165.7109
271.607900 89.776 165.7346
273.576083 89.776 165.7604
275.558528 89.775 165.7879
277.555338 89.774 165.8165
279.566619 89.772 165.8460
281.592474 89.771 165.8760
283.633009 89.771 165.9059
285.688331 89.770 165.9352
287.758546 89.771 165.9636
289.843763 89.772 165.9908
291.944090 89.773 166.0169
294.059638 89.776 166.0425
296.190515 89.779 166.0684
298.336833 89.783 166.0956
300.498705 89.788 166.1247
302.676243 89.793 166.1566
304.869559 89.799 166.1916
307.078770 89.806 166.2297
309.303989 89.813 166.2706
311.545334 89.821 166.3136
313.802919 89.830 166.3579
316.076865 89.839 166.4027
318.367288 89.849 166.4472
320.674309 89.859 166.4904
322.998047 89.869 166.5320
325.338624 89.880 166.5713
327.696162 89.890 166.6084
330.070783 89.899 166.6431
332.462612 89.909 166.6756
334.871773 89.917 166.7060
337.298392 89.925 166.7346
339.742595 89.933 166.7618
342.204510 89.940 166.7879
344.684265 89.946 166.8134
347.181989 89.951 166.8384
349.697813 89.954 166.8632
352.231868 89.957 166.8876
354.784285 89.959 166.9119
357.355198 89.959 166.9359
359.944741 89.959 166.9597
362.553049 89.957 166.9830
365.180258 89.954 167.0060
367.826505 89.950 167.0283
370.491927 89.946 167.0499
373.176665 89.941 167.0709
375.880856 89.936 167.0909
378.604644 89.930 167.1102
381.348169 89.923 167.1284
384.111575 89.917 167.1453
386.895006 89.910 167.1609
389.698607 89.903 167.1750
392.522524 89.895 167.1877
395.366904 89.888 167.1993
398.231895 89.879 167.2105
401.117648 89.870 167.2220
404.024312 89.860 167.2348
406.952038 89.849 167.2496
409.900981 89.837 167.2672
412.871292 89.824 167.2880
415.863128 89.810 167.3123
418.876643 89.795 167.3401
421.911996 89.778 167.3712
424.969344 89.760 167.4055
428.048847 89.741 167.4426
431.150666 89.721 167.4819
434.274961 89.699 167.5231
437.421897 89.677 167.5656
440.591636 89.654 167.6088
443.784345 89.630 167.6524
447.000189 89.605 167.6959
450.239337 89.580 167.7391
453.501956 89.554 167.7819
456.788219 89.528 167.8243
460.098294 89.502 167.8664
463.432356 89.476 167.9081
466.790578 89.451 167.9492
470.173135 89.426 167.9894
473.580203 89.402 168.0285
477.011961 89.378 168.0662
480.468586 89.356 168.1024
483.950259 89.335 168.1370
487.457163 89.314 168.1699
490.989478 89.295 168.2014
494.547390 89.278 168.2315
498.131084 89.261 168.2608
501.740748 89.246 168.2896
505.376568 89.232 168.3182
509.038735 89.221 168.3470
512.727439 89.211 168.3760
516.442874 89.202 168.4048
520.185232 89.196 168.4332
523.954708 89.192 168.4605
527.751500 89.190 168.4865
531.575805 89.189 168.5109
535.427822 89.191 168.5338
539.307753 89.195 168.5555
543.215800 89.201 168.5765
547.152165 89.209 168.5971
551.117055 89.219 168.6178
555.110677 89.231 168.6390
559.133237 89.246 168.6608
563.184947 89.262 168.6832
567.266018 89.280 168.7060
571.376661 89.299 168.7289
575.517092 89.320 168.7515
579.687526 89.341 168.7736
583.888181 89.363 168.7949
588.119275 89.386 168.8154
592.381030 89.409 168.8351
596.673667 89.432 168.8541
600.997410 89.455 168.8722
605.352485 89.477 168.8892
609.739119 89.500 168.9047
614.157540 89.522 168.9180
618.607979 89.543 168.9286
623.090667 89.563 168.9362
627.605839 89.583 168.9402
632.153730 89.602 168.9406
636.734576 89.620 168.9371
641.348617 89.637 168.9294
645.996094 89.652 168.9173
650.677248 89.667 168.9006
655.392323 89.681 168.8790
660.141566 89.693 168.8524
664.925224 89.704 168.8209
669.743546 89.714 168.7847
674.596784 89.722 168.7442
679.485191 89.729 168.6999
684.409020 89.735 168.6523
689.368530 89.739 168.6018
694.363979 89.742 168.5485
699.395626 89.744 168.4927
704.463736 89.745 168.4342
709.568570 89.744 168.3731
714.710396 89.742 168.3093
719.889483 89.739 168.2425
725.106099 89.735 168.1727
730.360516 89.730 168.0997
735.653010 89.723 168.0229
740.983855 89.715 167.9419
746.353329 89.706 167.8559
751.761713 89.696 167.7648
757.209288 89.684 167.6688
762.696339 89.670 167.5685
768.223151 89.656 167.4643
773.790013 89.639 167.3565
779.397214 89.622 167.2453
785.045047 89.604 167.1307
790.733808 89.585 167.0126
796.463791 89.565 166.8911
802.235296 89.545 166.7662
808.048623 89.525 166.6380
813.904077 89.504 166.5063
819.801961 89.484 166.3711
825.742584 89.464 166.2320
831.726255 89.444 166.0888
837.753287 89.424 165.9411
843.823992 89.405 165.7887
849.938689 89.386 165.6316
856.097695 89.368 165.4699
862.301332 89.349 165.3036
868.549922 89.332 165.1328
874.843793 89.314 164.9572
881.183272 89.297 164.7762
887.568689 89.280 164.5892
894.000378 89.263 164.3958
900.478673 89.246 164.1961
907.003913 89.229 163.9906
913.576437 89.212 163.7805
920.196588 89.195 163.5675
926.864712 89.177 163.3536
933.581156 89.160 163.1408
940.346270 89.143 162.9304
947.160407 89.127 162.7232
954.023921 89.112 162.5191
960.937172 89.098 162.3176
967.900519 89.087 162.1177
974.914325 89.077 161.9185
981.978956 89.068 161.7185
989.094780 89.062 161.5168
996.262169 89.058 161.3126
1003.481495 89.055 161.1054
1010.753136 89.053 160.8956
1018.077470 89.052 160.6837
1025.454879 89.052 160.4708
1032.885748 89.054 160.2578
1040.370463 89.056 160.0452
1047.909417 89.058 159.8333
1055.503000 89.062 159.6216
1063.151610 89.066 159.4095
1070.855645 89.070 159.1962
1078.615506 89.074 158.9814
1086.431599 89.077 158.7654
1094.304330 89.080 158.5490
1102.234110 89.081 158.3340
1110.221353 89.081 158.1220
1118.266475 89.078 157.9151
1126.369895 89.075 157.7147
1134.532035 89.069 157.5217
1142.753322 89.062 157.3359
1151.034184 89.054 157.1574
1159.375052 89.043 156.9858
1167.776361 89.031 156.8216
1176.238550 89.018 156.6660
1184.762060 89.002 156.5212
1193.347334 88.985 156.3896
1201.994821 88.967 156.2735
1210.704971 88.948 156.1740
1219.478238 88.929 156.0907
1228.315080 88.910 156.0220
1237.215957 88.892 155.9653
1246.181334 88.875 155.9178
1255.211678 88.858 155.8775
1264.307459 88.842 155.8434
1273.469152 88.825 155.8158
1282.697235 88.808 155.7958
1291.992188 88.791 155.7850
1301.354495 88.774 155.7844
1310.784647 88.757 155.7946
1320.283132 88.739 155.8160
1329.850448 88.722 155.8486
1339.487093 88.705 155.8922
1349.193569 88.688 155.9471
1358.970381 88.672 156.0131
1368.818041 88.656 156.0899
1378.737061 88.642 156.1766
1388.727958 88.628 156.2715
1398.791253 88.616 156.3731
1408.927471 88.606 156.4807
1419.137140 88.596 156.5943
1429.420793 88.588 156.7151
1439.778965 88.581 156.8448
1450.212197 88.576 156.9853
1460.721033 88.571 157.1382
1471.306019 88.569 157.3043
1481.967709 88.567 157.4837
1492.706658 88.568 157.6756
1503.523426 88.569 157.8789
1514.418576 88.571 158.0930
1525.392678 88.573 158.3184
1536.446302 88.575 158.5576
1547.580025 88.575 158.8141
1558.794428 88.574 159.0921
1570.090095 88.572 159.3950
1581.467615 88.569 159.7245
1592.927581 88.565 160.0803
1604.470591 88.561 160.4605
1616.097246 88.557 160.8622
1627.808153 88.553 161.2821
1639.603922 88.550 161.7171
1651.485168 88.546 162.1646
1663.452510 88.542 162.6229
1675.506573 88.539 163.0912
1687.647984 88.536 163.5692
1699.877377 88.534 164.0561
1712.195390 88.533 164.5508
1724.602663 88.534 165.0508
1737.099845 88.537 165.5528
1749.687587 88.542 166.0529
1762.366544 88.550 166.5474
1775.137379 88.559 167.0333
1788.000756 88.571 167.5082
1800.957346 88.584 167.9709
1814.007826 88.598 168.4210
1827.152874 88.614 168.8591
1840.393177 88.629 169.2869
1853.729425 88.645 169.7059
1867.162312 88.661 170.1179
1880.692540 88.678 170.5233
1894.320813 88.696 170.9213
1908.047843 88.715 171.3096
1921.874344 88.735 171.6843
1935.801038 88.756 172.0407
1949.828650 88.779 172.3726
1963.957912 88.803 172.6730
1978.189561 88.827 172.9353
1992.524338 88.851 173.1544
2006.962991 88.874 173.3277
2021.506272 88.894 173.4562
2036.154940 88.910 173.5436
2050.909758 88.922 173.5950
2065.771495 88.930 173.6166
2080.740927 88.934 173.6138
2095.818833 88.933 173.5919
2111.006001 88.929 173.5547
2126.303220 88.921 173.5055
2141.711290 88.911 173.4454
2157.231013 88.900 173.3746
2172.863198 88.887 173.2921
2188.608660 88.873 173.1963
2204.468221 88.857 173.0861
2220.442706 88.841 172.9611
2236.532950 88.823 172.8210
2252.739789 88.804 172.6662
2269.064070 88.783 172.4975
2285.506644 88.760 172.3167
2302.068367 88.736 172.1259
2318.750104 88.709 171.9277
2335.552723 88.680 171.7245
2352.477101 88.650 171.5196
2369.524119 88.618 171.3160
2386.694668 88.585 171.1169
2403.989641 88.551 170.9246
2421.409941 88.517 170.7398
2438.956476 88.485 170.5619
2456.630160 88.454 170.3887
2474.431915 88.425 170.2174
2492.362668 88.398 170.0444
2510.423356 88.374 169.8660
2528.614918 88.352 169.6783
2546.938304 88.332 169.4783
2565.394469 88.313 169.2645
2583.984375 88.295 169.0363
2602.708991 88.276 168.7949
2621.569293 88.256 168.5427
2640.566265 88.234 168.2836
2659.700897 88.209 168.0223
2678.974186 88.181 167.7647
2698.387137 88.149 167.5173
2717.940763 88.113 167.2872
2737.636082 88.073 167.0815
2757.474121 88.029 166.9072
2777.455915 87.981 166.7706
2797.582506 87.931 166.6777
2817.854942 87.877 166.6340
2838.274281 87.821 166.6450
2858.841586 87.763 166.7158
2879.557931 87.704 166.8514
2900.424394 87.644 167.0571
2921.442065 87.584 167.3372
2942.612039 87.525 167.6959
2963.935418 87.469 168.1355
2985.413316 87.416 168.6572
3007.046852 87.367 169.2594
3028.837153 87.325 169.9385
3050.785356 87.290 170.6881
3072.892604 87.262 171.4990
3095.160050 87.244 172.3599
3117.588856 87.235 173.2574
3140.180190 87.236 174.1761
3162.935230 87.245 175.0995
3185.855163 87.264 176.0102
3208.941182 87.290 176.8919
3232.194493 87.321 177.7301
3255.616307 87.357 178.5140
3279.207844 87.394 179.2375
3302.970336 87.431 179.9002
3326.905021 87.465 -179.4927
3351.013146 87.495 -178.9314
3375.295969 87.521 -178.4029
3399.754755 87.542 -177.8934
3424.390779 87.561 -177.3907
3449.205326 87.579 -176.8862
3474.199690 87.599 -176.3771
3499.375173 87.624 -175.8674
3524.733088 87.656 -175.3682
